BOXY.EXE: ISS Imagent and Oximeter Data Acquisition Program Version 0.80
Ascii Record File

#ACQ INFORMATION
2  Detector Channels 
16  External MUX Channels 
1  Auxiliary Channels 
5000  Waveform (CCF) Frequency (Hz)
1  Waveforms Skipped 
30  Waveforms Averaged 
1  Cycles Averaged 
16  Acquisitions per Waveform 
10.0806  Updata Rate (Hz) 

#FILE INFORMATION
TRUE -- External MUX Channel results are PARSED.
FALSE -- AC DC and Phase are NOT grouped.
TRUE -- Companion Program Settings File CREATED.
FALSE -- AC data not excluded
FALSE -- DC data not excluded
FALSE -- Phase data not excluded
FALSE -- Auxillary Chn. data not excluded
Tab delimiters

#CALIBRATION STATE
TRUE -- Waveform Calibration Values APPLIED.


#AUX CALIBRATION VALUES
Val Type	aux-1	

Term	1.0000e+00	
Factor	0.0000e+00	


#WF CALIBRATION VALUES
A = Detector Channel
Val Type	A-AC1	A-AC2	A-AC3	A-AC4	A-AC5	A-AC6	A-AC7	A-AC8	A-AC9	A-AC10	A-AC11	A-AC12	A-AC13	A-AC14	A-AC15	A-AC16	A-DC1	A-DC2	A-DC3	A-DC4	A-DC5	A-DC6	A-DC7	A-DC8	A-DC9	A-DC10	A-DC11	A-DC12	A-DC13	A-DC14	A-DC15	A-DC16	A-Ph1	A-Ph2	A-Ph3	A-Ph4	A-Ph5	A-Ph6	A-Ph7	A-Ph8	A-Ph9	A-Ph10	A-Ph11	A-Ph12	A-Ph13	A-Ph14	A-Ph15	A-Ph16	

Term	0.00000e+00	0.00000e+00	0.00000e+00	0.00000e+00	0.00000e+00	0.00000e+00	0.00000e+00	0.00000e+00	0.00000e+00	0.00000e+00	0.00000e+00	0.00000e+00	0.00000e+00	0.00000e+00	0.00000e+00	0.00000e+00	0.00000e+00	0.00000e+00	0.00000e+00	0.00000e+00	0.00000e+00	0.00000e+00	0.00000e+00	0.00000e+00	0.00000e+00	0.00000e+00	0.00000e+00	0.00000e+00	0.00000e+00	0.00000e+00	0.00000e+00	0.00000e+00	0.00000e+00	0.00000e+00	0.00000e+00	0.00000e+00	0.00000e+00	0.00000e+00	0.00000e+00	0.00000e+00	0.00000e+00	0.00000e+00	0.00000e+00	0.00000e+00	0.00000e+00	0.00000e+00	0.00000e+00	0.00000e+00	
Factor	1.00000e+00	1.00000e+00	1.00000e+00	1.00000e+00	1.00000e+00	1.00000e+00	1.00000e+00	1.00000e+00	1.00000e+00	1.00000e+00	1.00000e+00	1.00000e+00	1.00000e+00	1.00000e+00	1.00000e+00	1.00000e+00	1.00000e+00	1.00000e+00	1.00000e+00	1.00000e+00	1.00000e+00	1.00000e+00	1.00000e+00	1.00000e+00	1.00000e+00	1.00000e+00	1.00000e+00	1.00000e+00	1.00000e+00	1.00000e+00	1.00000e+00	1.00000e+00	X	X	X	X	X	X	X	X	X	X	X	X	X	X	X	X	

B = Detector Channel
Val Type	B-AC1	B-AC2	B-AC3	B-AC4	B-AC5	B-AC6	B-AC7	B-AC8	B-AC9	B-AC10	B-AC11	B-AC12	B-AC13	B-AC14	B-AC15	B-AC16	B-DC1	B-DC2	B-DC3	B-DC4	B-DC5	B-DC6	B-DC7	B-DC8	B-DC9	B-DC10	B-DC11	B-DC12	B-DC13	B-DC14	B-DC15	B-DC16	B-Ph1	B-Ph2	B-Ph3	B-Ph4	B-Ph5	B-Ph6	B-Ph7	B-Ph8	B-Ph9	B-Ph10	B-Ph11	B-Ph12	B-Ph13	B-Ph14	B-Ph15	B-Ph16	

Term	0.00000e+00	0.00000e+00	0.00000e+00	0.00000e+00	0.00000e+00	0.00000e+00	0.00000e+00	0.00000e+00	0.00000e+00	0.00000e+00	0.00000e+00	0.00000e+00	0.00000e+00	0.00000e+00	0.00000e+00	0.00000e+00	0.00000e+00	0.00000e+00	0.00000e+00	0.00000e+00	0.00000e+00	0.00000e+00	0.00000e+00	0.00000e+00	0.00000e+00	0.00000e+00	0.00000e+00	0.00000e+00	0.00000e+00	0.00000e+00	0.00000e+00	0.00000e+00	-1.55621e+02	-1.24518e+02	-1.31563e+02	-1.86928e+02	-8.61065e+01	-8.09538e+01	-1.58580e+02	-1.62015e+02	-9.05556e+01	-5.18402e+01	-1.71958e+02	-1.71373e+02	-1.84090e+02	-1.77418e+02	-5.60760e+01	-1.49892e+02	
Factor	2.32733e-05	1.42972e-04	3.50683e-05	3.05204e-01	1.19204e-06	1.37942e-06	1.67467e-01	5.21981e-02	1.31927e-06	1.23116e-06	8.50871e-02	2.82555e-02	4.13559e-02	9.14115e-03	1.20639e-06	1.30226e-02	1.85266e-06	1.96068e-06	5.46078e-07	1.54168e-01	2.14539e-08	2.15340e-08	8.10941e-02	2.69203e-02	2.14088e-08	2.15808e-08	4.22580e-02	1.40733e-02	2.10731e-02	4.71898e-03	2.14232e-08	6.49031e-03	X	X	X	X	X	X	X	X	X	X	X	X	X	X	X	X	



#DISTANCE SETTINGS
A = Detector Channel
A-1	A-2	A-3	A-4	A-5	A-6	A-7	A-8	A-9	A-10	A-11	A-12	A-13	A-14	A-15	A-16	

2.5000e+00	3.0000e+00	2.5000e+00	3.0000e+00	2.0000e+00	3.0000e+00	1.5000e+00	3.0000e+00	3.0000e+00	3.0000e+00	3.0000e+00	3.0000e+00	3.0000e+00	3.0000e+00	1.5000e+00	3.0000e+00	

B = Detector Channel
B-1	B-2	B-3	B-4	B-5	B-6	B-7	B-8	B-9	B-10	B-11	B-12	B-13	B-14	B-15	B-16	

1.0000e+01	1.0000e+01	1.0000e+01	1.4400e+00	1.0000e+01	1.0000e+01	1.5100e+00	1.9400e+00	1.0000e+01	1.0000e+01	1.9900e+00	2.4900e+00	2.4100e+00	2.9000e+00	1.0000e+01	2.9800e+00	




#DATA BEGINS
time	group	step	mark	flag	A-AC1	A-AC2	A-AC3	A-AC4	A-AC5	A-AC6	A-AC7	A-AC8	A-AC9	A-AC10	A-AC11	A-AC12	A-AC13	A-AC14	A-AC15	A-AC16	A-DC1	A-DC2	A-DC3	A-DC4	A-DC5	A-DC6	A-DC7	A-DC8	A-DC9	A-DC10	A-DC11	A-DC12	A-DC13	A-DC14	A-DC15	A-DC16	A-Ph1	A-Ph2	A-Ph3	A-Ph4	A-Ph5	A-Ph6	A-Ph7	A-Ph8	A-Ph9	A-Ph10	A-Ph11	A-Ph12	A-Ph13	A-Ph14	A-Ph15	A-Ph16	B-AC1	B-AC2	B-AC3	B-AC4	B-AC5	B-AC6	B-AC7	B-AC8	B-AC9	B-AC10	B-AC11	B-AC12	B-AC13	B-AC14	B-AC15	B-AC16	B-DC1	B-DC2	B-DC3	B-DC4	B-DC5	B-DC6	B-DC7	B-DC8	B-DC9	B-DC10	B-DC11	B-DC12	B-DC13	B-DC14	B-DC15	B-DC16	B-Ph1	B-Ph2	B-Ph3	B-Ph4	B-Ph5	B-Ph6	B-Ph7	B-Ph8	B-Ph9	B-Ph10	B-Ph11	B-Ph12	B-Ph13	B-Ph14	B-Ph15	B-Ph16	aux-1	digaux	

4529.909	1	1	0	768	0.12271	0.27209	0.1791	0.15441	0.1007	0.017257	0.17254	0.28891	0.033471	0.21495	0.20528	0.17011	0.019834	0.19168	0.19696	0.22193	-2.4729	-2.1375	-2.4604	-2.975	-2.2979	-2.9875	-2.6083	-2.4583	-3.0229	-2.2646	-2.5958	-2.9875	-2.2646	-2.9229	-2.4979	-2.3146	175.688	212.174	314.695	347.123	233.246	405.128	408.505	341.449	201.662	282.252	277.020	115.772	199.848	127.088	152.325	96.600	0.0004274	0.0016015	0.0002044	1114.9	3.814e-06	6.2061e-06	684.31	400.84	1.1994e-05	9.9352e-06	248.43	78.201	130.85	50.071	6.2966e-06	36.06	0.0014149	0.0014866	0.00041801	1198.1	1.636e-05	1.6209e-05	735.07	416.71	1.6072e-05	1.6409e-05	274.36	86.82	142.42	53.026	1.6187e-05	40.271	160.348	154.399	156.834	97.246	192.797	395.291	95.284	101.690	249.047	213.307	98.716	103.150	105.999	110.445	168.716	106.453	-8191	255	
4530.005	1	1	0	0	0.04946	0.22929	0.16111	0.36097	0.061891	0.26993	0.081627	0.13601	0.11257	0.073351	0.17532	0.17846	0.23403	0.075745	0.25496	0.22385	-2.5667	-2.3292	-2.3833	-3.1021	-2.2438	-2.9021	-2.7271	-2.3792	-2.8792	-2.4667	-2.6583	-2.9	-2.3375	-2.85	-2.8146	-2.1688	390.565	365.340	364.419	441.267	411.167	308.847	435.425	358.021	355.303	151.831	367.425	347.867	412.843	384.368	199.413	341.878	0.0005229	0.00093985	0.0002168	1119	3.395e-06	3.9721e-06	686.2	402.79	7.8004e-06	7.7523e-06	248.59	78.423	130.83	50.602	7.7625e-06	36.34	0.0014267	0.0014925	0.00042185	1202.8	1.6417e-05	1.6502e-05	735.89	417.95	1.6443e-05	1.6513e-05	275.26	87.28	143.05	53.372	1.6403e-05	40.487	136.665	88.300	183.064	97.156	358.162	133.905	95.297	101.636	211.120	239.822	98.720	102.953	105.514	110.655	176.478	106.645	-8191	255	
4530.101	1	1	0	0	0.2188	0.15443	0.14325	0.18993	0.32074	0.21673	0.31553	0.20295	0.20708	0.14982	0.21121	0.17839	0.30531	0.14803	0.32968	0.13524	-2.6271	-2.3083	-2.2438	-3.0938	-2.2354	-2.5667	-2.7542	-2.4542	-2.8083	-2.4375	-2.275	-2.925	-2.2896	-2.6229	-2.7729	-2.0792	247.930	379.051	321.769	383.422	306.291	173.534	329.430	367.927	326.232	324.896	114.315	346.948	373.905	110.294	391.497	433.240	0.00044859	0.00046013	1.1514e-05	1120.5	6.4893e-06	1.37e-05	690.38	403.05	1.5852e-05	1.0362e-05	248.92	78.881	131.25	50.586	5.7019e-06	36.38	0.0014508	0.0015085	0.00042745	1205.5	1.6589e-05	1.6628e-05	737.57	418.15	1.6327e-05	1.6535e-05	275.9	87.551	142.75	53.316	1.6356e-05	40.441	140.595	335.301	280.529	97.106	322.146	263.726	95.626	101.820	250.187	244.221	98.802	102.909	105.857	110.648	202.145	106.945	-8191	255	
4530.197	1	1	0	0	0.069405	0.047285	0.14327	0.01504	0.10868	0.1982	0.24316	0.15219	0.16218	0.090965	0.12572	0.18994	0.18184	0.17494	0.26239	0.3654	-2.6333	-2.4146	-2.0958	-3.175	-2.2812	-2.5958	-3.1458	-2.3208	-2.9188	-2.7708	-2.2313	-2.9875	-2.5771	-2.4813	-2.9083	-2.3104	322.137	349.525	127.861	104.358	226.030	282.222	94.121	270.124	137.398	380.608	131.968	366.757	419.864	432.599	101.182	303.810	0.00050041	0.00038772	0.00026629	1111.4	5.2926e-06	4.5954e-06	678.66	397.02	2.208e-06	1.1001e-05	244.52	76.93	130.23	49.899	3.933e-06	35.749	0.0014588	0.0014995	0.0004254	1196.2	1.6507e-05	1.6888e-05	729.29	412.22	1.6498e-05	1.6406e-05	270.99	85.975	141.13	52.724	1.6324e-05	39.888	145.423	97.419	197.844	97.652	222.315	232.623	95.351	101.788	420.669	346.189	99.379	103.113	105.910	110.781	276.722	107.025	-8191	255	
4530.293	1	1	0	0	0.18543	0.07533	0.10104	0.13707	0.10658	0.14883	0.085632	0.25916	0.15115	0.17459	0.29559	0.18978	0.25809	0.3245	0.027748	0.29773	-2.3583	-2.6292	-2.2021	-3.1188	-2.2896	-2.4333	-3.0271	-2.3625	-2.8312	-2.7687	-2.2021	-3.1188	-2.3771	-2.2438	-2.9875	-2.0583	143.510	141.085	436.456	253.134	175.409	174.072	121.391	114.306	249.749	345.540	96.471	239.556	139.375	383.071	185.598	415.940	0.00049524	0.00030632	0.00028489	1103.4	3.0093e-06	9.1713e-06	673.71	395.58	3.8375e-06	3.6304e-06	243.35	76.85	129.85	49.69	4.4286e-06	35.584	0.0014482	0.0014995	0.00042633	1192.8	1.6412e-05	1.6672e-05	724.41	411.13	1.6358e-05	1.6423e-05	270.48	85.785	141.06	52.604	1.642e-05	39.845	145.544	206.316	382.261	97.863	239.198	199.526	95.529	102.226	378.815	274.363	98.806	103.565	106.200	110.580	326.485	106.635	-8191	255	
4530.389	1	1	0	0	0.23275	0.16182	0.093348	0.12995	0.038261	0.16802	0.1266	0.27649	0.16903	0.02974	0.17364	0.32338	0.29935	0.099254	0.30347	0.24245	-2.0646	-2.7333	-2.1604	-3.0104	-2.4708	-2.2479	-3.1396	-2.3125	-2.5729	-2.8917	-2.1521	-2.9417	-2.5917	-2.2771	-2.9292	-2.4104	127.034	186.962	424.905	98.389	108.192	86.081	108.246	388.005	224.947	100.176	336.198	432.246	433.251	117.021	210.282	381.397	0.00041738	0.00027163	5.0553e-05	1107.5	4.2897e-06	5.5254e-06	677.39	396.51	1.0268e-05	7.6207e-06	244.62	77.279	129.22	50.017	4.3558e-06	35.822	0.0014446	0.0014887	0.00042449	1194.4	1.6357e-05	1.6718e-05	727.16	412.45	1.6523e-05	1.6362e-05	271.59	86.354	141.2	52.81	1.6301e-05	40.043	166.924	234.661	101.326	97.209	91.140	296.504	95.568	101.703	192.611	230.039	98.541	103.230	106.148	110.792	93.941	106.323	-8191	255	
4530.510	1	1	0	0	0.15037	0.14222	0.041391	0.21518	0.060669	0.16999	0.41854	0.058494	0.23996	0.24687	0.27715	0.23104	0.2961	0.088857	0.30914	0.21153	-1.9937	-2.7812	-2.1542	-2.7375	-2.6937	-2.1396	-3.0062	-2.5875	-2.3833	-2.7313	-2.2146	-2.7625	-2.5521	-2.1896	-2.8146	-2.3375	204.095	436.375	165.433	248.308	318.467	408.603	394.946	203.622	319.926	427.476	299.081	379.274	369.420	192.863	219.898	368.415	0.00049795	0.00040334	0.0001908	1114.3	5.3622e-06	6.7822e-06	683.51	398.71	6.0111e-06	7.3239e-06	247.88	79.366	131.14	50.444	1.9431e-06	36.363	0.0014508	0.0014784	0.00041857	1198.5	1.6178e-05	1.6604e-05	736.1	414.86	1.6509e-05	1.6424e-05	274.55	87.755	142.35	53.22	1.6158e-05	40.366	144.347	229.672	160.573	97.212	310.697	117.008	95.064	101.576	254.298	412.938	98.908	103.084	105.533	110.485	255.919	106.324	-8191	255	
4530.606	1	1	0	0	0.13355	0.32666	0.20057	0.22541	0.13456	0.18902	0.12454	0.26123	0.1548	0.18594	0.013231	0.056339	0.045982	0.036626	0.10708	0.28476	-2.0896	-2.8875	-2.1063	-2.6667	-2.7833	-2.0854	-3.0333	-2.525	-2.1896	-3.0187	-2.2687	-2.4875	-2.9354	-2.125	-2.9833	-2.6958	392.320	370.426	98.002	378.452	284.481	339.428	437.335	432.612	375.058	165.741	155.208	407.340	375.522	391.865	314.010	374.363	0.00033798	0.00090315	0.00021061	1120.4	8.9472e-06	7.8412e-06	684.56	400.96	5.7655e-06	6.8072e-07	245.05	78.477	131.07	50.084	7.8828e-06	36	0.0014598	0.0014903	0.00041917	1204.2	1.6207e-05	1.6559e-05	735.77	415.71	1.6485e-05	1.6397e-05	272.51	87.095	142.08	52.936	1.6154e-05	40.047	125.633	220.438	128.762	97.518	164.489	208.992	95.771	101.999	206.761	371.593	98.331	102.910	105.848	110.479	227.911	106.768	-8191	255	
4530.702	1	1	0	0	0.45932	0.12449	0.048949	0.14009	0.1065	0.18252	0.22643	0.036956	0.24102	0.11774	0.18361	0.15237	0.16882	0.20189	0.10497	0.17269	-1.9229	-2.9354	-2.2	-2.6021	-2.8333	-2.0146	-2.9938	-2.8229	-2.1875	-2.9042	-2.425	-2.5646	-2.9375	-2.1604	-2.8292	-2.725	342.094	184.483	421.416	329.943	159.376	233.693	395.175	98.502	229.025	304.330	169.771	150.346	150.899	85.615	263.541	269.830	0.00042254	0.0008543	0.00016235	1110.2	5.7505e-06	6.3273e-06	680.3	397.19	5.1147e-06	1.2842e-05	246.67	77.487	129.55	49.445	1.2626e-05	35.885	0.0014477	0.0014766	0.0004139	1198.3	1.6183e-05	1.6426e-05	731.12	413.58	1.6255e-05	1.623e-05	272.37	86.708	141.1	52.547	1.6162e-05	39.904	149.269	162.193	170.385	97.286	237.102	337.124	95.196	101.263	167.166	283.707	98.538	102.780	105.893	110.450	261.275	106.631	-8191	255	
4530.798	1	1	0	0	0.15662	0.18457	0.26133	0.22576	0.13229	0.39892	0.0092143	0.13422	0.1214	0.16055	0.16245	0.11891	0.17567	0.22807	0.063093	0.15049	-1.7354	-2.8854	-2.3438	-2.5104	-2.9437	-2.2562	-2.9021	-2.6729	-2.025	-2.9625	-2.5208	-2.3458	-3.025	-2.2771	-2.7938	-2.8271	366.162	87.493	442.021	414.742	120.905	392.392	196.371	381.398	290.686	435.393	345.325	92.172	335.313	415.887	176.687	169.682	0.00044578	0.0007883	0.00011529	1114.5	1.174e-06	1.191e-05	683.3	400.54	7.2338e-06	3.7442e-06	249.31	78.494	131.23	49.968	3.9931e-06	36.194	0.0014376	0.0014733	0.00041102	1202.2	1.6122e-05	1.6411e-05	732.91	414.44	1.6343e-05	1.6267e-05	273.64	87.394	142.17	52.902	1.6318e-05	40.406	154.032	216.147	216.797	97.626	174.777	187.285	95.369	101.546	187.517	356.756	98.771	103.305	105.830	110.457	204.555	106.315	-8191	255	
4530.893	1	1	0	0	0.14268	0.25807	0.19804	0.26501	0.15617	0.082603	0.26087	0.25873	0.12765	0.3138	0.30897	0.15947	0.11601	0.16386	0.24839	0.14879	-1.5604	-2.8208	-2.5417	-2.375	-2.875	-2.1937	-2.5062	-2.9396	-2.2021	-2.8854	-2.7333	-2.2812	-3.1292	-2.5375	-2.5563	-3.0083	130.037	355.843	110.752	103.440	92.369	139.673	350.273	435.663	327.573	190.697	137.846	115.275	259.229	441.734	242.326	313.478	0.00031628	0.00061847	0.00013501	1112.6	4.8379e-06	5.3804e-06	682.16	400.21	1.1689e-05	5.0965e-06	246.53	78.607	130.4	50.142	1.2012e-05	36.035	0.0014422	0.0015003	0.00041287	1203.9	1.6283e-05	1.6474e-05	735.71	415.62	1.6513e-05	1.6315e-05	273.38	87.595	142.19	53.143	1.6539e-05	40.302	163.401	377.280	423.226	96.980	318.515	215.147	95.424	101.678	183.097	423.368	98.239	103.285	105.536	110.510	272.422	106.626	-8191	255	
4530.989	1	1	0	0	0.062244	0.17315	0.13167	0.17339	0.047799	0.18664	0.43697	0.13208	0.084993	0.055125	0.058197	0.13806	0.097032	0.41186	0.13624	0.078683	-1.6667	-2.8396	-2.5979	-2.1813	-2.8021	-2.2042	-2.4833	-2.975	-2.0417	-2.7438	-2.6688	-2.1521	-3.0292	-2.3021	-2.3937	-2.9833	84.762	292.149	240.555	90.345	184.518	258.093	341.051	124.508	115.182	231.157	237.254	277.246	307.261	106.386	92.801	312.877	0.00037764	0.0012238	0.00019363	1109.5	6.4039e-06	4.6271e-07	680.68	397.69	1.3274e-05	8.8299e-06	241.76	76.769	129.58	49.604	1.6664e-05	35.47	0.0014498	0.0014948	0.00041546	1197	1.6255e-05	1.6287e-05	727.76	412.93	1.6259e-05	1.6239e-05	269.35	86.114	141.23	52.365	1.6338e-05	39.63	132.054	223.902	388.340	97.282	202.770	376.228	95.662	101.900	225.854	218.242	99.253	103.510	106.014	110.632	235.060	106.945	-8191	255	
4531.110	1	1	0	0	0.082937	0.15658	0.26336	0.12457	0.077653	0.20373	0.15734	0.084648	0.14298	0.23681	0.18582	0.083627	0.044824	0.19626	0.096901	0.10075	-1.8104	-2.65	-2.7167	-2.1521	-2.8458	-2.4854	-2.3604	-3.0146	-2.1875	-2.5042	-2.7625	-2.1917	-2.8854	-2.4562	-2.3417	-3.0917	264.485	360.657	177.251	128.588	387.276	264.643	357.796	397.230	373.008	194.231	391.434	133.653	394.772	116.846	409.752	124.492	0.00042931	0.00085931	0.00010588	1108.7	4.351e-06	1.9743e-06	674.36	396.56	6.9074e-06	2.0113e-06	243.9	76.898	129.15	49.356	1.1454e-05	35.41	0.0014144	0.0014733	0.00040712	1192.5	1.6077e-05	1.5993e-05	723.01	411.13	1.6115e-05	1.6263e-05	268.71	85.744	140.48	52.237	1.6308e-05	39.459	144.792	96.585	272.667	97.776	270.007	104.303	95.611	101.833	221.994	184.340	98.310	103.195	105.984	110.735	170.420	106.918	-8191	255	
4531.206	1	1	0	0	0.022405	0.22608	0.038561	0.19033	0.070102	0.043659	0.11244	0.16218	0.22563	0.25901	0.070321	0.082658	0.050042	0.20893	0.2877	0.27625	-1.8292	-2.5583	-2.8812	-2.2646	-2.9813	-2.4771	-2.2938	-3.0563	-2.2	-2.4729	-3.0083	-2.1146	-2.9813	-2.6354	-2.1688	-2.8833	209.224	323.015	375.235	399.255	398.505	255.417	261.573	116.016	331.291	171.491	371.843	416.329	200.710	87.112	112.764	437.466	0.00037237	0.0010516	0.00015202	1105.2	6.6358e-06	1.2938e-05	671.38	396.31	1.0579e-05	2.6911e-06	243.05	76.707	129.1	49.478	6.541e-06	35.846	0.0014041	0.0014735	0.00040299	1191.7	1.5959e-05	1.5931e-05	722.46	411.48	1.6151e-05	1.636e-05	268.52	86.001	140.84	52.334	1.6325e-05	39.866	142.720	192.999	263.492	97.736	232.328	284.019	95.383	101.725	234.856	231.527	98.666	102.805	105.777	110.500	231.917	106.633	-8191	255	
4531.302	1	1	0	0	0.26747	0.11111	0.23636	0.15972	0.21394	0.16059	0.070329	0.20441	0.32373	0.06337	0.14605	0.19934	0.33486	0.24301	0.23147	0.032613	-1.8188	-2.1979	-2.8604	-2.3292	-2.6521	-2.7667	-2.2417	-3.0792	-2.2062	-2.2333	-2.9062	-2.2083	-2.8479	-2.8125	-2.125	-3.0125	290.739	208.721	207.126	96.329	186.656	144.431	439.414	384.419	111.239	91.756	92.413	159.199	136.993	425.832	86.726	407.516	0.00053463	0.00020524	0.00029297	1105	1.677e-05	3.7404e-06	674.86	396.43	3.3379e-06	7.7453e-06	243.13	77.373	130.04	49.48	1.3457e-05	35.659	0.0014175	0.0014975	0.00040777	1190.9	1.6259e-05	1.6155e-05	724.93	411.48	1.6144e-05	1.6427e-05	269.42	86.19	141.09	52.333	1.6374e-05	39.873	151.160	406.509	172.770	97.643	225.794	375.915	95.461	101.887	243.611	348.224	98.767	103.215	106.267	110.603	213.012	107.391	-8191	255	
4531.398	1	1	0	0	0.17049	0.064277	0.068324	0.25281	0.24266	0.1689	0.069408	0.15602	0.093795	0.27736	0.28646	0.15899	0.024523	0.082895	0.11229	0.10147	-2.0396	-2.3438	-3.0625	-2.2875	-2.6083	-2.6792	-2.25	-2.8771	-2.4375	-2.3812	-2.9104	-2.3229	-2.4458	-3.0042	-2.1229	-2.9313	422.220	326.849	367.970	85.137	269.747	410.542	172.660	364.509	379.819	115.573	391.739	421.187	184.793	320.603	85.732	391.480	0.00026506	0.00039096	0.0001743	1102.6	3.2456e-06	6.9789e-06	665.9	395.11	8.3607e-06	3.9173e-06	243.19	76.64	129.54	49.004	2.7783e-06	35.347	0.0014	0.0014917	0.00040549	1186.4	1.6202e-05	1.5952e-05	720.68	410.99	1.6004e-05	1.6364e-05	268.46	85.519	140.71	51.978	1.6184e-05	39.47	150.303	398.133	193.773	97.250	229.951	171.748	95.740	101.948	163.169	300.424	98.761	103.295	105.878	110.223	186.102	106.637	-8191	255	
4531.470	1	1	0	0	0.13712	0.13984	0.14926	0.050197	0.18318	0.28082	0.11924	0.30623	0.073191	0.23469	0.10268	0.18174	0.24403	0.19877	0.22871	0.08858	-2.1063	-2.2438	-2.8333	-2.2396	-2.4292	-2.925	-2.3271	-2.9083	-2.6917	-2.2833	-2.9292	-2.3167	-2.3542	-2.8688	-2.1229	-2.7104	87.362	355.235	416.458	95.936	392.208	424.069	357.050	380.678	377.971	263.879	303.581	360.222	101.234	428.639	270.218	126.708	0.00042219	0.00060596	0.00020949	1105.8	8.3655e-06	8.8494e-06	674.93	397.19	8.047e-06	3.9756e-06	243.88	77.192	130.95	49.626	6.9307e-06	35.75	0.0013906	0.0014773	0.00040356	1186.4	1.6152e-05	1.5935e-05	723.33	411.63	1.5698e-05	1.6224e-05	269.25	85.906	141.4	52.356	1.6121e-05	39.844	134.034	298.903	129.719	97.850	116.033	256.576	95.365	101.547	256.548	390.226	98.932	103.055	105.881	110.369	301.396	106.634	-8191	255	
4531.590	1	1	0	0	0.046881	0.16213	0.18483	0.15674	0.030738	0.14727	0.19779	0.30313	0.18596	0.091936	0.21222	0.36823	0.15711	0.15278	0.12481	0.26008	-2.3458	-2.1021	-2.875	-2.5375	-2.2542	-2.9	-2.3521	-2.8146	-2.6542	-2.175	-2.8854	-2.3312	-2.3917	-2.8875	-2.1625	-2.6958	85.083	101.727	289.358	377.969	122.571	141.236	358.185	87.417	273.139	320.378	308.966	352.977	86.177	430.685	338.688	390.661	0.00034339	0.0001173	0.00017599	1099.8	6.1979e-06	4.7065e-06	674.58	398.04	7.1639e-06	1.0087e-05	245.48	77.817	130.38	49.938	1.1772e-05	36.122	0.0013961	0.0014782	0.00040529	1189	1.6226e-05	1.5962e-05	725.72	413.99	1.5871e-05	1.6342e-05	271.92	86.77	142.37	52.727	1.6113e-05	40.351	118.809	129.258	147.931	97.131	403.549	241.286	95.139	101.673	216.538	285.241	98.492	102.333	105.726	110.511	157.049	106.839	-8191	255	
