BOXY.EXE: ISS Imagent and Oximeter Data Acquisition Program Version 0.80
Ascii Record File

#ACQ INFORMATION
2  Detector Channels 
16  External MUX Channels 
1  Auxiliary Channels 
5000  Waveform (CCF) Frequency (Hz)
1  Waveforms Skipped 
30  Waveforms Averaged 
1  Cycles Averaged 
16  Acquisitions per Waveform 
10.0806  Updata Rate (Hz) 

#FILE INFORMATION
TRUE -- External MUX Channel results are PARSED.
FALSE -- AC DC and Phase are NOT grouped.
TRUE -- Companion Program Settings File CREATED.
FALSE -- AC data not excluded
FALSE -- DC data not excluded
FALSE -- Phase data not excluded
FALSE -- Auxillary Chn. data not excluded
Tab delimiters

#CALIBRATION STATE
TRUE -- Waveform Calibration Values APPLIED.


#AUX CALIBRATION VALUES
Val Type	aux-1	

Term	1.0000e+00	
Factor	0.0000e+00	


#WF CALIBRATION VALUES
A = Detector Channel
Val Type	A-AC1	A-AC2	A-AC3	A-AC4	A-AC5	A-AC6	A-AC7	A-AC8	A-AC9	A-AC10	A-AC11	A-AC12	A-AC13	A-AC14	A-AC15	A-AC16	A-DC1	A-DC2	A-DC3	A-DC4	A-DC5	A-DC6	A-DC7	A-DC8	A-DC9	A-DC10	A-DC11	A-DC12	A-DC13	A-DC14	A-DC15	A-DC16	A-Ph1	A-Ph2	A-Ph3	A-Ph4	A-Ph5	A-Ph6	A-Ph7	A-Ph8	A-Ph9	A-Ph10	A-Ph11	A-Ph12	A-Ph13	A-Ph14	A-Ph15	A-Ph16	

Term	0.00000e+00	0.00000e+00	0.00000e+00	0.00000e+00	0.00000e+00	0.00000e+00	0.00000e+00	0.00000e+00	0.00000e+00	0.00000e+00	0.00000e+00	0.00000e+00	0.00000e+00	0.00000e+00	0.00000e+00	0.00000e+00	0.00000e+00	0.00000e+00	0.00000e+00	0.00000e+00	0.00000e+00	0.00000e+00	0.00000e+00	0.00000e+00	0.00000e+00	0.00000e+00	0.00000e+00	0.00000e+00	0.00000e+00	0.00000e+00	0.00000e+00	0.00000e+00	0.00000e+00	0.00000e+00	0.00000e+00	0.00000e+00	0.00000e+00	0.00000e+00	0.00000e+00	0.00000e+00	0.00000e+00	0.00000e+00	0.00000e+00	0.00000e+00	0.00000e+00	0.00000e+00	0.00000e+00	0.00000e+00	
Factor	1.00000e+00	1.00000e+00	1.00000e+00	1.00000e+00	1.00000e+00	1.00000e+00	1.00000e+00	1.00000e+00	1.00000e+00	1.00000e+00	1.00000e+00	1.00000e+00	1.00000e+00	1.00000e+00	1.00000e+00	1.00000e+00	1.00000e+00	1.00000e+00	1.00000e+00	1.00000e+00	1.00000e+00	1.00000e+00	1.00000e+00	1.00000e+00	1.00000e+00	1.00000e+00	1.00000e+00	1.00000e+00	1.00000e+00	1.00000e+00	1.00000e+00	1.00000e+00	X	X	X	X	X	X	X	X	X	X	X	X	X	X	X	X	

B = Detector Channel
Val Type	B-AC1	B-AC2	B-AC3	B-AC4	B-AC5	B-AC6	B-AC7	B-AC8	B-AC9	B-AC10	B-AC11	B-AC12	B-AC13	B-AC14	B-AC15	B-AC16	B-DC1	B-DC2	B-DC3	B-DC4	B-DC5	B-DC6	B-DC7	B-DC8	B-DC9	B-DC10	B-DC11	B-DC12	B-DC13	B-DC14	B-DC15	B-DC16	B-Ph1	B-Ph2	B-Ph3	B-Ph4	B-Ph5	B-Ph6	B-Ph7	B-Ph8	B-Ph9	B-Ph10	B-Ph11	B-Ph12	B-Ph13	B-Ph14	B-Ph15	B-Ph16	

Term	0.00000e+00	0.00000e+00	0.00000e+00	0.00000e+00	0.00000e+00	0.00000e+00	0.00000e+00	0.00000e+00	0.00000e+00	0.00000e+00	0.00000e+00	0.00000e+00	0.00000e+00	0.00000e+00	0.00000e+00	0.00000e+00	0.00000e+00	0.00000e+00	0.00000e+00	0.00000e+00	0.00000e+00	0.00000e+00	0.00000e+00	0.00000e+00	0.00000e+00	0.00000e+00	0.00000e+00	0.00000e+00	0.00000e+00	0.00000e+00	0.00000e+00	0.00000e+00	2.70886e+01	-1.47570e+02	-1.59823e+02	-1.87769e+02	-7.16749e+01	-1.02766e+02	-1.57019e+02	-1.62015e+02	-1.01898e+02	-8.89711e+01	-1.73571e+02	-1.72116e+02	-1.82981e+02	-1.77625e+02	-1.07765e+02	-1.50887e+02	
Factor	4.90076e-05	9.02078e-05	2.72429e-05	5.41330e-01	1.00772e-06	1.22008e-06	1.72070e-01	5.71424e-02	1.21130e-06	1.00603e-06	1.10401e-01	3.27385e-02	3.12637e-02	9.63839e-03	1.14382e-06	1.41262e-02	4.51512e-07	4.55847e-07	1.26572e-07	2.20301e-01	4.97833e-09	4.98109e-09	7.62968e-02	2.65919e-02	4.98129e-09	4.97910e-09	4.73171e-02	1.42145e-02	1.38173e-02	4.35854e-03	4.97014e-09	6.06963e-03	X	X	X	X	X	X	X	X	X	X	X	X	X	X	X	X	



#DISTANCE SETTINGS
A = Detector Channel
A-1	A-2	A-3	A-4	A-5	A-6	A-7	A-8	A-9	A-10	A-11	A-12	A-13	A-14	A-15	A-16	

2.5000e+00	3.0000e+00	2.5000e+00	3.0000e+00	2.0000e+00	3.0000e+00	1.5000e+00	3.0000e+00	3.0000e+00	3.0000e+00	3.0000e+00	3.0000e+00	3.0000e+00	3.0000e+00	1.5000e+00	3.0000e+00	

B = Detector Channel
B-1	B-2	B-3	B-4	B-5	B-6	B-7	B-8	B-9	B-10	B-11	B-12	B-13	B-14	B-15	B-16	

1.0000e+01	1.0000e+01	1.0000e+01	1.4400e+00	1.0000e+01	1.0000e+01	1.5100e+00	1.9400e+00	1.0000e+01	1.0000e+01	1.9900e+00	2.4900e+00	2.4100e+00	2.9000e+00	1.0000e+01	2.9800e+00	




#DATA BEGINS
time	group	step	mark	flag	A-AC1	A-AC2	A-AC3	A-AC4	A-AC5	A-AC6	A-AC7	A-AC8	A-AC9	A-AC10	A-AC11	A-AC12	A-AC13	A-AC14	A-AC15	A-AC16	A-DC1	A-DC2	A-DC3	A-DC4	A-DC5	A-DC6	A-DC7	A-DC8	A-DC9	A-DC10	A-DC11	A-DC12	A-DC13	A-DC14	A-DC15	A-DC16	A-Ph1	A-Ph2	A-Ph3	A-Ph4	A-Ph5	A-Ph6	A-Ph7	A-Ph8	A-Ph9	A-Ph10	A-Ph11	A-Ph12	A-Ph13	A-Ph14	A-Ph15	A-Ph16	B-AC1	B-AC2	B-AC3	B-AC4	B-AC5	B-AC6	B-AC7	B-AC8	B-AC9	B-AC10	B-AC11	B-AC12	B-AC13	B-AC14	B-AC15	B-AC16	B-DC1	B-DC2	B-DC3	B-DC4	B-DC5	B-DC6	B-DC7	B-DC8	B-DC9	B-DC10	B-DC11	B-DC12	B-DC13	B-DC14	B-DC15	B-DC16	B-Ph1	B-Ph2	B-Ph3	B-Ph4	B-Ph5	B-Ph6	B-Ph7	B-Ph8	B-Ph9	B-Ph10	B-Ph11	B-Ph12	B-Ph13	B-Ph14	B-Ph15	B-Ph16	aux-1	digaux	

868.041	1	1	0	512	0.072953	0.068658	0.073703	0.17985	0.062247	0.12628	0.072755	0.30416	0.25423	0.27916	0.11325	0.19095	0.11262	0.17875	0.18565	0.31724	-2.1458	-2.375	-2.5	-2.8	-2.3625	-2.7917	-2.7042	-2.2958	-2.6396	-2.525	-2.6354	-2.9062	-2.4938	-2.7375	-2.6333	-2.4542	145.234	240.931	248.686	187.339	318.797	248.383	161.239	298.182	161.907	328.396	118.787	417.373	278.874	139.440	255.635	373.008	0.0017636	0.00021045	7.3371e-05	493.43	2.2678e-06	4.1067e-06	778.63	219.3	4.4202e-06	2.774e-06	395.08	157.65	85.439	37.295	3.956e-06	77.531	2.5755e-05	1.3692e-05	3.7492e-06	398.65	1.4885e-07	1.4455e-07	714.47	199.41	1.5431e-07	1.4565e-07	339.91	138.03	73.281	32.887	1.4813e-07	66.775	323.177	145.804	159.192	93.172	209.121	200.893	93.066	97.996	201.023	209.190	96.535	100.733	102.003	105.888	200.363	103.568	-8191	255	
868.161	1	1	0	0	0.086575	0.32331	0.14278	0.1249	0.089242	0.18463	0.18059	0.16086	0.04867	0.023237	0.13881	0.14461	0.1442	0.12851	0.063941	0.12942	-2.3438	-2.4479	-2.4125	-2.7542	-2.4813	-2.5604	-2.6937	-2.65	-2.8792	-2.6458	-2.7146	-2.9062	-2.2917	-2.6146	-2.6937	-2.65	134.124	199.544	278.079	278.026	381.318	300.054	111.736	164.811	132.940	106.867	324.967	412.890	338.768	126.526	265.940	285.953	0.0017618	0.00031044	9.126e-05	491.61	2.2667e-06	3.7826e-06	777.02	220.57	3.7619e-06	3.2491e-06	395.36	158.35	85.223	37.263	4.5909e-06	77.779	2.5683e-05	1.3542e-05	3.8539e-06	398.92	1.4807e-07	1.4391e-07	715.51	199.81	1.5123e-07	1.425e-07	340.23	138.32	73.41	32.963	1.4466e-07	67.124	325.663	138.156	129.760	93.153	240.838	198.276	93.172	97.897	199.400	195.945	96.533	100.819	101.833	106.229	176.620	103.578	-8191	255	
868.256	1	1	0	0	0.13425	0.12742	0.15982	0.13659	0.044531	0.10952	0.11972	0.31389	0.35868	0.21009	0.40216	0.030507	0.098247	0.21941	0.14842	0.14822	-2.2125	-2.4417	-2.3958	-2.6792	-2.5333	-2.5375	-2.8729	-2.4854	-2.5625	-2.8104	-2.4229	-2.6729	-2.5104	-2.4708	-2.7625	-2.4437	260.110	226.813	123.166	293.813	84.932	176.038	80.837	360.748	353.353	392.620	376.876	372.422	420.057	224.405	203.641	426.871	0.0018045	0.00035476	8.7031e-05	496.27	4.0515e-06	2.3232e-06	778.91	219.87	4.7582e-06	3.8994e-06	394.33	157.12	84.665	36.797	3.0417e-06	76.863	2.5334e-05	1.2991e-05	3.6521e-06	399.34	1.4241e-07	1.4153e-07	716.76	199.71	1.5113e-07	1.3906e-07	339.58	137.67	72.811	32.636	1.4975e-07	66.455	327.503	155.239	115.310	92.955	227.575	209.885	93.156	97.755	199.906	217.808	96.503	100.548	102.005	106.082	203.739	103.547	-8191	255	
868.352	1	1	0	0	0.17289	0.097028	0.1272	0.14176	0.11066	0.26992	0.44097	0.27653	0.15556	0.093246	0.15048	0.1074	0.13999	0.21475	0.36212	0.12081	-2.1458	-2.55	-2.4437	-2.6542	-2.5917	-2.5208	-2.7792	-2.4958	-2.6417	-2.5438	-2.5917	-2.8875	-2.5687	-2.575	-2.6292	-2.5625	215.015	428.635	376.602	103.065	274.744	434.772	383.632	409.783	361.846	176.174	429.589	131.547	424.762	111.328	126.900	228.287	0.001863	0.00018319	7.3297e-05	491.93	3.368e-06	3.4392e-06	774.93	219.73	3.8076e-06	2.7311e-06	392.1	157.49	84.564	36.796	4.1659e-06	76.249	2.6196e-05	1.323e-05	3.7829e-06	398	1.4538e-07	1.4145e-07	712.5	199.01	1.5283e-07	1.4723e-07	337.4	137.29	72.708	32.461	1.4683e-07	66.062	323.825	127.721	120.457	93.370	218.802	190.789	93.143	97.826	182.515	199.131	96.428	100.841	101.736	106.070	187.993	103.574	-8191	255	
868.448	1	1	0	0	0.25635	0.075961	0.18877	0.073639	0.11742	0.24083	0.16554	0.33323	0.079234	0.1523	0.28772	0.28492	0.30949	0.27053	0.23265	0.2826	-2.25	-2.5687	-2.4104	-2.7146	-2.5583	-2.5917	-2.7854	-2.3417	-2.2917	-2.5958	-2.4229	-2.7333	-2.4604	-2.2875	-2.6875	-2.4729	194.248	154.765	122.466	281.434	105.454	252.638	376.697	392.616	436.496	193.471	437.545	182.760	333.689	289.774	82.457	427.165	0.0017279	0.00031085	7.544e-05	488.03	2.0963e-06	3.3501e-06	776.53	219.91	5.0462e-06	3.2674e-06	395.39	158.82	85.095	37.07	3.1721e-06	77.533	2.4985e-05	1.3186e-05	3.7028e-06	396.52	1.4359e-07	1.4797e-07	713.71	199.29	1.5155e-07	1.432e-07	340.09	138.37	73.263	32.751	1.5392e-07	66.754	326.162	156.775	117.942	93.156	221.218	192.141	93.199	97.875	193.725	223.339	96.419	100.903	101.934	105.927	195.743	103.733	-8191	255	
868.544	1	1	0	0	0.21542	0.12149	0.18257	0.22933	0.069107	0.10863	0.18884	0.12826	0.30049	0.20954	0.18233	0.12601	0.071336	0.06311	0.162	0.24328	-1.8312	-2.6167	-2.4229	-2.4958	-2.4271	-2.2271	-2.6771	-2.4875	-2.3792	-2.55	-2.3833	-2.5271	-2.6896	-2.4875	-2.5479	-2.5521	409.288	103.900	212.489	401.499	181.974	334.357	394.391	165.885	338.289	315.769	290.487	333.679	298.098	296.650	358.834	91.315	0.0017863	0.00023528	5.1198e-05	498.65	2.3162e-06	3.0699e-06	777.63	219.33	5.2819e-06	1.5589e-06	392.77	157.71	84.734	36.683	3.4387e-06	76.596	2.5688e-05	1.3e-05	3.7083e-06	399.51	1.4499e-07	1.472e-07	715.28	198.84	1.5373e-07	1.4384e-07	339.01	137.68	72.802	32.405	1.5124e-07	66.078	324.038	148.335	133.298	93.522	252.510	193.208	93.112	97.802	206.457	197.012	96.806	100.731	101.897	106.039	194.612	103.718	-8191	255	
868.640	1	1	0	0	0.2361	0.078326	0.17572	0.063362	0.29469	0.44084	0.15749	0.16311	0.24063	0.086019	0.08886	0.25839	0.19729	0.32914	0.13079	0.29651	-1.8833	-2.5687	-2.4104	-2.4792	-2.6312	-2.275	-2.7021	-2.5271	-2.4562	-2.8104	-2.4938	-2.7167	-2.7208	-2.2687	-2.5187	-2.4667	423.480	386.360	398.042	267.464	246.160	242.268	374.752	397.500	221.613	199.182	426.108	413.936	430.295	355.473	274.566	344.955	0.0018491	0.00029672	8.4184e-05	493.75	2.303e-06	2.1192e-06	773.74	218.89	4.8031e-06	2.7066e-06	391.57	156.43	84.707	36.556	3.7622e-06	76.208	2.561e-05	1.346e-05	3.6991e-06	397.45	1.4764e-07	1.4133e-07	711.42	198.33	1.5091e-07	1.4113e-07	337.1	136.95	72.756	32.293	1.4537e-07	65.736	323.938	145.488	137.800	92.832	206.246	203.650	93.209	97.902	200.223	194.295	96.618	100.841	102.361	105.989	209.993	103.506	-8191	255	
868.737	1	1	0	0	0.13999	0.12645	0.19387	0.16684	0.18479	0.018239	0.12588	0.20909	0.14711	0.30929	0.08786	0.16947	0.2392	0.1104	0.22535	0.18622	-2.0417	-2.5417	-2.3458	-2.3542	-2.5521	-2.2583	-2.6771	-2.75	-2.3875	-2.6208	-2.1354	-2.4333	-2.6188	-2.2812	-2.5521	-2.5604	277.636	382.879	304.555	203.244	122.824	215.680	341.842	80.578	253.887	127.160	346.628	307.795	424.545	146.501	253.275	327.215	0.0017438	0.00036721	8.7197e-05	495.48	2.3813e-06	1.306e-06	773.95	219.19	5.044e-06	2.113e-06	392.9	156.69	85.24	36.496	3.0069e-06	76.443	2.5512e-05	1.3076e-05	3.6234e-06	398.86	1.3814e-07	1.4183e-07	711.95	198.79	1.5375e-07	1.415e-07	337.96	137.47	72.873	32.387	1.4895e-07	66.017	322.744	160.501	131.899	93.101	233.454	149.486	92.876	97.687	206.241	232.078	96.589	100.550	101.940	105.774	182.935	103.703	-8191	255	
868.833	1	1	0	0	0.24638	0.075901	0.055817	0.27957	0.25806	0.23291	0.20364	0.053515	0.062047	0.036897	0.12564	0.41121	0.095529	0.22435	0.22609	0.10097	-1.7771	-2.6604	-2.2625	-2.3625	-2.7438	-2.3292	-2.5792	-2.4792	-2.1583	-2.5563	-2.5833	-2.3896	-2.7792	-2.2938	-2.5833	-2.5792	157.767	242.795	437.688	424.468	222.237	345.501	382.240	220.926	82.545	431.766	429.843	374.294	252.115	349.914	127.520	146.634	0.0017323	0.00025821	6.1964e-05	500.98	2.9885e-06	3.4487e-06	779.07	218.47	4.5127e-06	1.7249e-06	393.61	157.6	84.833	36.792	2.6484e-06	76.61	2.5225e-05	1.3067e-05	3.5743e-06	400.38	1.4567e-07	1.4006e-07	714.16	198.48	1.53e-07	1.4059e-07	338.58	137.52	72.76	32.429	1.4671e-07	66.199	323.397	168.539	132.243	93.766	218.006	207.728	93.266	97.928	195.004	230.766	96.827	100.732	101.737	105.662	193.253	103.627	-8191	255	
868.953	1	1	0	0	0.1166	0.13138	0.1577	0.14136	0.071472	0.29645	0.1094	0.17961	0.20843	0.20266	0.15038	0.051877	0.093139	0.18023	0.055178	0.21933	-1.7708	-2.5042	-2.2917	-2.2854	-2.7646	-2.3292	-2.4354	-2.4479	-2.1	-2.7	-2.5812	-2.5563	-2.5396	-2.4562	-2.5375	-2.6917	430.493	241.634	280.549	256.996	375.920	386.546	339.374	434.707	347.386	181.510	364.978	204.775	391.783	162.597	359.770	411.600	0.0017301	0.00032692	5.5589e-05	495.34	2.4456e-06	2.0549e-06	769.51	217.3	4.9474e-06	2.2611e-06	393.07	156.01	84.586	36.594	3.5627e-06	75.951	2.5405e-05	1.3165e-05	3.5751e-06	397.34	1.4505e-07	1.4157e-07	710.12	197.72	1.5275e-07	1.4107e-07	337.22	136.62	72.375	32.356	1.5194e-07	65.66	323.783	148.223	146.866	93.380	208.871	235.112	93.246	97.710	193.180	186.644	96.494	100.771	102.198	105.924	194.151	103.568	-8191	255	
869.050	1	1	0	0	0.16511	0.18519	0.22065	0.14844	0.24633	0.11439	0.047148	0.3874	0.18383	0.23593	0.26844	0.17282	0.16109	0.16848	0.18893	0.084945	-1.8583	-2.5792	-2.4313	-2.2292	-2.4917	-2.3896	-2.5479	-2.7042	-2.3125	-2.4188	-2.5146	-2.4646	-2.6021	-2.4771	-2.3125	-2.6875	363.333	349.251	174.240	231.220	402.054	175.231	397.079	392.805	212.410	263.881	405.182	365.270	423.923	108.284	167.749	119.690	0.0018081	0.00026513	5.909e-05	488.45	2.3802e-06	3.3162e-06	773.19	217.95	3.5318e-06	3.0332e-06	390.62	156.93	84.777	36.987	2.9162e-06	77.025	2.6092e-05	1.3709e-05	3.6985e-06	396.87	1.4611e-07	1.4407e-07	710.06	197.76	1.5212e-07	1.4083e-07	336.52	137.07	72.763	32.643	1.5066e-07	66.45	320.744	161.661	135.423	93.115	225.869	210.410	93.029	98.105	210.199	232.096	96.611	100.619	102.355	106.131	196.587	103.690	-8191	255	
869.146	1	1	0	0	0.14797	0.092531	0.037554	0.19585	0.017868	0.32336	0.14012	0.071506	0.073136	0.12154	0.12461	0.12625	0.11982	0.10955	0.016308	0.029519	-1.625	-2.4146	-2.3979	-2.1271	-2.5438	-2.3729	-2.3125	-2.6458	-2.2146	-2.4896	-2.7021	-2.2313	-2.6375	-2.3937	-2.1708	-2.7271	351.265	145.047	198.825	430.876	393.490	396.662	394.088	141.053	82.483	226.608	135.305	424.947	198.486	277.587	271.307	294.844	0.0017446	0.00025464	9.5745e-05	494.33	2.8453e-06	3.9183e-06	777.17	219.45	3.4372e-06	3.2699e-06	391.78	157.51	84.735	36.893	3.4396e-06	77.293	2.5566e-05	1.3331e-05	3.6956e-06	398.12	1.4516e-07	1.4476e-07	713.92	198.82	1.5327e-07	1.4175e-07	337.86	137.52	72.75	32.581	1.5536e-07	66.541	323.360	152.035	133.781	93.131	195.753	172.277	93.021	98.008	186.605	203.187	96.589	100.773	102.150	105.828	201.010	103.872	-8191	255	
869.242	1	1	0	0	0.070132	0.16898	0.17073	0.123	0.087503	0.19308	0.094481	0.029756	0.039853	0.19935	0.080894	0.19935	0.084832	0.10432	0.15023	0.072929	-1.8292	-2.3333	-2.6167	-2.2	-2.6354	-2.5146	-2.4292	-2.6104	-2.3021	-2.5875	-2.7646	-2.5667	-2.5438	-2.4708	-2.2167	-2.5854	402.180	114.984	276.538	150.672	412.742	289.778	113.358	122.702	365.279	324.747	427.772	300.523	253.801	113.675	229.489	373.534	0.0016896	0.00019888	7.0503e-05	495.85	2.7647e-06	1.2395e-06	775.47	218.57	5.738e-06	2.4123e-06	390.56	156.42	84.436	36.666	3.7625e-06	76.584	2.5244e-05	1.3307e-05	3.6487e-06	398.11	1.4246e-07	1.4113e-07	714.56	198.25	1.5218e-07	1.4195e-07	337.09	137.11	72.651	32.462	1.5307e-07	66.109	324.771	143.807	130.032	93.361	215.056	199.177	93.023	97.898	185.353	178.998	96.649	100.509	102.199	106.052	202.381	103.724	-8191	255	
869.336	1	1	0	0	0.33386	0.12747	0.1423	0.10504	0.11527	0.17933	0.21646	0.026294	0.10604	0.29006	0.18938	0.047674	0.070374	0.14954	0.13897	0.25414	-1.9896	-2.3187	-2.6792	-2.2938	-2.4333	-2.6646	-2.4083	-2.9083	-2.3042	-2.5542	-2.775	-2.55	-2.5875	-2.5854	-2.4208	-2.5479	339.057	360.237	311.385	249.504	318.409	312.955	379.166	122.479	178.136	227.630	294.975	133.719	424.534	401.430	286.565	340.457	0.0018259	0.00019756	8.5826e-05	489.72	2.6922e-06	1.968e-06	769.93	219.6	4.8638e-06	3.026e-06	394.49	156.82	84.622	37.156	4.2835e-06	76.981	2.611e-05	1.3716e-05	3.659e-06	397.84	1.4655e-07	1.4397e-07	710.7	198.54	1.527e-07	1.4128e-07	338.34	137.2	72.81	32.711	1.5154e-07	66.382	324.086	153.083	136.464	93.500	218.514	191.649	93.308	97.867	203.336	191.400	96.674	100.840	102.040	105.835	191.687	103.610	-8191	255	
869.434	1	1	0	0	0.18919	0.12106	0.28214	0.019842	0.33533	0.49084	0.35296	0.18009	0.10038	0.14525	0.16388	0.20703	0.048356	0.040784	0.41022	0.20152	-1.8	-2.2687	-2.4938	-2.35	-2.5021	-2.4313	-2.4938	-2.7313	-2.4875	-2.3896	-2.5896	-2.5271	-2.55	-2.6583	-2.3771	-2.7771	175.008	211.246	195.500	180.226	342.147	87.069	415.173	129.192	327.562	268.338	357.078	350.773	422.226	363.967	258.236	383.797	0.0017517	0.00024393	6.499e-05	495.18	2.4525e-06	2.8556e-06	775.64	219.13	5.1402e-06	2.3347e-06	391.51	156.98	84.918	37.222	3.7836e-06	77.584	2.5773e-05	1.3365e-05	3.6732e-06	398.63	1.4441e-07	1.4425e-07	714.45	199.01	1.5516e-07	1.469e-07	338.94	137.44	73.181	32.864	1.5364e-07	66.886	325.923	163.793	137.526	92.966	222.288	169.572	93.318	97.815	198.568	226.361	96.588	100.300	101.775	105.885	198.078	103.776	-8191	255	
869.553	1	1	0	0	0.12139	0.2108	0.27186	0.093059	0.090256	0.048403	0.23842	0.14653	0.033538	0.075102	0.14909	0.27659	0.15183	0.19439	0.17856	0.23514	-2.1521	-2.4188	-2.6437	-2.4667	-2.4417	-2.7	-2.5	-2.8271	-2.5896	-2.4229	-2.7792	-2.5354	-2.4479	-2.55	-2.2417	-2.6417	147.789	427.436	95.770	311.659	322.783	428.444	323.854	295.041	305.730	282.463	241.946	81.890	248.805	396.173	287.703	396.787	0.0017763	0.00031115	9.1943e-05	495.92	2.7217e-06	3.5336e-06	774.46	219.99	4.6157e-06	2.6043e-06	395.53	157.94	85.215	36.955	4.4429e-06	77.428	2.6111e-05	1.397e-05	3.8011e-06	399.6	1.4375e-07	1.4055e-07	715.61	199.77	1.4903e-07	1.4676e-07	340.44	137.99	73.146	32.726	1.478e-07	66.791	325.130	140.026	138.365	93.558	221.111	202.674	93.179	98.099	184.921	213.632	96.750	100.564	102.089	105.847	192.577	103.522	-8191	255	
869.649	1	1	0	0	0.29558	0.19023	0.13601	0.29063	0.05188	0.11547	0.16787	0.32816	0.17448	0.17941	0.092441	0.28014	0.10769	0.27398	0.026582	0.18495	-2.0167	-1.975	-2.4437	-2.2	-2.2333	-2.675	-2.3146	-2.625	-2.5479	-2.3271	-2.6896	-2.6125	-2.3854	-2.5708	-2.3187	-2.4979	230.796	372.879	257.815	139.112	430.998	225.039	353.940	372.568	312.937	354.721	420.603	321.072	313.028	358.362	280.308	400.191	0.0017569	0.00015342	9.0197e-05	491.94	2.9128e-06	2.7228e-06	777.01	219.85	2.7373e-06	2.3411e-06	394.14	157.89	85.607	37.373	3.6744e-06	77.726	2.5735e-05	1.3435e-05	3.6756e-06	398	1.448e-07	1.4422e-07	715.83	200.04	1.5056e-07	1.4325e-07	340.45	138.21	73.541	33.004	1.5147e-07	67.069	323.850	161.381	109.277	92.951	239.626	215.217	93.365	98.141	205.738	234.465	96.619	100.607	102.304	105.809	178.618	103.423	-8191	255	
869.745	1	1	0	0	0.10319	0.038431	0.22409	0.16447	0.20743	0.17161	0.2008	0.17176	0.30907	0.23417	0.11344	0.082718	0.24471	0.19381	0.080342	0.06658	-2.0125	-2.0687	-2.3771	-2.4271	-2.2521	-2.4813	-2.5417	-2.6125	-2.6625	-2.1229	-2.5146	-2.5354	-2.2917	-2.5062	-2.5354	-2.5604	98.561	134.014	197.320	359.479	396.318	395.078	224.602	382.451	334.170	413.420	234.711	390.891	409.033	95.015	373.334	416.192	0.0018522	0.00021234	2.3927e-05	493.8	3.6451e-06	3.4932e-06	779.36	220.17	4.3657e-06	2.7194e-06	394.67	157.37	85.607	37.403	3.2095e-06	77.392	2.6057e-05	1.3397e-05	3.5551e-06	400.15	1.4838e-07	1.4038e-07	717.4	200.63	1.4672e-07	1.3941e-07	340.39	138.14	73.528	33.017	1.456e-07	66.885	323.240	132.439	164.498	93.586	246.352	196.075	92.966	97.940	193.340	207.701	96.717	100.686	101.953	106.021	199.080	103.555	-8191	255	
