BOXY.EXE: ISS Imagent and Oximeter Data Acquisition Program Version 0.80
Ascii Record File

#ACQ INFORMATION
2  Detector Channels 
16  External MUX Channels 
1  Auxiliary Channels 
5000  Waveform (CCF) Frequency (Hz)
1  Waveforms Skipped 
30  Waveforms Averaged 
1  Cycles Averaged 
16  Acquisitions per Waveform 
10.0806  Updata Rate (Hz) 

#FILE INFORMATION
TRUE -- External MUX Channel results are PARSED.
FALSE -- AC DC and Phase are NOT grouped.
TRUE -- Companion Program Settings File CREATED.
FALSE -- AC data not excluded
FALSE -- DC data not excluded
FALSE -- Phase data not excluded
FALSE -- Auxillary Chn. data not excluded
Tab delimiters

#CALIBRATION STATE
TRUE -- Waveform Calibration Values APPLIED.


#AUX CALIBRATION VALUES
Val Type	aux-1	

Term	1.0000e+00	
Factor	0.0000e+00	


#WF CALIBRATION VALUES
A = Detector Channel
Val Type	A-AC1	A-AC2	A-AC3	A-AC4	A-AC5	A-AC6	A-AC7	A-AC8	A-AC9	A-AC10	A-AC11	A-AC12	A-AC13	A-AC14	A-AC15	A-AC16	A-DC1	A-DC2	A-DC3	A-DC4	A-DC5	A-DC6	A-DC7	A-DC8	A-DC9	A-DC10	A-DC11	A-DC12	A-DC13	A-DC14	A-DC15	A-DC16	A-Ph1	A-Ph2	A-Ph3	A-Ph4	A-Ph5	A-Ph6	A-Ph7	A-Ph8	A-Ph9	A-Ph10	A-Ph11	A-Ph12	A-Ph13	A-Ph14	A-Ph15	A-Ph16	

Term	0.00000e+00	0.00000e+00	0.00000e+00	0.00000e+00	0.00000e+00	0.00000e+00	0.00000e+00	0.00000e+00	0.00000e+00	0.00000e+00	0.00000e+00	0.00000e+00	0.00000e+00	0.00000e+00	0.00000e+00	0.00000e+00	0.00000e+00	0.00000e+00	0.00000e+00	0.00000e+00	0.00000e+00	0.00000e+00	0.00000e+00	0.00000e+00	0.00000e+00	0.00000e+00	0.00000e+00	0.00000e+00	0.00000e+00	0.00000e+00	0.00000e+00	0.00000e+00	0.00000e+00	0.00000e+00	0.00000e+00	0.00000e+00	0.00000e+00	0.00000e+00	0.00000e+00	0.00000e+00	0.00000e+00	0.00000e+00	0.00000e+00	0.00000e+00	0.00000e+00	0.00000e+00	0.00000e+00	0.00000e+00	
Factor	1.00000e+00	1.00000e+00	1.00000e+00	1.00000e+00	1.00000e+00	1.00000e+00	1.00000e+00	1.00000e+00	1.00000e+00	1.00000e+00	1.00000e+00	1.00000e+00	1.00000e+00	1.00000e+00	1.00000e+00	1.00000e+00	1.00000e+00	1.00000e+00	1.00000e+00	1.00000e+00	1.00000e+00	1.00000e+00	1.00000e+00	1.00000e+00	1.00000e+00	1.00000e+00	1.00000e+00	1.00000e+00	1.00000e+00	1.00000e+00	1.00000e+00	1.00000e+00	X	X	X	X	X	X	X	X	X	X	X	X	X	X	X	X	

B = Detector Channel
Val Type	B-AC1	B-AC2	B-AC3	B-AC4	B-AC5	B-AC6	B-AC7	B-AC8	B-AC9	B-AC10	B-AC11	B-AC12	B-AC13	B-AC14	B-AC15	B-AC16	B-DC1	B-DC2	B-DC3	B-DC4	B-DC5	B-DC6	B-DC7	B-DC8	B-DC9	B-DC10	B-DC11	B-DC12	B-DC13	B-DC14	B-DC15	B-DC16	B-Ph1	B-Ph2	B-Ph3	B-Ph4	B-Ph5	B-Ph6	B-Ph7	B-Ph8	B-Ph9	B-Ph10	B-Ph11	B-Ph12	B-Ph13	B-Ph14	B-Ph15	B-Ph16	

Term	0.00000e+00	0.00000e+00	0.00000e+00	0.00000e+00	0.00000e+00	0.00000e+00	0.00000e+00	0.00000e+00	0.00000e+00	0.00000e+00	0.00000e+00	0.00000e+00	0.00000e+00	0.00000e+00	0.00000e+00	0.00000e+00	0.00000e+00	0.00000e+00	0.00000e+00	0.00000e+00	0.00000e+00	0.00000e+00	0.00000e+00	0.00000e+00	0.00000e+00	0.00000e+00	0.00000e+00	0.00000e+00	0.00000e+00	0.00000e+00	0.00000e+00	0.00000e+00	-1.06138e+02	-1.29047e+02	-1.21568e+02	-1.83476e+02	-5.52129e+01	-7.56509e+01	-1.59880e+02	-1.62015e+02	-5.74747e+01	-6.97283e+01	-1.75117e+02	-1.71928e+02	-1.83346e+02	-1.76281e+02	-5.73029e+01	-1.49823e+02	
Factor	1.52751e-05	1.27225e-04	4.13959e-05	1.84327e-01	1.04722e-06	1.71902e-06	1.70247e-01	4.74238e-02	9.30981e-07	1.49024e-06	9.31797e-02	3.12405e-02	3.94049e-02	8.22718e-03	1.10834e-06	1.22183e-02	1.99470e-06	2.18733e-06	6.09788e-07	9.24792e-02	2.38180e-08	2.40278e-08	8.06688e-02	2.40565e-02	2.37376e-08	2.40181e-08	4.51395e-02	1.53027e-02	1.98509e-02	4.17740e-03	2.39144e-08	5.96623e-03	X	X	X	X	X	X	X	X	X	X	X	X	X	X	X	X	



#DISTANCE SETTINGS
A = Detector Channel
A-1	A-2	A-3	A-4	A-5	A-6	A-7	A-8	A-9	A-10	A-11	A-12	A-13	A-14	A-15	A-16	

2.5000e+00	3.0000e+00	2.5000e+00	3.0000e+00	2.0000e+00	3.0000e+00	1.5000e+00	3.0000e+00	3.0000e+00	3.0000e+00	3.0000e+00	3.0000e+00	3.0000e+00	3.0000e+00	1.5000e+00	3.0000e+00	

B = Detector Channel
B-1	B-2	B-3	B-4	B-5	B-6	B-7	B-8	B-9	B-10	B-11	B-12	B-13	B-14	B-15	B-16	

1.0000e+01	1.0000e+01	1.0000e+01	1.4400e+00	1.0000e+01	1.0000e+01	1.5100e+00	1.9400e+00	1.0000e+01	1.0000e+01	1.9900e+00	2.4900e+00	2.4100e+00	2.9000e+00	1.0000e+01	2.9800e+00	




#DATA BEGINS
time	group	step	mark	flag	A-AC1	A-AC2	A-AC3	A-AC4	A-AC5	A-AC6	A-AC7	A-AC8	A-AC9	A-AC10	A-AC11	A-AC12	A-AC13	A-AC14	A-AC15	A-AC16	A-DC1	A-DC2	A-DC3	A-DC4	A-DC5	A-DC6	A-DC7	A-DC8	A-DC9	A-DC10	A-DC11	A-DC12	A-DC13	A-DC14	A-DC15	A-DC16	A-Ph1	A-Ph2	A-Ph3	A-Ph4	A-Ph5	A-Ph6	A-Ph7	A-Ph8	A-Ph9	A-Ph10	A-Ph11	A-Ph12	A-Ph13	A-Ph14	A-Ph15	A-Ph16	B-AC1	B-AC2	B-AC3	B-AC4	B-AC5	B-AC6	B-AC7	B-AC8	B-AC9	B-AC10	B-AC11	B-AC12	B-AC13	B-AC14	B-AC15	B-AC16	B-DC1	B-DC2	B-DC3	B-DC4	B-DC5	B-DC6	B-DC7	B-DC8	B-DC9	B-DC10	B-DC11	B-DC12	B-DC13	B-DC14	B-DC15	B-DC16	B-Ph1	B-Ph2	B-Ph3	B-Ph4	B-Ph5	B-Ph6	B-Ph7	B-Ph8	B-Ph9	B-Ph10	B-Ph11	B-Ph12	B-Ph13	B-Ph14	B-Ph15	B-Ph16	aux-1	digaux	

1174.524	1	1	0	512	0.33948	0.079893	0.28964	0.25546	0.067936	0.32747	0.18703	0.067929	0.21354	0.11734	0.17262	0.16977	0.053251	0.37199	0.31522	0.16916	-0.95417	-0.43958	-1.0979	-1.3229	-0.39375	-1.4292	-1.0104	-1.0146	-1.4521	-0.66875	-1.3687	-1.2563	-0.7875	-1.5688	-0.79792	-1.1688	242.691	429.492	119.750	326.362	286.039	277.063	250.074	316.423	321.404	215.763	187.973	411.757	382.227	361.705	410.863	399.572	0.00050718	0.00072924	3.06e-05	422.87	1.3339e-05	5.2564e-06	508.12	209.7	9.1023e-06	6.9177e-06	257.84	116.73	110.19	64.802	1.6147e-05	67.141	0.0043612	0.0047189	0.0013025	614.67	5.131e-05	5.1466e-05	667.4	257.35	5.1953e-05	5.2783e-05	345.71	147.2	149.91	72.95	5.3351e-05	78.086	179.001	177.229	337.992	89.052	203.383	292.099	86.782	94.840	308.169	142.103	90.755	94.759	99.308	102.016	219.865	97.047	-8191	255	
1174.596	1	1	0	0	0.21413	0.1386	0.21108	0.15116	0.23352	0.0481	0.21285	0.24327	0.17637	0.342	0.33752	0.20242	0.4045	0.44152	0.11842	0.03835	-1.0896	-0.66042	-1.1604	-1.4229	-0.61458	-1.3958	-1.0917	-0.96458	-1.6542	-0.79583	-1.0708	-1.3792	-0.53542	-1.6521	-0.98958	-0.81458	284.111	276.581	160.574	419.931	132.370	85.683	379.497	401.014	126.887	244.024	337.633	101.151	110.835	406.623	79.437	210.384	0.00051963	0.0011448	0.00015997	427.76	8.5243e-06	1.2347e-05	506.66	208.99	2.9735e-06	9.537e-06	257.07	117.25	111.62	64.932	5.6441e-06	67.799	0.0044707	0.004833	0.0013347	621.76	5.2563e-05	5.2848e-05	671.35	258.52	5.2724e-05	5.3782e-05	347.9	147.87	150.94	73.256	5.3129e-05	78.544	184.647	84.865	182.074	88.780	267.806	228.031	86.990	94.486	110.309	357.906	90.465	94.636	99.746	102.253	306.950	97.153	-8191	255	
1174.716	1	1	0	0	0.24303	0.080037	0.26639	0.097736	0.15648	0.077424	0.32762	0.070841	0.37334	0.1023	0.22712	0.22559	0.21104	0.20821	0.13896	0.31123	-1.1708	-0.78958	-0.91875	-1.3521	-0.5625	-1.3042	-1.1521	-0.89167	-1.4062	-0.95	-1.1208	-1.7229	-0.80417	-1.4021	-0.96042	-0.72292	313.625	396.087	101.735	372.929	210.713	364.698	406.328	87.603	331.239	109.503	216.180	349.864	83.623	82.959	95.233	352.576	0.00063312	0.00034781	0.00036824	427.21	1.4223e-05	1.8906e-05	507.14	209.88	2.4546e-06	1.7932e-05	256.3	116.8	109.94	64.993	4.3591e-06	67.271	0.0044174	0.004833	0.0013314	618.9	5.2624e-05	5.2916e-05	672.2	258.78	5.2806e-05	5.4261e-05	348.51	147.57	150.9	73.328	5.3711e-05	78.361	212.979	104.672	135.505	88.486	163.312	143.855	86.647	94.619	229.648	320.072	90.860	94.721	98.966	102.176	159.360	97.707	-8191	255	
1174.813	1	1	0	0	0.17678	0.069674	0.11172	0.13718	0.26699	0.32496	0.30527	0.027723	0.16053	0.071027	0.26854	0.066618	0.30185	0.16325	0.22842	0.26501	-1.2208	-0.89583	-0.91667	-1.575	-0.61667	-1.2208	-1.3062	-0.69792	-1.4146	-0.87708	-0.85	-1.675	-0.53125	-1.0833	-1.2625	-0.7	362.984	144.614	426.606	374.097	99.190	404.519	369.929	359.941	431.696	368.429	172.226	86.222	377.763	155.910	339.578	396.644	0.00046296	0.0022883	0.00029728	428.2	1.2071e-05	1.678e-05	506.15	210.5	7.0189e-06	1.4127e-05	257.19	115.81	109.95	64.904	3.7031e-06	66.914	0.0043963	0.0048481	0.001332	617.72	5.2091e-05	5.2456e-05	668.14	258.28	5.1881e-05	5.3805e-05	346.19	146.12	150.16	72.991	5.2911e-05	77.766	203.059	164.902	398.904	89.524	279.267	157.096	86.759	95.071	216.454	102.984	90.754	94.696	99.256	102.286	281.636	97.059	-8191	255	
1174.909	1	1	0	0	0.24298	0.020253	0.34115	0.35104	0.28374	0.23951	0.34518	0.044612	0.22814	0.15727	0.22486	0.099624	0.18596	0.34366	0.14329	0.13621	-0.98125	-0.93333	-0.75	-1.6521	-0.77708	-1.025	-1.5438	-0.57083	-1.45	-1	-0.64167	-1.6583	-0.69792	-1.0833	-1.2792	-0.64792	270.091	391.155	224.817	305.699	366.220	100.219	380.086	137.548	417.134	245.130	239.502	239.513	146.093	407.503	413.867	293.043	0.00046452	0.0011798	0.00025831	424.87	6.3505e-06	9.9549e-06	505.81	210.86	1.1764e-05	1.3105e-05	258.07	116.48	110.85	65.075	1.2191e-05	67.359	0.0043598	0.0048058	0.0013139	611.39	5.1525e-05	5.1108e-05	661.65	256.34	5.0019e-05	5.1394e-05	342.53	145.04	148.9	72.838	5.0931e-05	77.773	212.991	123.342	241.332	88.917	271.229	153.980	87.334	94.737	90.490	288.775	90.433	94.791	99.248	102.529	159.333	97.266	-8191	255	
1175.005	1	1	0	0	0.29454	0.085486	0.054183	0.1942	0.063915	0.26346	0.24424	0.33013	0.19553	0.23628	0.41568	0.20329	0.29032	0.26501	0.14301	0.147	-1.0021	-1.0833	-0.66875	-1.4771	-0.87083	-1.0021	-1.5438	-0.62708	-1.4458	-1.0833	-0.80208	-1.6875	-0.85	-1.1688	-1.3813	-0.85	387.010	294.176	298.909	134.258	407.542	178.859	345.055	361.661	274.812	369.306	363.274	405.488	138.445	371.929	153.885	127.561	0.0005642	0.00078985	0.00056158	429.17	1.1843e-05	1.1055e-05	508.07	209.84	1.1979e-05	1.5577e-06	257.29	118.14	111.02	65.387	4.4141e-06	67.646	0.004257	0.0047015	0.0012878	611.17	5.1383e-05	5.1144e-05	662.5	256.87	5.0404e-05	5.2451e-05	345.01	146.88	150.54	73.315	5.2083e-05	78.508	177.289	313.037	129.621	89.063	382.488	241.549	87.017	94.847	280.172	191.421	90.625	94.905	99.285	102.565	285.696	97.486	-8191	255	
1175.124	1	1	0	0	0.20511	0.057555	0.21886	0.13169	0.045811	0.042484	0.17076	0.15551	0.10861	0.22397	0.037917	0.023757	0.25043	0.35128	0.31087	0.28114	-0.90417	-1.0854	-0.53125	-1.5104	-0.81667	-0.90833	-1.4813	-0.86042	-1.3375	-1.2271	-0.51458	-1.5021	-0.68958	-1.0479	-1.2854	-0.74792	165.892	136.934	275.532	88.366	292.855	427.247	282.546	291.485	203.205	171.870	77.455	423.524	166.355	347.543	407.319	100.093	0.00057694	0.0011417	0.00012176	425.7	1.387e-05	1.4851e-05	508.07	210.12	3.6116e-06	5.7298e-06	257.1	117.39	109.94	65.017	7.1402e-06	67.634	0.0043834	0.0048541	0.001331	614.43	5.318e-05	5.2598e-05	668.74	259.11	5.2282e-05	5.4458e-05	348.65	148.01	151.81	73.578	5.3851e-05	79.15	199.550	124.872	181.892	89.480	209.053	264.074	87.184	94.641	259.220	369.936	90.977	95.184	98.851	102.304	209.831	97.416	-8191	255	
1175.220	1	1	0	0	0.18322	0.13241	0.28951	0.37017	0.18113	0.094168	0.10065	0.10726	0.25342	0.14763	0.29403	0.17308	0.10726	0.267	0.18126	0.12981	-0.65208	-1.2979	-0.55625	-1.4042	-1.0208	-0.675	-1.4708	-0.79167	-0.92083	-1.0458	-0.70208	-1.4688	-1.15	-0.9125	-1.4562	-1.0167	115.667	293.866	101.330	407.516	198.693	335.889	364.145	376.912	427.298	405.223	387.669	362.391	342.040	317.968	388.816	373.161	0.00045381	0.00089741	0.00021385	423.54	9.9932e-06	1.9669e-05	500.03	209.88	5.7339e-06	1.907e-05	254.51	116.94	111	64.735	1.9791e-06	66.932	0.0045459	0.0050141	0.0013883	622.69	5.561e-05	5.5298e-05	671.92	261.39	5.4488e-05	5.5746e-05	349.78	147.59	152.34	73.196	5.358e-05	78.402	187.291	385.384	420.419	89.363	186.134	401.502	87.584	95.094	333.571	133.782	91.046	95.376	99.391	102.686	363.872	97.649	-8191	255	
1175.293	1	1	0	0	0.24365	0.13528	0.13338	0.072858	0.17411	0.10417	0.13461	0.2785	0.16914	0.26467	0.19065	0.22545	0.074122	0.092962	0.33364	0.20561	-0.26875	-1.2958	-0.51458	-1.3333	-1.2563	-0.8	-1.4688	-0.92708	-0.84167	-1.2854	-0.78542	-1.2938	-1.3729	-0.63125	-1.3521	-0.94583	148.233	363.584	352.617	177.725	185.301	355.555	305.985	416.864	278.603	141.891	256.824	389.554	107.080	386.713	214.683	297.215	0.00066506	0.00053539	0.00019531	426.13	7.7906e-06	1.2853e-05	501.63	208.96	9.7433e-06	2.4799e-05	257.41	116.16	110.12	64.662	7.0463e-06	66.488	0.0045277	0.0049142	0.0013737	618.14	5.4152e-05	5.3439e-05	665.26	258.38	5.2249e-05	5.2915e-05	345.17	145.79	149.84	72.806	5.1728e-05	77.676	194.165	291.629	209.382	89.434	251.876	237.384	87.058	94.767	314.677	195.223	91.199	95.058	99.150	102.633	208.269	97.160	-8191	255	
1175.389	1	1	0	0	0.15472	0.22641	0.1197	0.12738	0.20757	0.13752	0.091185	0.10142	0.16746	0.19705	0.20183	0.33615	0.33679	0.16962	0.082284	0.11806	-0.32917	-1.4396	-0.55625	-0.97708	-1.3958	-0.59583	-1.1938	-1.0229	-0.5625	-1.5458	-0.53542	-1.2083	-1.3708	-0.69583	-1.4104	-1.0146	374.216	375.980	172.394	313.739	171.674	245.161	322.874	435.331	344.998	196.755	359.199	416.858	156.416	107.180	313.559	321.032	0.00052535	0.0010244	0.0003193	428.3	6.8641e-06	1.5516e-05	504.8	209.46	1.6197e-05	1.2581e-05	256.47	116.89	111.34	64.545	2.3004e-06	67.057	0.0043657	0.0047698	0.001342	613.95	5.2662e-05	5.2661e-05	663.11	258.05	5.1626e-05	5.2242e-05	344.96	146.47	150.03	72.9	5.2312e-05	78.181	191.012	256.368	367.035	89.323	258.364	345.836	87.398	94.970	194.309	352.572	90.490	95.146	99.505	102.748	167.647	97.674	-8191	255	
1175.508	1	1	0	0	0.12381	0.1638	0.16049	0.19967	0.19844	0.25799	0.095819	0.22482	0.23883	0.16256	0.039484	0.06774	0.30114	0.2791	0.060338	0.10687	-0.49583	-1.325	-0.84375	-0.92708	-1.3083	-0.49792	-1.2458	-1.1625	-0.53542	-1.3583	-0.70417	-1.0333	-1.6021	-0.77292	-1.0375	-1.4312	400.494	251.942	322.695	375.509	340.664	408.144	233.482	390.717	232.009	236.419	150.290	192.721	124.866	408.417	332.422	127.383	0.00039153	0.00031689	0.0001389	427.53	1.5991e-05	1.1505e-05	501.4	209.01	3.3458e-06	1.4555e-05	255.66	117.71	111.81	65.384	1.3436e-05	67.343	0.0044362	0.0048387	0.0013745	617.71	5.3349e-05	5.3696e-05	666.93	259.29	5.2827e-05	5.3301e-05	348.62	147.38	151.18	73.366	5.2611e-05	78.809	193.470	278.354	229.710	89.763	141.309	202.489	87.232	94.991	249.248	128.566	90.880	95.124	99.580	102.779	238.713	97.353	-8191	255	
1175.604	1	1	0	0	0.084592	0.19836	0.069464	0.13422	0.14353	0.067219	0.077675	0.28205	0.25971	0.023414	0.16382	0.26489	0.11959	0.17421	0.10358	0.2694	-0.33125	-1.6021	-0.78958	-1.1104	-1.1479	-0.48125	-1.2333	-1.3458	-0.70833	-1.25	-0.87708	-0.775	-1.5562	-0.78125	-1.0708	-1.4167	211.514	271.627	171.278	411.947	125.733	146.438	435.551	297.090	227.654	100.480	118.446	411.049	424.377	332.055	327.016	80.222	0.00077843	0.00086894	0.00034406	423.17	6.5181e-06	1.8969e-05	505.35	210.21	9.0219e-06	2.2727e-05	257.92	118.24	112.18	65.175	1.7204e-05	67.707	0.0044847	0.0048591	0.0013877	619.57	5.3621e-05	5.4321e-05	669.47	260.05	5.3345e-05	5.368e-05	350.31	148.04	151.86	73.596	5.382e-05	78.816	191.039	302.659	177.697	89.742	253.828	329.581	87.621	94.828	243.155	423.309	90.981	95.421	99.507	102.787	210.849	97.648	-8191	255	
1175.701	1	1	0	0	0.034832	0.14202	0.13726	0.19356	0.21342	0.1814	0.15297	0.30988	0.14713	0.1508	0.15474	0.16806	0.31396	0.23323	0.135	0.42128	-0.13542	-1.3667	-0.925	-0.79167	-1.4042	-0.62292	-1.3125	-1.3438	-0.54583	-1.3521	-1.0646	-0.70417	-1.3687	-0.9875	-1.0896	-1.5125	140.401	406.093	89.156	198.375	376.015	295.424	327.875	417.872	426.968	353.657	182.357	279.826	111.600	90.433	191.709	399.896	0.00052149	0.00044833	0.00031575	421.16	9.1261e-06	1.959e-06	503.99	209.13	5.043e-06	1.5666e-05	256.44	116.56	109.62	64.716	1.0654e-05	66.792	0.0045407	0.0049363	0.001404	618.24	5.3487e-05	5.4609e-05	668.16	259.28	5.3155e-05	5.3516e-05	348.67	146.64	150.42	73.198	5.3152e-05	78.015	209.785	183.881	210.071	89.671	171.771	340.737	87.489	95.083	304.108	297.614	91.010	95.459	99.813	102.759	324.506	97.694	-8191	255	
1175.821	1	1	0	0	0.23559	0.06085	0.32763	0.21982	0.17782	0.11509	0.19109	0.2607	0.13272	0.2011	0.16084	0.2588	0.23467	0.1493	0.50751	0.28174	-0.28542	-1.4271	-1.0479	-0.81667	-1.4062	-0.94167	-0.92083	-1.6021	-0.68542	-1.3167	-1.5167	-0.55	-1.3771	-1.3104	-0.96875	-1.5625	344.257	274.296	342.724	89.313	421.502	432.090	78.567	418.760	228.157	178.691	167.966	101.528	422.022	330.915	230.187	355.476	0.00066839	0.00047024	0.00051216	422.02	8.3166e-06	2.8026e-06	500.62	209.32	1.1432e-05	3.9895e-06	254.88	115.66	109.65	64.687	8.4558e-06	66.082	0.0045038	0.0048642	0.0013789	615.85	5.3072e-05	5.4516e-05	664.45	258.95	5.3894e-05	5.4027e-05	347.9	146.81	150.64	73.293	5.4446e-05	78.033	183.848	291.824	395.722	89.978	156.733	390.561	87.960	95.265	226.024	434.553	91.227	95.536	99.952	102.821	225.924	97.672	-8191	255	
1175.893	1	1	0	0	0.16363	0.3419	0.18442	0.10687	0.27946	0.17288	0.20349	0.19557	0.14256	0.045853	0.23989	0.27166	0.065669	0.26019	0.16359	0.26184	-0.31875	-1.0812	-1.2521	-0.57708	-1.3833	-0.88958	-0.76042	-1.6104	-0.45417	-1.0979	-1.4771	-0.69375	-1.5292	-1.275	-0.65	-1.6333	419.452	306.101	400.842	333.376	371.200	217.480	294.560	157.479	211.438	277.149	316.971	371.377	225.276	400.313	309.232	316.748	0.00071638	0.0010267	0.00016845	424.18	6.4131e-06	1.9366e-05	499.58	207.7	1.6246e-05	3.0367e-06	253.24	115.45	109.25	64.53	1.9203e-05	66.767	0.004688	0.0050434	0.001442	627.26	5.6253e-05	5.8237e-05	673.71	261.28	5.771e-05	5.7797e-05	353.81	148.66	153.27	73.696	5.722e-05	78.912	188.025	136.952	274.515	89.448	199.572	135.116	88.342	95.294	310.189	405.672	90.918	95.280	99.699	102.637	220.195	97.989	-8191	255	
1175.989	1	1	0	0	0.17672	0.16606	0.056979	0.32538	0.037193	0.23496	0.32551	0.11429	0.17721	0.21366	0.19848	0.31771	0.055504	0.18108	0.07988	0.17339	-0.35208	-1.0229	-1.4542	-0.82708	-1.2271	-1.1292	-0.85625	-1.4438	-0.89167	-0.98333	-1.6	-0.80625	-1.4438	-1.1542	-0.5	-1.4604	276.301	428.184	253.842	332.472	283.926	255.998	431.190	360.577	90.770	327.682	363.663	343.986	229.650	420.455	287.348	412.449	0.00044091	0.0011007	0.00025915	419.44	1.5627e-05	3.9582e-05	496.87	207.96	6.1796e-06	3.0118e-06	253.12	116.35	111.2	64.882	8.0557e-06	67.331	0.0048965	0.005239	0.0014762	633.42	5.7413e-05	5.8846e-05	677.07	261.89	5.7819e-05	5.7641e-05	353.66	149.78	154.01	74.145	5.7681e-05	79.673	198.962	195.389	105.586	89.702	238.549	242.047	88.121	95.700	126.904	352.284	91.658	95.615	99.951	102.917	265.693	97.802	-8191	255	
1176.110	1	1	0	0	0.19837	0.26789	0.35833	0.099723	0.11645	0.1915	0.17123	0.25204	0.08946	0.38442	0.15771	0.41083	0.33012	0.23702	0.15004	0.10395	-0.51042	-0.93958	-1.5375	-0.70417	-1.375	-0.975	-0.91042	-1.425	-0.87292	-0.97083	-1.5063	-0.75208	-1.0688	-1.4813	-0.56458	-1.7333	190.395	187.289	130.910	223.874	284.182	91.948	117.311	393.999	365.485	92.769	134.104	340.801	114.375	369.661	200.862	122.966	0.00049879	0.00074223	0.00036438	420.68	1.1295e-05	9.2604e-06	500.51	208.53	1.1214e-05	1.2371e-05	254.63	116.15	109.97	64.548	1.2384e-05	67.05	0.0049939	0.0053371	0.0015031	638.38	5.8365e-05	5.9496e-05	680.27	261.98	5.83e-05	5.7882e-05	354.67	149.99	153.81	73.932	5.7854e-05	79.228	175.863	212.382	112.710	89.787	260.781	140.259	87.411	95.144	331.758	150.281	91.370	95.412	99.944	102.607	253.474	97.919	-8191	255	
1176.204	1	1	0	0	0.10313	0.24473	0.24018	0.072841	0.17096	0.1447	0.1958	0.20772	0.2236	0.24505	0.16749	0.1413	0.057453	0.12045	0.18073	0.21868	-0.46667	-0.71458	-1.3813	-0.5875	-0.98333	-1.2667	-0.63125	-1.3521	-1.1	-0.63958	-1.4229	-0.51667	-1.2771	-1.4875	-0.71458	-1.3417	337.549	313.700	301.532	224.895	208.082	91.850	173.717	132.637	263.467	400.448	138.889	150.789	147.176	375.448	380.352	286.064	0.00057424	0.0022919	0.00050957	421.57	7.013e-06	2.0604e-06	496.62	207.58	1.1236e-05	1.4772e-06	252.67	115.62	110.95	64.598	1.6542e-05	66.285	0.0049688	0.0053024	0.0014829	634.05	5.7071e-05	5.7582e-05	674.4	260.57	5.6186e-05	5.5749e-05	351.2	148.27	152.95	73.597	5.6843e-05	78.598	191.841	136.221	112.033	89.693	230.890	387.135	87.904	95.532	184.113	91.030	91.286	95.522	100.041	102.702	248.848	97.835	-8191	255	
