BOXY.EXE: ISS Imagent and Oximeter Data Acquisition Program Version 0.80
Ascii Record File

#ACQ INFORMATION
2  Detector Channels 
16  External MUX Channels 
1  Auxiliary Channels 
5000  Waveform (CCF) Frequency (Hz)
1  Waveforms Skipped 
30  Waveforms Averaged 
1  Cycles Averaged 
16  Acquisitions per Waveform 
10.0806  Updata Rate (Hz) 

#FILE INFORMATION
TRUE -- External MUX Channel results are PARSED.
FALSE -- AC DC and Phase are NOT grouped.
TRUE -- Companion Program Settings File CREATED.
FALSE -- AC data not excluded
FALSE -- DC data not excluded
FALSE -- Phase data not excluded
FALSE -- Auxillary Chn. data not excluded
Tab delimiters

#CALIBRATION STATE
TRUE -- Waveform Calibration Values APPLIED.


#AUX CALIBRATION VALUES
Val Type	aux-1	

Term	1.0000e+00	
Factor	0.0000e+00	


#WF CALIBRATION VALUES
A = Detector Channel
Val Type	A-AC1	A-AC2	A-AC3	A-AC4	A-AC5	A-AC6	A-AC7	A-AC8	A-AC9	A-AC10	A-AC11	A-AC12	A-AC13	A-AC14	A-AC15	A-AC16	A-DC1	A-DC2	A-DC3	A-DC4	A-DC5	A-DC6	A-DC7	A-DC8	A-DC9	A-DC10	A-DC11	A-DC12	A-DC13	A-DC14	A-DC15	A-DC16	A-Ph1	A-Ph2	A-Ph3	A-Ph4	A-Ph5	A-Ph6	A-Ph7	A-Ph8	A-Ph9	A-Ph10	A-Ph11	A-Ph12	A-Ph13	A-Ph14	A-Ph15	A-Ph16	

Term	0.00000e+00	0.00000e+00	0.00000e+00	0.00000e+00	0.00000e+00	0.00000e+00	0.00000e+00	0.00000e+00	0.00000e+00	0.00000e+00	0.00000e+00	0.00000e+00	0.00000e+00	0.00000e+00	0.00000e+00	0.00000e+00	0.00000e+00	0.00000e+00	0.00000e+00	0.00000e+00	0.00000e+00	0.00000e+00	0.00000e+00	0.00000e+00	0.00000e+00	0.00000e+00	0.00000e+00	0.00000e+00	0.00000e+00	0.00000e+00	0.00000e+00	0.00000e+00	0.00000e+00	0.00000e+00	0.00000e+00	0.00000e+00	0.00000e+00	0.00000e+00	0.00000e+00	0.00000e+00	0.00000e+00	0.00000e+00	0.00000e+00	0.00000e+00	0.00000e+00	0.00000e+00	0.00000e+00	0.00000e+00	
Factor	1.00000e+00	1.00000e+00	1.00000e+00	1.00000e+00	1.00000e+00	1.00000e+00	1.00000e+00	1.00000e+00	1.00000e+00	1.00000e+00	1.00000e+00	1.00000e+00	1.00000e+00	1.00000e+00	1.00000e+00	1.00000e+00	1.00000e+00	1.00000e+00	1.00000e+00	1.00000e+00	1.00000e+00	1.00000e+00	1.00000e+00	1.00000e+00	1.00000e+00	1.00000e+00	1.00000e+00	1.00000e+00	1.00000e+00	1.00000e+00	1.00000e+00	1.00000e+00	X	X	X	X	X	X	X	X	X	X	X	X	X	X	X	X	

B = Detector Channel
Val Type	B-AC1	B-AC2	B-AC3	B-AC4	B-AC5	B-AC6	B-AC7	B-AC8	B-AC9	B-AC10	B-AC11	B-AC12	B-AC13	B-AC14	B-AC15	B-AC16	B-DC1	B-DC2	B-DC3	B-DC4	B-DC5	B-DC6	B-DC7	B-DC8	B-DC9	B-DC10	B-DC11	B-DC12	B-DC13	B-DC14	B-DC15	B-DC16	B-Ph1	B-Ph2	B-Ph3	B-Ph4	B-Ph5	B-Ph6	B-Ph7	B-Ph8	B-Ph9	B-Ph10	B-Ph11	B-Ph12	B-Ph13	B-Ph14	B-Ph15	B-Ph16	

Term	0.00000e+00	0.00000e+00	0.00000e+00	0.00000e+00	0.00000e+00	0.00000e+00	0.00000e+00	0.00000e+00	0.00000e+00	0.00000e+00	0.00000e+00	0.00000e+00	0.00000e+00	0.00000e+00	0.00000e+00	0.00000e+00	0.00000e+00	0.00000e+00	0.00000e+00	0.00000e+00	0.00000e+00	0.00000e+00	0.00000e+00	0.00000e+00	0.00000e+00	0.00000e+00	0.00000e+00	0.00000e+00	0.00000e+00	0.00000e+00	0.00000e+00	0.00000e+00	-1.06138e+02	-1.29047e+02	-1.21568e+02	-1.83476e+02	-5.52129e+01	-7.56509e+01	-1.59880e+02	-1.62015e+02	-5.74747e+01	-6.97283e+01	-1.75117e+02	-1.71928e+02	-1.83346e+02	-1.76281e+02	-5.73029e+01	-1.49823e+02	
Factor	1.52751e-05	1.27225e-04	4.13959e-05	1.84327e-01	1.04722e-06	1.71902e-06	1.70247e-01	4.74238e-02	9.30981e-07	1.49024e-06	9.31797e-02	3.12405e-02	3.94049e-02	8.22718e-03	1.10834e-06	1.22183e-02	1.99470e-06	2.18733e-06	6.09788e-07	9.24792e-02	2.38180e-08	2.40278e-08	8.06688e-02	2.40565e-02	2.37376e-08	2.40181e-08	4.51395e-02	1.53027e-02	1.98509e-02	4.17740e-03	2.39144e-08	5.96623e-03	X	X	X	X	X	X	X	X	X	X	X	X	X	X	X	X	



#DISTANCE SETTINGS
A = Detector Channel
A-1	A-2	A-3	A-4	A-5	A-6	A-7	A-8	A-9	A-10	A-11	A-12	A-13	A-14	A-15	A-16	

2.5000e+00	3.0000e+00	2.5000e+00	3.0000e+00	2.0000e+00	3.0000e+00	1.5000e+00	3.0000e+00	3.0000e+00	3.0000e+00	3.0000e+00	3.0000e+00	3.0000e+00	3.0000e+00	1.5000e+00	3.0000e+00	

B = Detector Channel
B-1	B-2	B-3	B-4	B-5	B-6	B-7	B-8	B-9	B-10	B-11	B-12	B-13	B-14	B-15	B-16	

1.0000e+01	1.0000e+01	1.0000e+01	1.4400e+00	1.0000e+01	1.0000e+01	1.5100e+00	1.9400e+00	1.0000e+01	1.0000e+01	1.9900e+00	2.4900e+00	2.4100e+00	2.9000e+00	1.0000e+01	2.9800e+00	




#DATA BEGINS
time	group	step	mark	flag	A-AC1	A-AC2	A-AC3	A-AC4	A-AC5	A-AC6	A-AC7	A-AC8	A-AC9	A-AC10	A-AC11	A-AC12	A-AC13	A-AC14	A-AC15	A-AC16	A-DC1	A-DC2	A-DC3	A-DC4	A-DC5	A-DC6	A-DC7	A-DC8	A-DC9	A-DC10	A-DC11	A-DC12	A-DC13	A-DC14	A-DC15	A-DC16	A-Ph1	A-Ph2	A-Ph3	A-Ph4	A-Ph5	A-Ph6	A-Ph7	A-Ph8	A-Ph9	A-Ph10	A-Ph11	A-Ph12	A-Ph13	A-Ph14	A-Ph15	A-Ph16	B-AC1	B-AC2	B-AC3	B-AC4	B-AC5	B-AC6	B-AC7	B-AC8	B-AC9	B-AC10	B-AC11	B-AC12	B-AC13	B-AC14	B-AC15	B-AC16	B-DC1	B-DC2	B-DC3	B-DC4	B-DC5	B-DC6	B-DC7	B-DC8	B-DC9	B-DC10	B-DC11	B-DC12	B-DC13	B-DC14	B-DC15	B-DC16	B-Ph1	B-Ph2	B-Ph3	B-Ph4	B-Ph5	B-Ph6	B-Ph7	B-Ph8	B-Ph9	B-Ph10	B-Ph11	B-Ph12	B-Ph13	B-Ph14	B-Ph15	B-Ph16	aux-1	digaux	

1063.694	1	1	0	256	0.16197	0.03036	0.092076	0.086241	0.13676	0.13748	0.097873	0.36828	0.16818	0.11445	0.23781	0.012903	0.2009	0.25019	0.36184	0.29111	-0.2375	-0.97917	-1.3354	-0.49583	-1.225	-1.3083	-0.7875	-1.7167	-0.83958	-1.0479	-1.4354	-0.725	-1.3167	-1.4896	-0.48542	-1.4646	278.274	447.282	215.788	312.627	294.970	400.354	463.686	437.498	358.290	299.720	448.091	461.733	431.291	120.220	450.624	436.816	0.00087239	0.00038853	0.00030022	591.66	2.617e-05	2.4317e-05	770.52	252.19	1.9689e-05	2.9161e-05	337.23	156.32	130.6	77.186	2.8673e-05	93.453	0.0061271	0.0065885	0.0018596	824.71	7.1299e-05	7.3762e-05	957.65	307.28	7.2576e-05	7.2719e-05	445.26	189.31	178.58	84.98	7.1031e-05	103.88	200.188	465.377	128.717	121.518	118.371	228.926	119.456	126.802	253.406	205.240	123.525	127.309	130.827	133.135	266.110	129.447	-8191	255	
1063.790	1	1	0	0	0.25283	0.13889	0.16925	0.16973	0.10246	0.10171	0.2067	0.10586	0.34713	0.14654	0.1617	0.26104	0.083636	0.3274	0.21619	0.29283	-0.42292	-0.74167	-1.3375	-0.66458	-1.0604	-1.1646	-0.45417	-1.4146	-0.775	-0.67917	-1.4354	-0.68542	-1.2083	-1.3937	-0.54167	-1.6729	232.298	383.958	126.288	278.141	130.154	116.188	231.845	398.631	227.891	409.371	113.066	137.518	158.565	434.645	376.817	405.330	0.00072095	0.0014048	0.00030173	592.23	1.4628e-05	4.7696e-05	775.66	252.64	6.6386e-06	5.6231e-06	337.32	156.24	131.88	77.369	1.4432e-05	94.014	0.0060596	0.0064942	0.0018151	818.9	6.9798e-05	7.1535e-05	947.66	304.38	7.0045e-05	7.022e-05	439.31	188.62	177.96	84.837	7.0624e-05	104.08	209.562	137.663	327.602	121.601	185.897	232.883	119.837	127.163	178.172	170.990	123.527	126.848	130.872	133.139	293.473	129.019	-8191	255	
1063.887	1	1	0	0	0.19542	0.19984	0.22465	0.12079	0.18583	0.27095	0.010216	0.21257	0.13533	0.20528	0.086863	0.061606	0.12936	0.24133	0.084154	0.16939	-0.46875	-0.59375	-1.3813	-0.52292	-0.95417	-1.1313	-0.58333	-1.35	-1.0854	-0.7125	-1.4729	-0.70208	-1.0562	-1.5562	-0.23958	-1.3083	224.435	261.734	118.444	129.082	186.720	334.165	408.706	140.980	193.773	308.203	362.916	366.707	232.490	115.463	440.148	363.991	0.00070581	0.0017404	0.00049878	592.76	1.4115e-05	2.0258e-05	769.8	253.29	1.7878e-05	1.9422e-05	338.84	156.66	130.33	78.287	1.685e-05	95.046	0.0060505	0.0064718	0.0018006	817.27	6.9837e-05	7.1563e-05	951.48	305.47	7.0861e-05	7.1087e-05	442.88	189.85	178.74	85.383	7.1641e-05	105.18	204.107	116.280	287.982	121.391	344.635	171.262	119.836	127.138	172.263	319.399	123.633	126.903	131.106	133.444	265.661	129.359	-8191	255	
1063.983	1	1	0	0	0.17456	0.12825	0.16334	0.11726	0.25832	0.040001	0.40541	0.16764	0.10923	0.043205	0.27744	0.35379	0.41729	0.37761	0.18448	0.15084	-0.71875	-0.46458	-1.3521	-0.69792	-0.83542	-1.4896	-0.75	-1.4208	-1.0042	-0.51458	-1.5479	-1.0104	-0.87083	-1.5312	-0.73125	-1.4896	133.216	385.245	271.269	362.106	274.261	254.570	374.062	415.406	400.213	341.795	453.406	118.861	465.161	404.475	204.227	134.802	0.0009975	0.0011277	0.00014029	595.14	9.0849e-06	3.5675e-05	780.52	254.52	8.2911e-06	1.5568e-05	341.51	156.93	130.88	77.767	8.9008e-06	94.648	0.0061474	0.0065932	0.0018279	825.31	7.0976e-05	7.2203e-05	959.34	307.44	7.1976e-05	7.1716e-05	443.91	190.98	178.36	85.251	7.0963e-05	105.36	187.639	282.892	243.897	121.647	215.501	425.825	119.990	126.899	176.780	418.762	123.376	126.725	131.299	133.397	296.522	129.499	-8191	255	
1064.079	1	1	0	0	0.12104	0.14456	0.19632	0.12018	0.10271	0.16222	0.23027	0.057899	0.22965	0.3145	0.21334	0.3007	0.2972	0.3009	0.24509	0.2382	-0.86875	-0.48542	-1.3271	-0.91667	-0.78958	-1.4813	-0.69583	-1.1458	-1.5729	-0.46042	-1.3271	-1.2354	-0.7875	-1.4729	-0.69583	-1.375	327.198	115.128	317.121	250.070	335.966	345.764	125.670	285.116	273.324	326.839	407.415	439.720	115.600	114.850	157.521	401.963	0.001089	0.0011957	0.00061159	587.08	9.6054e-06	1.9215e-05	777.48	251.73	1.0042e-05	1.7716e-05	339.59	156.7	129.89	77.498	1.3844e-05	93.999	0.006083	0.0065298	0.0017998	825.97	7.0659e-05	7.1669e-05	958.59	306.64	7.1003e-05	7.1134e-05	441.42	190.07	177.7	84.855	7.0584e-05	104.33	204.985	346.182	276.403	121.886	286.413	353.324	119.729	126.987	335.382	295.395	123.564	126.748	130.626	133.424	241.283	129.301	-8191	255	
1064.200	1	1	0	0	0.11436	0.18218	0.082436	0.099964	0.2238	0.027595	0.34386	0.24621	0.24579	0.13038	0.011464	0.041882	0.22767	0.12484	0.065592	0.30282	-1.1167	-0.50208	-1.1771	-1.15	-0.65417	-1.4792	-0.87708	-1.0187	-1.2229	-0.4125	-1.2833	-1.275	-0.88542	-1.5396	-0.72708	-1.0854	313.527	115.638	412.689	113.400	163.157	249.607	411.119	459.105	268.065	338.180	401.310	368.678	456.967	452.296	265.471	429.785	0.00066422	0.00098555	0.00024103	594.84	1.3402e-05	3.3751e-05	775.87	251.48	9.2366e-06	2.8514e-05	337.45	155.13	130.21	77.268	2.4575e-05	93.486	0.0060004	0.0064715	0.0017842	820.84	7.0053e-05	7.0306e-05	951.68	305.29	6.9782e-05	7.0497e-05	439.27	188.71	176.63	84.259	7.0107e-05	103.7	200.268	225.882	371.978	121.328	287.613	224.961	119.618	126.657	282.310	113.478	123.701	126.726	130.894	133.318	253.907	129.518	-8191	255	
1064.294	1	1	0	0	0.055278	0.23333	0.11327	0.014606	0.11925	0.13276	0.32512	0.16191	0.046645	0.062961	0.13488	0.17075	0.27674	0.34095	0.37484	0.19597	-1.0667	-0.46042	-1.1479	-1.4	-0.42083	-1.3375	-0.80417	-0.69167	-1.3687	-0.63542	-1.1521	-1.1208	-0.57292	-1.6958	-0.74375	-1.0604	242.940	211.788	256.405	354.925	436.414	122.269	448.562	433.647	228.255	468.804	408.205	395.942	449.419	413.036	120.430	442.144	0.0010724	0.00083788	0.00039513	592.22	1.0601e-05	1.8392e-05	774.7	252.7	5.5933e-06	1.5464e-05	338.56	156.09	130.1	77.589	4.2569e-06	94.22	0.0058919	0.0063779	0.0017561	816.81	6.8318e-05	6.857e-05	945.38	303.72	6.7037e-05	6.8042e-05	434.65	187.36	174.65	84.279	6.8453e-05	103.58	208.746	388.068	126.125	121.217	278.825	236.326	119.689	126.797	415.927	169.046	123.660	126.798	130.755	133.197	146.957	129.200	-8191	255	
1064.390	1	1	0	0	0.18485	0.1895	0.1659	0.084862	0.11352	0.24669	0.38634	0.1971	0.11813	0.14126	0.19073	0.19261	0.34314	0.28269	0.17641	0.19456	-1.0833	-0.70208	-0.99583	-1.3813	-0.56667	-1.2313	-0.98958	-0.56458	-1.4208	-0.67083	-1.0833	-1.4375	-0.57292	-1.5917	-1.025	-0.74583	391.322	425.961	305.335	115.232	172.955	318.803	460.165	404.495	159.396	250.523	375.461	396.940	178.679	123.001	334.446	346.016	0.00081681	0.00077345	0.00094547	589.71	1.7031e-05	2.226e-06	770.94	253.83	9.5384e-06	3.4759e-05	338.41	157.59	131.58	77.932	3.8432e-06	95.161	0.0056748	0.0061983	0.0017052	806.93	6.6364e-05	6.6282e-05	941.05	301.78	6.5168e-05	6.6468e-05	431.26	186.27	173.29	83.919	6.4504e-05	103.72	196.603	258.836	216.544	121.455	180.554	290.794	120.231	126.949	263.715	265.528	123.791	126.572	130.774	133.418	434.045	129.517	-8191	255	
1064.511	1	1	0	0	0.067222	0.39174	0.14038	0.12363	0.2651	0.17674	0.17935	0.053074	0.087673	0.18839	0.058523	0.38741	0.17909	0.39614	0.17345	0.22834	-0.93333	-0.82083	-0.89375	-1.3417	-0.41875	-1.2437	-1.0146	-0.82292	-1.4042	-0.81875	-1.0063	-1.6646	-0.62917	-1.3687	-1.0938	-0.84792	319.760	345.818	333.158	430.598	274.531	360.457	441.267	180.420	149.224	219.763	415.389	359.400	367.279	447.783	132.949	385.263	0.00079236	0.00038408	0.00029806	593.54	1.5258e-05	4.0112e-05	774.41	254.33	6.9702e-06	1.8835e-05	338.34	157.25	130.99	78.241	1.1161e-05	95.135	0.0053357	0.0058685	0.0016164	791.03	6.3041e-05	6.3111e-05	928.54	298.24	6.1169e-05	6.3092e-05	426.82	184.35	170.56	83.691	6.2206e-05	103.22	181.084	287.754	459.011	121.721	237.974	262.420	119.476	127.319	234.486	114.501	123.960	127.165	130.774	133.500	457.749	129.510	-8191	255	
1064.582	1	1	0	0	0.12791	0.11264	0.11962	0.1464	0.1607	0.046549	0.28979	0.43778	0.13381	0.24681	0.14745	0.27519	0.26406	0.26827	0.19931	0.26547	-0.98333	-0.825	-0.93125	-1.4583	-0.41458	-1.1187	-1.5729	-0.60625	-1.2792	-0.91458	-0.89792	-1.4937	-0.43333	-1.2854	-1.2708	-0.72917	235.547	325.161	164.260	463.724	432.128	238.518	117.362	453.807	401.521	186.985	232.399	116.556	355.117	466.860	466.823	393.738	0.00090347	0.001647	0.00040739	590.05	1.9692e-05	9.9827e-06	773.28	251.79	6.4105e-06	1.6786e-05	337.21	156.54	132.46	77.511	1.7678e-05	93.528	0.0051959	0.0057032	0.0015755	778.95	6.0546e-05	6.0228e-05	913.67	293.72	5.7799e-05	5.9374e-05	417.85	180.65	168	82.75	5.8494e-05	100.81	198.793	198.572	141.835	120.952	259.943	157.183	119.716	126.840	446.870	328.424	123.360	127.033	130.599	133.329	397.320	129.260	-8191	255	
1064.679	1	1	0	0	0.32007	0.13389	0.1294	0.064439	0.12344	0.032132	0.21704	0.16584	0.26757	0.16342	0.075266	0.10228	0.14207	0.36403	0.15636	0.061586	-0.8	-0.87708	-0.73958	-1.4979	-0.475	-1.0812	-1.4292	-0.74167	-1.3458	-0.91042	-0.50417	-1.4312	-0.84167	-1.1521	-1.2708	-0.74167	443.991	122.709	129.365	150.769	283.869	226.053	394.067	463.518	344.041	460.850	342.608	382.296	382.264	432.772	350.374	380.423	0.00097455	0.00088254	0.00063665	585.03	1.7653e-05	5.064e-06	770.27	252.3	1.9022e-05	3.0758e-05	334.34	155.7	131.43	77.949	5.2548e-06	94.116	0.00488	0.0053917	0.0014804	766.66	5.8878e-05	5.8207e-05	904.79	292.96	5.7889e-05	5.9867e-05	416.34	180.54	168.21	82.831	5.8001e-05	101.05	204.109	220.673	205.076	121.540	225.897	262.175	119.993	127.238	192.899	255.819	123.363	126.805	130.308	133.056	150.243	129.365	-8191	255	
1064.775	1	1	0	0	0.37237	0.047035	0.092725	0.34759	0.083538	0.09962	0.1044	0.16985	0.021659	0.027706	0.20261	0.056363	0.26999	0.30569	0.22744	0.35364	-0.92292	-0.95417	-0.61667	-1.3125	-0.75208	-0.86458	-1.4021	-0.54167	-1.0938	-1.1604	-0.54167	-1.4396	-0.80417	-0.95625	-1.2646	-0.65208	345.197	112.092	189.190	417.280	272.910	157.034	379.892	245.298	298.265	394.918	231.107	443.688	248.939	387.995	432.095	374.293	0.0010774	0.00049615	0.00091263	594.72	7.5046e-06	2.9132e-05	765.69	253.82	1.9177e-05	2.5765e-05	335.04	156.36	131.15	77.981	6.8994e-06	94.938	0.0048426	0.0053309	0.0014482	762.81	5.7192e-05	5.679e-05	898.94	292.63	5.5909e-05	5.7661e-05	414.4	180.25	167.09	82.668	5.6261e-05	101.61	201.410	341.117	223.841	121.722	244.230	279.719	119.579	126.587	288.425	464.341	123.068	126.983	130.427	133.318	366.701	129.142	-8191	255	
1064.895	1	1	0	0	0.128	0.21058	0.067461	0.33483	0.020894	0.035471	0.2562	0.33678	0.12295	0.10486	0.16611	0.25439	0.10157	0.20278	0.092454	0.12631	-0.59167	-1.125	-0.59583	-1.3958	-0.86875	-0.59375	-1.6792	-0.7375	-0.95625	-1.3771	-0.62708	-1.2812	-0.98333	-0.98125	-1.275	-0.9	214.679	434.322	426.560	433.907	380.262	115.195	413.003	401.086	240.433	366.322	149.827	135.116	384.098	110.830	162.526	369.694	0.00094678	0.0016381	0.00048232	596.77	9.2005e-06	1.4821e-05	769.27	254.5	1.0858e-05	2.2168e-05	337.23	157.92	131.24	78.156	9.7257e-06	95.904	0.0047505	0.0052113	0.0014328	759.76	5.6513e-05	5.5793e-05	898.45	292.16	5.4731e-05	5.6529e-05	414.78	180.84	166.28	82.755	5.4735e-05	102.13	199.131	369.979	202.794	121.699	268.238	217.970	119.795	126.754	243.556	294.005	123.531	126.701	130.354	133.378	321.730	129.077	-8191	255	
1064.991	1	1	0	0	0.040642	0.13484	0.08998	0.15492	0.11563	0.27322	0.26468	0.48417	0.18207	0.34443	0.17252	0.22659	0.20891	0.25221	0.070234	0.14591	-0.71667	-1.4937	-0.46875	-1.225	-0.89583	-0.775	-1.5354	-0.66875	-0.65625	-1.3583	-0.53958	-1.3687	-1.2687	-0.82917	-1.4062	-1.0479	183.733	171.624	247.733	437.159	427.150	356.740	299.739	390.539	276.657	188.985	392.231	417.865	430.561	426.724	229.931	321.552	0.0007858	0.00090347	0.00092444	593.17	1.5047e-05	2.5618e-05	773.21	254.63	7.8731e-06	8.7964e-06	339.83	157.53	130.99	78.061	8.6539e-06	93.983	0.0046198	0.005017	0.001379	754.21	5.513e-05	5.4631e-05	894.96	292.42	5.4555e-05	5.6162e-05	415.73	181	167.07	82.629	5.6285e-05	101.7	210.250	181.178	465.680	121.545	328.984	333.818	120.335	127.051	345.855	181.452	123.701	127.067	130.604	133.536	351.143	129.390	-8191	255	
1065.088	1	1	0	0	0.26249	0.22392	0.16778	0.16927	0.033022	0.26289	0.076828	0.18499	0.20748	0.055474	0.28787	0.17327	0.2888	0.25797	0.041048	0.18439	-0.43958	-1.4604	-0.75625	-1.4	-1.1437	-0.2	-1.4021	-1.1708	-0.8	-1.2521	-0.89375	-1.1437	-1.1313	-0.57917	-1.2458	-1.15	361.286	331.098	438.168	130.233	360.825	291.510	444.823	360.024	166.328	371.034	409.259	148.030	408.014	422.320	411.147	455.928	0.00074865	0.00062119	0.00044166	591.67	1.5899e-05	1.956e-05	772.16	251.97	9.4355e-06	1.1137e-05	338.2	156.51	130.45	77.822	1.3741e-05	93.916	0.0048002	0.0051793	0.0014495	763.46	5.7085e-05	5.6856e-05	900.39	292.54	5.6138e-05	5.7152e-05	415.37	180.11	166.75	82.441	5.618e-05	101	194.692	230.838	192.910	121.465	262.923	322.730	120.124	126.864	438.921	420.904	123.767	126.763	130.351	132.911	243.244	129.180	-8191	255	
1065.159	1	1	0	0	0.22225	0.11513	0.10527	0.15707	0.26507	0.35739	0.30383	0.34412	0.15545	0.19832	0.14874	0.032624	0.27317	0.20717	0.14295	0.26924	-0.33542	-1.3333	-0.77083	-1.2458	-1.0521	-0.5375	-1.6104	-1.1021	-0.62083	-1.1646	-0.81875	-1.0958	-1.3771	-0.80833	-1.2354	-1.4417	449.029	109.401	239.248	403.234	114.345	382.567	424.590	352.041	308.199	435.030	208.375	430.150	131.391	444.114	343.499	391.989	0.00086835	0.0019233	0.0003346	592.19	1.2384e-05	1.1554e-05	766.99	252.16	4.0381e-06	8.1263e-06	336.99	157.2	131.31	77.696	4.5808e-06	94.297	0.0047933	0.0051987	0.0014796	765.73	5.8222e-05	5.8694e-05	907.8	294.32	5.8335e-05	5.9041e-05	419.94	181.38	168.1	82.77	5.71e-05	101.51	200.963	384.029	182.715	121.330	188.831	149.900	119.675	126.865	303.436	247.636	123.273	127.120	130.411	133.246	200.530	129.070	-8191	255	
1065.280	1	1	0	0	0.080801	0.16074	0.12846	0.2465	0.039992	0.27218	0.29021	0.13488	0.19428	0.21749	0.3234	0.056032	0.09379	0.33124	0.05701	0.16562	-0.29167	-1.3188	-0.33333	-1.0187	-1.3583	-0.3125	-1.375	-1.4438	-0.50625	-1.3708	-0.97292	-0.99792	-1.5833	-0.83958	-0.92708	-1.2771	135.226	362.990	460.347	389.601	397.743	204.053	380.918	428.479	367.163	381.394	339.597	415.083	171.756	427.440	451.614	367.578	0.00090789	0.001174	0.00029438	592.64	2.831e-05	1.6687e-05	780.94	252.6	2.0168e-05	4.8194e-06	339.34	157.27	130.9	78.153	1.3585e-05	95.203	0.0048342	0.0051835	0.0014748	765.54	5.7006e-05	5.7427e-05	903.91	293.11	5.6353e-05	5.7008e-05	418.47	180.87	167.09	82.893	5.7258e-05	102.28	210.278	113.812	267.966	121.374	274.709	208.600	119.910	126.864	318.454	276.473	123.293	127.264	130.599	133.379	272.329	129.102	-8191	255	
1065.374	1	1	0	0	0.22459	0.23493	0.10313	0.2349	0.26211	0.02835	0.039277	0.46476	0.079189	0.30728	0.10822	0.43369	0.18459	0.29918	0.11569	0.10408	-0.44583	-1.3312	-0.64583	-0.83958	-1.5292	-0.53125	-1.1063	-1.3937	-0.29583	-1.4896	-1.2125	-0.77708	-1.425	-0.90625	-0.91458	-1.3188	183.563	293.916	342.449	418.510	160.255	335.907	357.732	415.107	350.061	232.546	112.051	413.820	380.206	415.067	333.313	405.251	0.00078094	0.0012876	0.00036195	590.94	3.2027e-06	1.0152e-05	776.78	254.23	9.7766e-06	1.6568e-05	339.63	156.9	131.81	77.931	1.765e-05	95.115	0.0048538	0.0052547	0.001492	765.59	5.7129e-05	5.8467e-05	909.45	294.28	5.7136e-05	5.7889e-05	419.38	181.57	167.59	82.976	5.6976e-05	102.13	202.214	390.968	240.902	121.722	122.129	265.919	119.854	126.663	252.398	420.324	123.554	127.186	130.343	133.331	224.798	129.383	-8191	255	
