BOXY.EXE: ISS Imagent and Oximeter Data Acquisition Program Version 0.80
Ascii Record File

#ACQ INFORMATION
2  Detector Channels 
16  External MUX Channels 
1  Auxiliary Channels 
5000  Waveform (CCF) Frequency (Hz)
1  Waveforms Skipped 
30  Waveforms Averaged 
1  Cycles Averaged 
16  Acquisitions per Waveform 
10.0806  Updata Rate (Hz) 

#FILE INFORMATION
TRUE -- External MUX Channel results are PARSED.
FALSE -- AC DC and Phase are NOT grouped.
TRUE -- Companion Program Settings File CREATED.
FALSE -- AC data not excluded
FALSE -- DC data not excluded
FALSE -- Phase data not excluded
FALSE -- Auxillary Chn. data not excluded
Tab delimiters

#CALIBRATION STATE
TRUE -- Waveform Calibration Values APPLIED.


#AUX CALIBRATION VALUES
Val Type	aux-1	

Term	1.0000e+00	
Factor	0.0000e+00	


#WF CALIBRATION VALUES
A = Detector Channel
Val Type	A-AC1	A-AC2	A-AC3	A-AC4	A-AC5	A-AC6	A-AC7	A-AC8	A-AC9	A-AC10	A-AC11	A-AC12	A-AC13	A-AC14	A-AC15	A-AC16	A-DC1	A-DC2	A-DC3	A-DC4	A-DC5	A-DC6	A-DC7	A-DC8	A-DC9	A-DC10	A-DC11	A-DC12	A-DC13	A-DC14	A-DC15	A-DC16	A-Ph1	A-Ph2	A-Ph3	A-Ph4	A-Ph5	A-Ph6	A-Ph7	A-Ph8	A-Ph9	A-Ph10	A-Ph11	A-Ph12	A-Ph13	A-Ph14	A-Ph15	A-Ph16	

Term	0.00000e+00	0.00000e+00	0.00000e+00	0.00000e+00	0.00000e+00	0.00000e+00	0.00000e+00	0.00000e+00	0.00000e+00	0.00000e+00	0.00000e+00	0.00000e+00	0.00000e+00	0.00000e+00	0.00000e+00	0.00000e+00	0.00000e+00	0.00000e+00	0.00000e+00	0.00000e+00	0.00000e+00	0.00000e+00	0.00000e+00	0.00000e+00	0.00000e+00	0.00000e+00	0.00000e+00	0.00000e+00	0.00000e+00	0.00000e+00	0.00000e+00	0.00000e+00	0.00000e+00	0.00000e+00	0.00000e+00	0.00000e+00	0.00000e+00	0.00000e+00	0.00000e+00	0.00000e+00	0.00000e+00	0.00000e+00	0.00000e+00	0.00000e+00	0.00000e+00	0.00000e+00	0.00000e+00	0.00000e+00	
Factor	1.00000e+00	1.00000e+00	1.00000e+00	1.00000e+00	1.00000e+00	1.00000e+00	1.00000e+00	1.00000e+00	1.00000e+00	1.00000e+00	1.00000e+00	1.00000e+00	1.00000e+00	1.00000e+00	1.00000e+00	1.00000e+00	1.00000e+00	1.00000e+00	1.00000e+00	1.00000e+00	1.00000e+00	1.00000e+00	1.00000e+00	1.00000e+00	1.00000e+00	1.00000e+00	1.00000e+00	1.00000e+00	1.00000e+00	1.00000e+00	1.00000e+00	1.00000e+00	X	X	X	X	X	X	X	X	X	X	X	X	X	X	X	X	

B = Detector Channel
Val Type	B-AC1	B-AC2	B-AC3	B-AC4	B-AC5	B-AC6	B-AC7	B-AC8	B-AC9	B-AC10	B-AC11	B-AC12	B-AC13	B-AC14	B-AC15	B-AC16	B-DC1	B-DC2	B-DC3	B-DC4	B-DC5	B-DC6	B-DC7	B-DC8	B-DC9	B-DC10	B-DC11	B-DC12	B-DC13	B-DC14	B-DC15	B-DC16	B-Ph1	B-Ph2	B-Ph3	B-Ph4	B-Ph5	B-Ph6	B-Ph7	B-Ph8	B-Ph9	B-Ph10	B-Ph11	B-Ph12	B-Ph13	B-Ph14	B-Ph15	B-Ph16	

Term	0.00000e+00	0.00000e+00	0.00000e+00	0.00000e+00	0.00000e+00	0.00000e+00	0.00000e+00	0.00000e+00	0.00000e+00	0.00000e+00	0.00000e+00	0.00000e+00	0.00000e+00	0.00000e+00	0.00000e+00	0.00000e+00	0.00000e+00	0.00000e+00	0.00000e+00	0.00000e+00	0.00000e+00	0.00000e+00	0.00000e+00	0.00000e+00	0.00000e+00	0.00000e+00	0.00000e+00	0.00000e+00	0.00000e+00	0.00000e+00	0.00000e+00	0.00000e+00	-1.06138e+02	-1.29047e+02	-1.21568e+02	-1.83476e+02	-5.52129e+01	-7.56509e+01	-1.59880e+02	-1.62015e+02	-5.74747e+01	-6.97283e+01	-1.75117e+02	-1.71928e+02	-1.83346e+02	-1.76281e+02	-5.73029e+01	-1.49823e+02	
Factor	1.52751e-05	1.27225e-04	4.13959e-05	1.84327e-01	1.04722e-06	1.71902e-06	1.70247e-01	4.74238e-02	9.30981e-07	1.49024e-06	9.31797e-02	3.12405e-02	3.94049e-02	8.22718e-03	1.10834e-06	1.22183e-02	1.99470e-06	2.18733e-06	6.09788e-07	9.24792e-02	2.38180e-08	2.40278e-08	8.06688e-02	2.40565e-02	2.37376e-08	2.40181e-08	4.51395e-02	1.53027e-02	1.98509e-02	4.17740e-03	2.39144e-08	5.96623e-03	X	X	X	X	X	X	X	X	X	X	X	X	X	X	X	X	



#DISTANCE SETTINGS
A = Detector Channel
A-1	A-2	A-3	A-4	A-5	A-6	A-7	A-8	A-9	A-10	A-11	A-12	A-13	A-14	A-15	A-16	

2.5000e+00	3.0000e+00	2.5000e+00	3.0000e+00	2.0000e+00	3.0000e+00	1.5000e+00	3.0000e+00	3.0000e+00	3.0000e+00	3.0000e+00	3.0000e+00	3.0000e+00	3.0000e+00	1.5000e+00	3.0000e+00	

B = Detector Channel
B-1	B-2	B-3	B-4	B-5	B-6	B-7	B-8	B-9	B-10	B-11	B-12	B-13	B-14	B-15	B-16	

1.0000e+01	1.0000e+01	1.0000e+01	1.4400e+00	1.0000e+01	1.0000e+01	1.5100e+00	1.9400e+00	1.0000e+01	1.0000e+01	1.9900e+00	2.4900e+00	2.4100e+00	2.9000e+00	1.0000e+01	2.9800e+00	




#DATA BEGINS
time	group	step	mark	flag	A-AC1	A-AC2	A-AC3	A-AC4	A-AC5	A-AC6	A-AC7	A-AC8	A-AC9	A-AC10	A-AC11	A-AC12	A-AC13	A-AC14	A-AC15	A-AC16	A-DC1	A-DC2	A-DC3	A-DC4	A-DC5	A-DC6	A-DC7	A-DC8	A-DC9	A-DC10	A-DC11	A-DC12	A-DC13	A-DC14	A-DC15	A-DC16	A-Ph1	A-Ph2	A-Ph3	A-Ph4	A-Ph5	A-Ph6	A-Ph7	A-Ph8	A-Ph9	A-Ph10	A-Ph11	A-Ph12	A-Ph13	A-Ph14	A-Ph15	A-Ph16	B-AC1	B-AC2	B-AC3	B-AC4	B-AC5	B-AC6	B-AC7	B-AC8	B-AC9	B-AC10	B-AC11	B-AC12	B-AC13	B-AC14	B-AC15	B-AC16	B-DC1	B-DC2	B-DC3	B-DC4	B-DC5	B-DC6	B-DC7	B-DC8	B-DC9	B-DC10	B-DC11	B-DC12	B-DC13	B-DC14	B-DC15	B-DC16	B-Ph1	B-Ph2	B-Ph3	B-Ph4	B-Ph5	B-Ph6	B-Ph7	B-Ph8	B-Ph9	B-Ph10	B-Ph11	B-Ph12	B-Ph13	B-Ph14	B-Ph15	B-Ph16	aux-1	digaux	

1047.321	1	1	0	512	0.082324	0.17182	0.29453	0.35517	0.27059	0.040081	0.22178	0.22355	0.10069	0.25202	0.29377	0.28856	0.053002	0.3528	0.15282	0.21832	-0.05625	-1.0021	-0.90833	-0.72917	-1.3479	-0.72292	-0.79375	-1.4979	-0.51458	-1.1	-1.2833	-0.68333	-1.5542	-1.0771	-0.54792	-1.5625	377.724	457.270	240.797	374.815	415.673	468.697	357.641	146.597	463.815	356.581	365.624	397.518	153.628	458.197	144.909	386.290	0.00097135	0.00076129	0.00045747	566.53	1.5179e-05	1.1748e-05	742.57	241.84	3.2918e-06	1.6826e-05	335.09	156.88	124.93	77.056	1.5133e-05	96.094	0.0030136	0.0031825	0.00090766	654.68	3.3923e-05	3.4697e-05	797.19	258.46	3.3224e-05	3.3264e-05	368.73	165.02	141.15	77.618	3.1873e-05	96.261	204.320	359.998	176.147	122.173	319.275	288.031	120.443	127.600	273.427	227.854	123.575	127.771	131.771	133.856	288.921	129.820	-8191	255	
1047.417	1	1	0	0	0.17598	0.11547	0.1764	0.16409	0.12532	0.25442	0.3531	0.092887	0.13037	0.14106	0.11182	0.30162	0.14506	0.44874	0.24107	0.36238	-0.24792	-1.0042	-1.1354	-0.63958	-1.2958	-0.78958	-0.64583	-1.4417	-0.47083	-1.0896	-1.5833	-0.62083	-1.5917	-1.2938	-0.65	-1.5438	231.244	294.560	131.440	124.169	121.086	386.080	330.926	417.875	202.421	387.428	190.100	379.413	263.861	444.502	294.694	421.127	0.00087062	0.00077505	0.00061061	568.35	3.495e-06	2.4155e-05	746.66	243.87	6.1689e-06	1.2802e-05	335.8	158.32	126.38	77.609	1.632e-05	97.055	0.0027205	0.0028663	0.00080254	642.33	3.0735e-05	3.1697e-05	789.71	256.52	3.0922e-05	3.0779e-05	364.53	164.85	139.63	77.684	2.9668e-05	96.603	197.373	429.269	189.075	122.146	211.578	281.350	120.579	127.510	310.105	339.527	124.196	127.782	131.211	133.549	274.988	129.565	-8191	255	
1047.513	1	1	0	0	0.072248	0.089391	0.13076	0.0899	0.033879	0.048309	0.208	0.31621	0.25066	0.28536	0.28835	0.10939	0.091127	0.19169	0.30216	0.37252	-0.40625	-0.64792	-1.3542	-0.66875	-0.90417	-1.0167	-0.775	-1.4688	-0.58333	-0.85417	-1.5292	-0.55417	-1.2812	-1.3687	-0.55833	-1.5958	386.861	265.653	116.753	394.831	199.823	118.689	222.739	313.757	209.578	430.759	113.415	392.477	132.042	179.873	182.124	431.082	0.00089204	0.00090806	0.00041646	572.46	8.7612e-06	5.1862e-06	747.03	246.79	8.2715e-06	1.4636e-05	339.13	159.3	127.47	78.168	7.9716e-06	98.198	0.0025349	0.0026665	0.00074672	634.63	2.8437e-05	2.9294e-05	782.39	256.21	2.8818e-05	2.8556e-05	362.39	164.71	138.84	77.863	2.814e-05	97.03	199.408	196.845	125.318	122.495	447.313	275.953	120.801	127.715	189.407	292.411	124.022	127.689	131.349	134.034	132.776	129.784	-8191	255	
1047.609	1	1	0	0	0.13824	0.28043	0.28078	0.13192	0.097265	0.35152	0.35998	0.30487	0.026191	0.12855	0.11968	0.093546	0.2919	0.48824	0.33022	0.55333	-0.52083	-0.58958	-1.1625	-0.79792	-1.0938	-1.2062	-0.57292	-1.3792	-0.875	-0.70833	-1.7042	-0.55625	-1.075	-1.5917	-0.64792	-1.3583	350.501	300.289	195.191	188.945	234.583	150.247	375.558	418.804	204.352	116.341	280.949	396.598	129.272	427.910	202.069	414.250	0.00084474	0.0010074	0.00011196	570.84	1.6232e-06	2.8178e-05	746.31	244.21	8.2188e-06	1.0119e-05	337.13	158.63	126.46	77.498	4.3782e-06	96.882	0.0024475	0.0025754	0.00072484	632.23	2.8267e-05	2.9103e-05	780.12	255.26	2.9009e-05	2.891e-05	362.08	164.29	138.66	77.459	2.8983e-05	95.937	197.730	163.148	144.888	122.444	121.900	464.854	120.519	127.720	226.491	457.648	124.084	127.850	131.277	133.952	211.731	129.790	-8191	255	
1047.705	1	1	0	0	0.045374	0.2786	0.42591	0.16565	0.26311	0.13951	0.083933	0.34105	0.041795	0.053055	0.10846	0.16538	0.41234	0.17075	0.1758	0.46255	-0.5625	-0.68958	-1.375	-0.56042	-1.0562	-1.2938	-0.64792	-1.45	-1.1375	-0.69583	-1.55	-0.92083	-0.975	-1.5396	-0.60625	-1.1938	466.936	156.330	321.406	416.335	226.913	408.861	439.767	361.876	332.522	237.865	110.577	449.469	431.939	433.427	376.022	400.983	0.00081485	0.0012111	0.00034319	564.01	3.9566e-06	6.7075e-07	739.51	243.61	3.4538e-06	1.1403e-05	333.73	157.72	127.14	77.633	8.251e-06	96.588	0.0025585	0.002672	0.00073403	633.13	2.8561e-05	2.916e-05	774.39	253.99	2.8144e-05	2.8038e-05	358.32	162.86	138.22	77.302	2.765e-05	95.45	198.652	342.129	126.439	122.368	249.425	387.478	120.178	127.715	266.674	242.084	123.756	127.361	131.210	133.803	333.816	129.235	-8191	255	
1047.824	1	1	0	0	0.1756	0.17593	0.24874	0.13999	0.1166	0.26035	0.12789	0.2048	0.26776	0.19802	0.098467	0.20488	0.24235	0.22513	0.2324	0.20277	-0.65208	-0.65	-1.5458	-0.53542	-0.58125	-1.2521	-0.72292	-1.3271	-1.0812	-0.5125	-1.5083	-0.84792	-0.70417	-1.7708	-0.54375	-1.2812	241.895	115.089	122.040	208.833	188.293	209.754	448.983	399.511	392.439	349.534	382.707	120.077	113.597	438.345	194.982	118.473	0.00088196	0.00055102	0.00025952	565.91	6.9089e-06	1.9589e-05	743.64	243.91	1.8324e-06	9.1438e-06	337.14	157.96	127.36	77.945	1.2642e-05	97.486	0.0024032	0.0025136	0.00069641	626.44	2.7451e-05	2.7608e-05	774.53	253.74	2.7532e-05	2.7264e-05	357.83	163.09	137.96	77.418	2.7651e-05	96.311	197.033	407.722	211.501	122.031	348.180	271.856	120.562	127.660	263.969	198.864	124.152	127.594	131.475	133.973	241.432	129.932	-8191	255	
1047.920	1	1	0	0	0.086671	0.14549	0.33955	0.15144	0.13789	0.1585	0.12309	0.13888	0.24463	0.23643	0.22864	0.33454	0.12166	0.39302	0.057002	0.40747	-0.89792	-0.72708	-1.325	-0.81458	-0.78125	-1.6417	-0.725	-0.98542	-1.3208	-0.71042	-1.2792	-1.0729	-0.6	-1.6875	-0.80625	-1.1354	371.828	342.141	226.793	269.538	457.270	225.139	177.146	402.037	221.078	334.975	372.275	461.322	142.094	423.865	225.951	404.142	0.0008232	0.00097034	0.00037675	567.25	6.619e-06	5.3341e-06	740.69	246.11	3.237e-06	1.3458e-05	339.48	159.93	127.41	78.131	3.2303e-06	98.677	0.0024305	0.0025424	0.00070404	630.7	2.759e-05	2.7785e-05	775.41	254.72	2.7759e-05	2.7304e-05	360.35	164.33	138.38	77.676	2.746e-05	97.123	207.370	151.027	209.363	122.869	233.843	301.077	120.247	127.634	136.113	198.175	124.158	127.379	131.421	134.035	418.968	129.874	-8191	255	
1047.994	1	1	0	0	0.23119	0.0080005	0.17385	0.2683	0.0079976	0.43332	0.19449	0.30563	0.26313	0.10541	0.09657	0.23325	0.2065	0.23891	0.20521	0.098306	-1.0021	-0.51875	-1.0667	-1.2208	-0.39792	-1.3375	-0.775	-0.95625	-1.5667	-0.79167	-1.2833	-1.2563	-0.67917	-1.5521	-0.76042	-1.0771	320.798	382.900	419.631	354.757	393.350	224.544	135.164	403.928	326.346	429.018	393.668	178.763	421.987	159.277	467.764	448.682	0.00083851	0.00041151	0.00023545	568.93	9.6522e-06	2.4867e-05	741.36	244.73	1.4739e-05	2.2644e-06	341.8	159.87	128.09	78.13	3.415e-06	97.78	0.0023699	0.0024955	0.00069484	629.87	2.7216e-05	2.7283e-05	778.57	254.56	2.7351e-05	2.777e-05	361.76	164.69	138.88	77.74	2.8168e-05	96.769	200.744	414.849	424.328	122.521	244.834	236.288	120.912	127.873	186.377	234.171	124.338	127.918	131.722	134.492	282.581	129.847	-8191	255	
1048.113	1	1	0	0	0.060918	0.050123	0.24567	0.15091	0.18565	0.16809	0.26074	0.15355	0.18252	0.24581	0.22553	0.10712	0.059519	0.28493	0.16087	0.32166	-1.0438	-0.3125	-1.1688	-1.1854	-0.36875	-1.3729	-1.0125	-0.71875	-1.3458	-0.78542	-1.1313	-1.3104	-0.52917	-1.5167	-0.78333	-0.71042	299.751	315.922	314.118	442.629	440.780	463.958	425.000	124.172	350.560	270.848	165.578	117.885	127.808	392.924	158.791	439.784	0.00085273	0.00039748	0.0004091	569.02	3.1243e-06	2.4247e-05	739.65	244.62	8.1906e-06	1.2251e-05	336.44	159.15	127.83	77.643	3.1558e-06	96.865	0.0024093	0.002557	0.00070683	629.03	2.7728e-05	2.7764e-05	775.76	254.05	2.7457e-05	2.8159e-05	359.1	163.53	138.18	77.377	2.8117e-05	95.926	193.795	409.931	315.098	122.211	366.168	301.193	120.640	127.628	275.228	311.165	123.970	127.561	131.379	134.052	353.816	129.779	-8191	255	
1048.209	1	1	0	0	0.059772	0.22403	0.20221	0.19985	0.51109	0.25298	0.12147	0.30086	0.15228	0.16678	0.2307	0.39988	0.04361	0.23705	0.24987	0.079356	-1.0063	-0.51667	-0.84792	-1.4458	-0.54167	-1.2667	-0.95625	-0.58125	-1.3354	-0.78333	-1.0542	-1.3375	-0.79167	-1.3438	-0.91042	-0.77917	199.231	386.138	359.332	153.662	405.883	358.230	199.100	395.578	289.148	217.262	388.335	451.072	382.947	444.681	297.843	424.187	0.00087355	0.0002795	0.00054145	560.54	7.4397e-06	1.9333e-05	736.88	244.13	1.3969e-06	7.9566e-06	338.46	158.22	127.29	78.292	1.6193e-05	97.043	0.0023575	0.0025415	0.00069363	624.08	2.6857e-05	2.7252e-05	770.35	252.57	2.6843e-05	2.7589e-05	357.71	162.49	137.59	77.591	2.7205e-05	95.813	194.007	163.832	190.745	122.703	269.867	225.038	120.732	127.893	309.322	303.951	123.870	127.388	130.863	133.620	271.010	129.130	-8191	255	
1048.305	1	1	0	0	0.36349	0.25281	0.18171	0.087783	0.070703	0.14521	0.30823	0.38834	0.28911	0.12124	0.18136	0.21409	0.18707	0.077535	0.028972	0.17458	-1.0938	-0.76042	-0.56458	-1.1354	-0.48958	-1.2208	-1.1333	-0.51667	-1.2146	-0.79583	-0.93333	-1.4	-0.43125	-1.1521	-1.1375	-0.68958	420.994	444.141	177.762	316.127	389.445	364.053	287.299	434.467	273.068	274.005	457.711	360.718	143.247	114.988	214.079	374.187	0.00082054	0.00087083	0.00040838	564.2	5.8736e-06	7.2799e-06	736.57	244.01	4.9255e-06	8.1247e-06	337.34	158.93	127.03	78.826	1.2483e-05	97.63	0.002268	0.0024623	0.00067864	619.39	2.6502e-05	2.6375e-05	768.23	251.48	2.575e-05	2.6812e-05	356.83	162.58	137.53	77.89	2.6448e-05	96.578	196.414	162.841	445.568	122.233	275.010	328.731	120.042	127.058	219.201	283.245	123.708	127.045	130.949	133.567	257.923	129.203	-8191	255	
1048.401	1	1	0	0	0.044313	0.078293	0.16611	0.10476	0.2585	0.047402	0.13629	0.049327	0.061266	0.12878	0.17004	0.081514	0.14199	0.48706	0.28622	0.29919	-0.79375	-0.85208	-0.67083	-1.5125	-0.46875	-1.0333	-1.3229	-0.69375	-1.1771	-0.85208	-0.46667	-1.5979	-0.66667	-1.2083	-1.3646	-0.66667	200.487	172.648	270.644	297.381	231.908	412.019	237.345	210.026	452.039	222.659	290.065	328.642	408.810	112.345	452.777	410.804	0.00090364	0.00038077	0.00040454	565.28	3.891e-06	1.7015e-05	740.49	242.34	4.1848e-06	1.9663e-05	338.83	160.07	127.78	78.973	3.2955e-06	98.645	0.0022406	0.0024456	0.00066262	616.79	2.6026e-05	2.6054e-05	768.07	251.76	2.5554e-05	2.6628e-05	358.25	163.96	137.78	78.149	2.6451e-05	97.285	201.802	245.545	179.592	121.977	117.665	237.063	120.278	127.119	242.781	267.766	123.679	127.213	130.691	133.475	249.781	129.322	-8191	255	
1048.522	1	1	0	0	0.092963	0.17625	0.13103	0.25395	0.24858	0.065209	0.057728	0.38643	0.093985	0.14956	0.024143	0.24283	0.23763	0.20744	0.28523	0.22436	-1.0417	-0.96458	-0.39583	-1.4208	-1.0292	-1.0042	-1.2792	-0.60417	-1.1875	-0.93125	-0.69167	-1.1625	-0.84583	-1.0354	-1.3646	-0.75417	448.776	360.412	281.804	241.839	144.497	204.156	240.117	409.036	414.238	175.028	223.873	133.006	427.903	116.470	212.535	385.563	0.0008598	0.00086828	0.00016667	565.07	8.5056e-06	1.3452e-05	737.71	243.81	3.7116e-06	9.0543e-06	337.97	158.98	126.76	78.66	1.0165e-05	97.454	0.0022652	0.0024829	0.00067966	621.51	2.7201e-05	2.6898e-05	770.66	252.77	2.7017e-05	2.8098e-05	358.45	163.47	138.72	77.987	2.7598e-05	96.486	191.561	122.758	161.485	122.352	264.403	234.092	120.247	127.254	158.310	212.271	123.813	127.213	130.912	133.709	336.852	129.408	-8191	255	
1048.618	1	1	0	0	0.19471	0.16047	0.12765	0.012975	0.14478	0.086887	0.10457	0.12018	0.08625	0.032984	0.13022	0.040333	0.24408	0.34071	0.19574	0.082314	-0.75833	-1.0646	-0.40625	-1.5042	-0.79375	-0.57708	-1.4708	-0.94792	-0.83333	-0.9875	-0.40833	-1.4708	-0.775	-0.98542	-1.5146	-0.78125	133.153	317.156	187.211	243.746	410.614	232.798	415.684	252.185	150.445	265.236	424.659	357.728	140.555	391.968	263.805	443.251	0.00094631	0.00058045	0.000126	567.15	3.6532e-06	2.8853e-06	735.32	242.19	3.5791e-06	7.0291e-06	334.6	157.04	125.95	77.802	6.6479e-06	96.074	0.0023779	0.0025674	0.00070334	625.86	2.8148e-05	2.8011e-05	768.81	252.83	2.7563e-05	2.8727e-05	357.66	162.4	139.14	77.414	2.8808e-05	95.686	198.725	288.889	175.612	121.915	413.221	391.482	120.200	127.144	260.574	336.836	123.511	127.030	130.961	133.656	314.515	129.230	-8191	255	
1048.714	1	1	0	0	0.27697	0.16659	0.22002	0.044987	0.026333	0.22499	0.063721	0.17217	0.15631	0.10161	0.086311	0.063354	0.34006	0.14746	0.22686	0.3708	-0.72708	-1.1417	-0.375	-1.4146	-0.83333	-0.62708	-1.4396	-0.76667	-0.83542	-0.83542	-0.76667	-1.2854	-0.89167	-0.78125	-1.2417	-0.67917	365.770	169.108	164.039	407.428	208.578	200.788	413.980	163.961	336.624	190.471	315.374	395.674	443.030	451.441	242.078	117.321	0.00072357	0.00068997	0.00013441	566.19	1.1125e-05	1.6178e-05	733.59	242.42	9.7503e-06	1.1625e-05	331.51	157.19	125.88	77.337	3.6408e-06	96.285	0.0025037	0.0027027	0.0007427	632.08	2.947e-05	2.9337e-05	775.24	254.06	2.9263e-05	3.0207e-05	359.31	163.48	140.3	77.487	3.0779e-05	96.161	203.571	145.727	209.683	122.117	233.567	390.726	120.071	127.243	279.685	192.865	123.677	127.300	130.707	133.557	380.786	129.169	-8191	255	
1048.809	1	1	0	0	0.21306	0.20665	0.21258	0.12688	0.16699	0.074068	0.10867	0.10305	0.086665	0.11642	0.27506	0.14816	0.18774	0.48563	0.11738	0.095399	-0.5	-1.1146	-0.62083	-1.5938	-1.0063	-0.425	-1.4958	-0.78958	-0.81875	-1.5229	-0.45833	-1.2146	-1.2792	-0.55208	-1.1938	-1.1042	468.303	114.040	436.135	351.813	432.354	203.871	252.805	452.988	367.390	277.733	393.311	154.011	246.722	434.584	437.811	404.969	0.00070822	0.0007439	0.00045612	569.04	8.0804e-06	2.2592e-05	740.21	242.78	3.636e-07	8.27e-06	338.56	158.44	126.71	77.36	6.5228e-06	96.67	0.0026521	0.0028579	0.0007939	639.55	3.1232e-05	3.0703e-05	785.71	255.85	3.0302e-05	3.0894e-05	364.18	164.39	140.37	77.469	3.0533e-05	96.623	194.666	139.131	211.142	121.706	160.262	232.208	120.234	127.201	258.671	147.214	123.689	127.586	130.650	133.535	235.091	129.320	-8191	255	
1048.905	1	1	0	0	0.24676	0.022946	0.018695	0.24964	0.22125	0.36071	0.070735	0.12037	0.0059754	0.25432	0.18585	0.19562	0.14916	0.1869	0.087464	0.27645	-0.26458	-1.1458	-0.44375	-1.1187	-1.3854	-0.46667	-1.4396	-1.1083	-0.56875	-1.4625	-0.76458	-0.98958	-1.1958	-0.62083	-1.1375	-1.05	350.554	209.935	434.878	163.116	130.419	416.363	386.448	137.392	387.937	429.708	416.923	112.320	429.897	350.343	414.795	409.827	0.00088224	0.00075446	0.00027179	569.12	6.2648e-06	9.1332e-06	744.94	242.54	6.6364e-06	1.7835e-06	336.02	159.15	126.67	76.967	6.1167e-06	96.486	0.002642	0.0028149	0.00080205	643.41	3.1595e-05	3.1384e-05	790.53	256.45	3.1091e-05	3.1267e-05	367.03	165.64	140.16	77.25	3.1098e-05	96.692	203.035	269.513	277.029	122.329	298.264	178.999	120.147	127.293	291.299	469.223	123.819	127.172	131.092	133.571	358.684	129.269	-8191	255	
1049.001	1	1	0	0	0.19501	0.18186	0.097256	0.23452	0.10025	0.23848	0.12689	0.20212	0.16571	0.14961	0.1871	0.093751	0.35593	0.23724	0.12286	0.15143	-0.18542	-1.3854	-0.775	-0.88542	-1.3438	-0.18958	-1.4292	-1.0271	-0.36667	-1.5104	-0.78958	-1.1833	-1.4104	-0.75	-1.1125	-1.4521	259.242	144.669	228.516	468.930	359.514	210.737	239.980	423.093	341.054	455.581	126.771	385.489	399.654	366.784	356.061	403.601	0.0010172	0.00099309	0.0002578	567.31	1.242e-05	8.7738e-06	743.85	243.75	8.7601e-06	1.1272e-06	334.41	157.25	124.5	76.071	5.8899e-07	95.507	0.0026841	0.0028673	0.00082169	644.87	3.1789e-05	3.2036e-05	791.52	257.5	3.1705e-05	3.255e-05	367.43	164.65	140.45	76.645	3.2287e-05	95.782	194.380	165.191	195.032	121.877	192.534	292.735	120.270	127.041	136.861	237.063	123.654	127.241	131.517	133.554	300.052	129.621	-8191	255	
