BOXY.EXE: ISS Imagent and Oximeter Data Acquisition Program Version 0.80
Ascii Record File

#ACQ INFORMATION
2  Detector Channels 
16  External MUX Channels 
1  Auxiliary Channels 
5000  Waveform (CCF) Frequency (Hz)
1  Waveforms Skipped 
30  Waveforms Averaged 
1  Cycles Averaged 
16  Acquisitions per Waveform 
10.0806  Updata Rate (Hz) 

#FILE INFORMATION
TRUE -- External MUX Channel results are PARSED.
FALSE -- AC DC and Phase are NOT grouped.
TRUE -- Companion Program Settings File CREATED.
FALSE -- AC data not excluded
FALSE -- DC data not excluded
FALSE -- Phase data not excluded
FALSE -- Auxillary Chn. data not excluded
Tab delimiters

#CALIBRATION STATE
TRUE -- Waveform Calibration Values APPLIED.


#AUX CALIBRATION VALUES
Val Type	aux-1	

Term	1.0000e+00	
Factor	0.0000e+00	


#WF CALIBRATION VALUES
A = Detector Channel
Val Type	A-AC1	A-AC2	A-AC3	A-AC4	A-AC5	A-AC6	A-AC7	A-AC8	A-AC9	A-AC10	A-AC11	A-AC12	A-AC13	A-AC14	A-AC15	A-AC16	A-DC1	A-DC2	A-DC3	A-DC4	A-DC5	A-DC6	A-DC7	A-DC8	A-DC9	A-DC10	A-DC11	A-DC12	A-DC13	A-DC14	A-DC15	A-DC16	A-Ph1	A-Ph2	A-Ph3	A-Ph4	A-Ph5	A-Ph6	A-Ph7	A-Ph8	A-Ph9	A-Ph10	A-Ph11	A-Ph12	A-Ph13	A-Ph14	A-Ph15	A-Ph16	

Term	0.00000e+00	0.00000e+00	0.00000e+00	0.00000e+00	0.00000e+00	0.00000e+00	0.00000e+00	0.00000e+00	0.00000e+00	0.00000e+00	0.00000e+00	0.00000e+00	0.00000e+00	0.00000e+00	0.00000e+00	0.00000e+00	0.00000e+00	0.00000e+00	0.00000e+00	0.00000e+00	0.00000e+00	0.00000e+00	0.00000e+00	0.00000e+00	0.00000e+00	0.00000e+00	0.00000e+00	0.00000e+00	0.00000e+00	0.00000e+00	0.00000e+00	0.00000e+00	0.00000e+00	0.00000e+00	0.00000e+00	0.00000e+00	0.00000e+00	0.00000e+00	0.00000e+00	0.00000e+00	0.00000e+00	0.00000e+00	0.00000e+00	0.00000e+00	0.00000e+00	0.00000e+00	0.00000e+00	0.00000e+00	
Factor	1.00000e+00	1.00000e+00	1.00000e+00	1.00000e+00	1.00000e+00	1.00000e+00	1.00000e+00	1.00000e+00	1.00000e+00	1.00000e+00	1.00000e+00	1.00000e+00	1.00000e+00	1.00000e+00	1.00000e+00	1.00000e+00	1.00000e+00	1.00000e+00	1.00000e+00	1.00000e+00	1.00000e+00	1.00000e+00	1.00000e+00	1.00000e+00	1.00000e+00	1.00000e+00	1.00000e+00	1.00000e+00	1.00000e+00	1.00000e+00	1.00000e+00	1.00000e+00	X	X	X	X	X	X	X	X	X	X	X	X	X	X	X	X	

B = Detector Channel
Val Type	B-AC1	B-AC2	B-AC3	B-AC4	B-AC5	B-AC6	B-AC7	B-AC8	B-AC9	B-AC10	B-AC11	B-AC12	B-AC13	B-AC14	B-AC15	B-AC16	B-DC1	B-DC2	B-DC3	B-DC4	B-DC5	B-DC6	B-DC7	B-DC8	B-DC9	B-DC10	B-DC11	B-DC12	B-DC13	B-DC14	B-DC15	B-DC16	B-Ph1	B-Ph2	B-Ph3	B-Ph4	B-Ph5	B-Ph6	B-Ph7	B-Ph8	B-Ph9	B-Ph10	B-Ph11	B-Ph12	B-Ph13	B-Ph14	B-Ph15	B-Ph16	

Term	0.00000e+00	0.00000e+00	0.00000e+00	0.00000e+00	0.00000e+00	0.00000e+00	0.00000e+00	0.00000e+00	0.00000e+00	0.00000e+00	0.00000e+00	0.00000e+00	0.00000e+00	0.00000e+00	0.00000e+00	0.00000e+00	0.00000e+00	0.00000e+00	0.00000e+00	0.00000e+00	0.00000e+00	0.00000e+00	0.00000e+00	0.00000e+00	0.00000e+00	0.00000e+00	0.00000e+00	0.00000e+00	0.00000e+00	0.00000e+00	0.00000e+00	0.00000e+00	-9.16924e+01	-1.29767e+02	-1.18293e+02	-1.86930e+02	-6.15527e+01	-7.43525e+01	-1.57927e+02	-1.62015e+02	-5.46448e+01	-6.47678e+01	-1.74803e+02	-1.71738e+02	-1.79902e+02	-1.78143e+02	-6.55759e+01	-1.51148e+02	
Factor	1.34725e-05	1.20035e-04	3.44946e-05	2.75324e-01	1.14839e-06	1.47898e-06	1.54831e-01	4.40518e-02	8.52034e-07	1.53134e-06	8.28116e-02	2.37421e-02	1.84838e-02	7.33700e-03	1.05337e-06	1.06775e-02	4.48628e-06	5.69377e-06	1.58866e-06	1.45487e-01	6.13995e-08	6.28015e-08	7.73109e-02	2.36346e-02	6.06459e-08	6.30374e-08	4.27097e-02	1.23527e-02	1.00779e-02	3.96030e-03	6.13034e-08	5.55185e-03	X	X	X	X	X	X	X	X	X	X	X	X	X	X	X	X	



#DISTANCE SETTINGS
A = Detector Channel
A-1	A-2	A-3	A-4	A-5	A-6	A-7	A-8	A-9	A-10	A-11	A-12	A-13	A-14	A-15	A-16	

2.5000e+00	3.0000e+00	2.5000e+00	3.0000e+00	2.0000e+00	3.0000e+00	1.5000e+00	3.0000e+00	3.0000e+00	3.0000e+00	3.0000e+00	3.0000e+00	3.0000e+00	3.0000e+00	1.5000e+00	3.0000e+00	

B = Detector Channel
B-1	B-2	B-3	B-4	B-5	B-6	B-7	B-8	B-9	B-10	B-11	B-12	B-13	B-14	B-15	B-16	

1.0000e+01	1.0000e+01	1.0000e+01	1.4400e+00	1.0000e+01	1.0000e+01	1.5100e+00	1.9400e+00	1.0000e+01	1.0000e+01	1.9900e+00	2.4900e+00	2.4100e+00	2.9000e+00	1.0000e+01	2.9800e+00	




#DATA BEGINS
time	group	step	mark	flag	A-AC1	A-AC2	A-AC3	A-AC4	A-AC5	A-AC6	A-AC7	A-AC8	A-AC9	A-AC10	A-AC11	A-AC12	A-AC13	A-AC14	A-AC15	A-AC16	A-DC1	A-DC2	A-DC3	A-DC4	A-DC5	A-DC6	A-DC7	A-DC8	A-DC9	A-DC10	A-DC11	A-DC12	A-DC13	A-DC14	A-DC15	A-DC16	A-Ph1	A-Ph2	A-Ph3	A-Ph4	A-Ph5	A-Ph6	A-Ph7	A-Ph8	A-Ph9	A-Ph10	A-Ph11	A-Ph12	A-Ph13	A-Ph14	A-Ph15	A-Ph16	B-AC1	B-AC2	B-AC3	B-AC4	B-AC5	B-AC6	B-AC7	B-AC8	B-AC9	B-AC10	B-AC11	B-AC12	B-AC13	B-AC14	B-AC15	B-AC16	B-DC1	B-DC2	B-DC3	B-DC4	B-DC5	B-DC6	B-DC7	B-DC8	B-DC9	B-DC10	B-DC11	B-DC12	B-DC13	B-DC14	B-DC15	B-DC16	B-Ph1	B-Ph2	B-Ph3	B-Ph4	B-Ph5	B-Ph6	B-Ph7	B-Ph8	B-Ph9	B-Ph10	B-Ph11	B-Ph12	B-Ph13	B-Ph14	B-Ph15	B-Ph16	aux-1	digaux	

866.149	1	1	0	256	0.11411	0.09546	0.18486	0.23928	0.27064	0.17769	0.23318	0.25376	0.36646	0.051184	0.053676	0.10772	0.12427	0.1166	0.097356	0.30431	-1.7396	-2.8458	-1.8021	-2.5312	-2.45	-1.7458	-2.7812	-2.25	-2.1875	-2.6229	-1.85	-2.5833	-2.6146	-1.8062	-2.6312	-2.1063	189.030	371.358	316.597	267.497	177.364	386.622	365.218	140.243	125.420	181.200	140.647	102.343	406.437	320.720	278.248	332.103	0.00034355	0.00050125	7.2206e-05	167.92	9.1014e-07	4.8141e-06	323.29	74.144	1.8675e-06	6.8551e-06	159.33	79.464	38.378	20.665	3.4232e-06	46.416	0.00038186	0.00035178	9.9936e-05	174.69	3.8321e-06	4.0521e-06	322.72	75.105	3.916e-06	3.9158e-06	159.79	80.014	38.641	20.887	3.9391e-06	46.304	201.666	157.867	214.456	83.045	192.174	213.379	82.269	88.404	219.596	221.665	86.282	90.263	92.484	95.366	236.631	92.468	-8191	255	
866.245	1	1	0	0	0.10671	0.14498	0.069133	0.12488	0.13557	0.14909	0.048422	0.34058	0.071137	0.20154	0.16002	0.18652	0.3122	0.36016	0.15217	0.17832	-1.7313	-2.7729	-2.0687	-2.3771	-2.5375	-1.6187	-2.7313	-2.3104	-1.9979	-2.6396	-1.9937	-2.1917	-2.5708	-1.6833	-2.5875	-2.4083	219.397	81.981	90.513	387.921	153.356	394.794	212.653	304.046	181.104	358.359	77.929	406.693	387.903	342.258	362.001	228.282	0.00033368	0.00020764	9.9352e-05	168.78	2.4887e-06	2.5593e-06	323.18	74.623	2.4578e-06	5.9551e-06	161.32	79.952	38.411	20.641	4.5344e-06	46.288	0.00037518	0.00035521	9.8298e-05	174.89	3.7188e-06	3.9435e-06	322.05	75.749	3.7374e-06	3.7746e-06	160.6	80.225	38.633	20.81	3.7931e-06	46.388	200.498	170.230	184.985	82.870	314.439	246.811	83.083	88.696	259.247	241.860	86.637	90.382	92.719	95.633	226.376	92.609	-8191	255	
866.343	1	1	0	0	0.10079	0.3144	0.15172	0.093064	0.038943	0.27932	0.2642	0.23801	0.093737	0.16949	0.096296	0.14206	0.10609	0.19324	0.16132	0.22795	-1.4104	-2.8708	-1.95	-2.1437	-2.7958	-1.675	-2.6875	-2.4375	-1.9604	-2.6479	-2.1833	-2.1354	-2.9583	-1.8417	-2.4792	-2.6562	83.640	305.811	217.122	350.095	307.673	268.687	383.753	86.763	91.831	306.823	128.673	87.092	335.195	139.453	371.402	81.708	0.00035246	0.00026493	7.9491e-05	168.94	2.7748e-06	3.6918e-06	324.22	75.366	9.3012e-07	3.2794e-06	159.58	80.149	38.507	20.859	5.7479e-07	46.426	0.00036914	0.00033859	9.3923e-05	174.91	3.6639e-06	3.8534e-06	322.88	75.954	3.7244e-06	3.675e-06	160.35	80.37	38.866	20.936	3.7605e-06	46.536	198.849	120.538	155.836	82.406	167.134	233.206	82.459	88.123	207.298	194.375	86.296	90.369	93.056	95.441	153.790	92.823	-8191	255	
866.462	1	1	0	0	0.11686	0.12505	0.2205	0.15037	0.41493	0.10859	0.13126	0.077475	0.24374	0.11528	0.12741	0.14052	0.11694	0.28185	0.2556	0.12307	-1.5125	-2.6542	-2.1208	-2.05	-2.9333	-1.6292	-2.4208	-2.5771	-1.8146	-2.4979	-2.2438	-2.1792	-2.9083	-1.8188	-2.3083	-2.8354	427.048	227.763	320.890	308.086	94.601	180.633	394.471	204.271	143.067	191.727	106.795	142.734	106.019	384.275	163.799	117.072	0.00035569	0.00016771	4.3668e-05	169.02	3.8706e-06	7.5243e-06	322.12	75.291	2.1388e-06	3.3206e-06	160.59	79.189	38.202	20.739	2.885e-06	46.211	0.0003698	0.00034784	9.8742e-05	174.38	3.6045e-06	3.803e-06	322.19	75.782	3.6788e-06	3.675e-06	160.21	80.138	38.602	20.937	3.8712e-06	46.33	196.576	93.602	204.684	83.451	255.620	218.255	82.978	88.491	267.087	257.463	86.824	90.570	92.715	95.711	235.274	92.932	-8191	255	
866.534	1	1	0	0	0.39742	0.19	0.054298	0.19296	0.10444	0.14627	0.38803	0.12828	0.31247	0.13596	0.074859	0.25771	0.1729	0.18657	0.10026	0.25063	-1.3479	-2.6229	-2.5083	-1.8542	-2.7438	-1.9438	-2.2646	-2.7604	-1.7354	-2.6354	-2.4188	-1.9146	-2.8042	-2.25	-2.0417	-2.8146	386.959	238.074	409.885	430.257	199.477	192.223	375.602	81.289	273.476	117.239	316.675	371.116	99.848	72.372	163.139	85.283	0.00034425	0.00045487	7.5229e-05	169.26	2.4455e-06	4.9365e-06	321.98	75.349	1.7618e-06	2.8929e-06	159.81	80.355	38.622	20.804	3.4168e-06	46.474	0.00036978	0.00034696	9.5909e-05	174.76	3.67e-06	3.8219e-06	321.52	76.02	3.6681e-06	3.744e-06	159.68	80.363	38.791	20.953	3.8361e-06	46.459	201.434	168.157	142.511	83.427	228.733	222.262	82.558	88.597	210.344	237.652	86.262	90.364	92.646	95.465	221.748	92.887	-8191	255	
866.655	1	1	0	0	0.21756	0.14709	0.030378	0.095448	0.18792	0.024581	0.12597	0.17692	0.14968	0.37026	0.38831	0.19193	0.19472	0.12283	0.15902	0.10136	-1.225	-2.6458	-2.4229	-1.7062	-2.8146	-1.9813	-2.1542	-2.8875	-1.7042	-2.4979	-2.5979	-1.8062	-2.6792	-2.1646	-1.9771	-3.0333	269.749	196.168	410.815	281.145	310.657	357.488	205.370	305.449	156.884	372.347	410.510	136.586	134.602	397.325	317.888	156.453	0.00033492	0.00017242	8.9837e-05	171.39	3.7207e-06	3.5745e-06	322.22	75.252	3.3874e-06	5.3469e-06	159.49	79.836	38.911	20.762	3.5278e-06	46.459	0.00037307	0.00035393	9.7193e-05	174.48	3.7813e-06	3.9887e-06	322.12	76.115	3.8643e-06	3.8415e-06	159.96	80.236	38.921	20.952	3.8644e-06	46.563	204.272	127.608	208.311	83.471	259.111	215.176	82.913	88.654	230.242	208.785	86.463	90.369	92.381	95.701	183.089	93.127	-8191	255	
866.751	1	1	0	0	0.19963	0.20293	0.26961	0.27598	0.18807	0.093992	0.1534	0.049131	0.10145	0.14752	0.14683	0.26976	0.14121	0.29319	0.14075	0.10787	-1.5354	-2.4	-2.5833	-1.6417	-2.6542	-2.35	-1.9375	-3.0125	-1.8042	-2.5229	-2.8	-1.9188	-2.575	-2.2542	-1.4979	-3.0479	286.642	164.078	402.803	287.258	266.191	191.780	287.873	420.896	271.315	250.651	398.386	346.395	409.354	306.220	213.201	248.547	0.00034178	0.00024756	0.00011851	167.38	2.4399e-06	4.224e-06	320.82	75.369	2.5693e-06	3.061e-06	160.54	79.703	38.374	20.566	2.6119e-06	46.478	0.00037033	0.00036172	9.7633e-05	174.35	3.7451e-06	3.8866e-06	321.62	76.041	3.8594e-06	3.8957e-06	160.26	80.114	38.746	20.915	3.9389e-06	46.399	199.451	156.186	188.485	83.125	212.468	190.317	82.764	88.322	234.050	151.705	86.282	90.770	92.417	95.694	225.910	92.878	-8191	255	
866.847	1	1	0	0	0.25124	0.32183	0.1321	0.20998	0.25505	0.24656	0.24747	0.26162	0.02539	0.10749	0.15897	0.12915	0.28774	0.21937	0.27437	0.070894	-1.5229	-2.175	-2.575	-1.9521	-2.6833	-2.2542	-2.0667	-2.6875	-2.1125	-2.0833	-2.8688	-1.9417	-2.4729	-2.5292	-1.9083	-2.7938	212.278	108.432	424.680	259.811	109.452	113.900	295.187	429.193	231.947	204.171	103.480	364.223	392.068	248.000	174.974	200.162	0.00034595	0.00035053	0.00010202	169.09	3.4457e-06	2.9803e-06	322.4	74.533	7.6184e-07	1.2589e-06	157.52	78.92	38.329	20.652	2.8539e-06	46.049	0.00038215	0.00036427	9.8616e-05	174.3	3.8647e-06	3.8984e-06	320.52	75.471	3.7959e-06	3.9653e-06	158.29	79.49	38.582	20.777	3.8458e-06	45.993	200.917	159.519	174.012	82.674	240.588	179.015	83.087	88.180	234.638	239.268	86.499	90.545	93.175	95.930	240.198	93.146	-8191	255	
866.943	1	1	0	0	0.22505	0.11126	0.093479	0.11353	0.17651	0.15889	0.13391	0.092101	0.049406	0.12372	0.20522	0.28798	0.17244	0.13244	0.064916	0.014895	-1.8375	-2.1104	-2.8521	-1.6437	-2.3438	-2.4625	-2.0812	-2.6562	-2.2396	-2.175	-2.7354	-2.1063	-2.3792	-2.625	-1.7396	-2.6854	373.013	155.994	307.537	349.040	294.558	254.738	325.682	139.183	246.316	94.507	108.610	369.156	329.913	90.833	212.079	259.675	0.00036238	0.00024737	0.0001173	167.04	2.5428e-06	2.7052e-06	322.29	74.532	2.3793e-06	3.6274e-06	158.89	78.997	37.706	20.545	2.1398e-06	45.715	0.00038018	0.00036541	9.8447e-05	173.2	4.0221e-06	4.0003e-06	319.52	75.282	3.8601e-06	3.9911e-06	158.04	79.434	38.388	20.786	4.0321e-06	45.822	198.969	196.295	166.009	83.312	239.226	229.542	82.603	88.074	255.869	211.893	86.467	90.472	92.875	95.599	235.973	93.107	-8191	255	
867.064	1	1	0	0	0.12071	0.095518	0.1183	0.065916	0.051517	0.21981	0.30641	0.12082	0.22347	0.18364	0.073545	0.1306	0.19353	0.29555	0.10973	0.28746	-1.7313	-1.9146	-2.7646	-1.9542	-2.2896	-2.6396	-1.7938	-2.9062	-2.3417	-2.0354	-3.0062	-2.1396	-2.4021	-2.5979	-1.9271	-2.7417	302.971	168.706	76.969	402.449	258.175	98.051	299.245	339.065	249.769	147.708	137.459	197.986	81.873	333.827	262.191	289.306	0.00034996	0.0001519	7.5448e-05	167.02	1.7564e-06	4.4572e-06	321.65	74.252	7.773e-07	3.241e-06	158.71	79.298	38.066	20.7	2.3873e-06	46.088	0.00036776	0.00036429	0.00010159	173.49	3.9256e-06	4.0002e-06	319.65	75.283	3.8974e-06	4.0893e-06	158.67	79.493	38.564	20.957	3.9704e-06	46.233	199.616	179.161	199.946	83.648	277.391	236.970	82.179	88.276	188.824	221.589	86.823	90.379	92.823	95.628	225.792	93.207	-8191	255	
867.135	1	1	0	0	0.16465	0.19933	0.096308	0.12397	0.0041176	0.11603	0.41265	0.078724	0.084784	0.13358	0.198	0.24477	0.063942	0.076728	0.30942	0.45308	-2.2521	-1.8625	-2.8729	-2.0062	-2.3271	-2.7062	-1.8167	-2.8187	-2.3396	-1.8375	-2.7479	-2.0896	-1.9667	-2.875	-1.8625	-2.4708	256.454	264.379	227.144	172.391	171.317	404.656	169.477	160.679	268.919	239.973	280.506	338.372	428.981	244.526	407.039	380.746	0.00034204	0.00028653	7.2183e-05	170.73	4.0554e-06	4.4763e-06	325.08	75.299	2.2088e-06	3.4091e-06	160.17	80.437	38.471	21.008	4.3909e-06	46.802	0.00037366	0.0003642	0.00010022	173.89	3.8422e-06	3.847e-06	321.98	76.11	3.8931e-06	3.9152e-06	160.36	80.804	38.97	21.182	3.7929e-06	47.07	208.474	165.567	173.898	82.909	213.189	250.669	82.662	89.071	218.690	191.302	86.969	90.410	92.886	95.881	199.670	93.304	-8191	255	
867.230	1	1	0	0	0.24774	0.36983	0.13466	0.060629	0.27853	0.12072	0.14382	0.16786	0.085763	0.097672	0.15463	0.067546	0.24441	0.2287	0.44239	0.22558	-2.0812	-1.8083	-2.6063	-2.1229	-1.8813	-2.8042	-1.8937	-2.1854	-2.5146	-1.6833	-2.8417	-2.3021	-1.8604	-2.8833	-1.7542	-2.2521	127.183	234.388	98.146	120.033	292.512	392.090	417.948	427.216	392.067	183.684	421.712	162.657	386.732	143.771	276.391	391.633	0.000362	0.00014049	8.06e-05	172.49	1.9244e-06	3.537e-06	325.34	76.485	9.5941e-07	2.6688e-06	160.34	81.002	39.235	21.165	1.3934e-06	46.973	0.00037192	0.00035819	9.7107e-05	174.67	3.8038e-06	3.921e-06	323.39	76.871	3.6726e-06	3.9079e-06	160.43	81.277	39.41	21.307	3.916e-06	47.065	196.084	166.868	115.875	82.692	212.492	192.244	82.774	88.763	222.791	245.843	86.553	90.505	92.733	95.914	197.492	93.453	-8191	255	
867.326	1	1	0	0	0.10391	0.078645	0.21699	0.18264	0.074581	0.25782	0.2422	0.11377	0.11388	0.078791	0.0313	0.044027	0.18057	0.27704	0.23335	0.25895	-2.1125	-1.8188	-2.5458	-2.4771	-1.8729	-2.85	-2.2083	-2.1646	-2.8125	-1.8667	-2.5708	-2.4188	-1.9292	-2.8146	-2.0917	-2.3229	107.911	259.792	402.707	159.446	421.329	354.693	323.047	189.177	425.561	272.390	349.163	388.982	99.520	420.596	210.639	72.259	0.00039504	0.00037118	9.9254e-05	171.7	1.3293e-06	2.2151e-06	323.14	76.511	1.9839e-06	4.6027e-06	161.79	81.796	39.23	21.35	3.4595e-06	47.548	0.00036876	0.00035238	9.6666e-05	175.12	3.7048e-06	3.9166e-06	322.58	77.273	3.6019e-06	3.7914e-06	162.01	81.659	39.584	21.447	3.7276e-06	47.486	201.669	124.556	164.627	82.786	251.649	183.954	83.038	88.796	323.744	266.706	86.328	90.177	92.874	96.124	235.625	93.367	-8191	255	
867.446	1	1	0	0	0.052245	0.26606	0.22574	0.18305	0.28646	0.26881	0.061418	0.096644	0.18388	0.30525	0.28158	0.092587	0.17063	0.14614	0.15397	0.29146	-2.4479	-1.9604	-2.3167	-2.575	-1.7958	-2.6167	-2.0958	-2.1396	-2.6417	-1.9167	-2.325	-2.6937	-1.8312	-2.7708	-2.2208	-2.0021	154.563	285.595	381.944	313.795	246.526	312.576	275.897	79.449	232.971	143.082	71.904	328.342	118.625	113.458	94.155	377.912	0.00033926	0.00037733	6.9438e-05	169.32	1.9299e-06	7.6716e-07	325.6	77.014	2.1591e-06	1.6723e-06	161.65	81.085	38.969	21.306	2.8904e-06	47.596	0.00036173	0.00034607	9.7345e-05	175.87	3.7249e-06	3.808e-06	324.25	77.522	3.7751e-06	3.961e-06	162.14	81.611	39.471	21.468	3.8375e-06	47.549	201.506	162.127	198.630	83.812	286.310	183.424	82.675	88.385	244.100	132.383	87.132	90.467	92.707	95.810	205.676	92.996	-8191	255	
867.541	1	1	0	0	0.11009	0.12722	0.19599	0.2651	0.24605	0.2678	0.23021	0.27206	0.47854	0.22725	0.14988	0.29226	0.46047	0.063676	0.085149	0.18216	-2.4396	-1.8917	-2.0896	-2.7208	-1.7021	-2.7042	-2.2	-1.9542	-2.7708	-2.0729	-2.2875	-2.6333	-1.9042	-2.6063	-2.3646	-2.1042	281.589	171.558	79.479	120.475	266.596	300.246	198.273	355.542	280.046	146.440	248.728	422.048	403.779	152.168	233.041	206.954	0.00035533	0.00026352	5.043e-05	171.76	3.3666e-06	5.0852e-06	325.95	77.041	2.0199e-06	3.3685e-06	162.34	81.933	39.446	21.296	2.3511e-06	47.474	0.00036414	0.00035879	9.8066e-05	175.78	3.8112e-06	3.918e-06	324.7	77.491	3.7598e-06	3.9712e-06	162.66	82.075	39.657	21.502	3.8948e-06	47.706	199.100	133.706	221.648	82.827	203.029	240.770	82.795	89.120	259.766	228.170	86.446	90.542	92.767	95.931	272.020	93.214	-8191	255	
867.637	1	1	0	0	0.13546	0.078713	0.3253	0.087354	0.168	0.057755	0.13315	0.038711	0.086354	0.26574	0.053523	0.21041	0.073226	0.23205	0.13986	0.020913	-2.4521	-1.9333	-2.3646	-2.6958	-1.8771	-2.6896	-2.5771	-1.9438	-2.8771	-2.1521	-2.1604	-2.7167	-1.8875	-2.3812	-2.5625	-1.8813	118.591	366.803	99.597	197.615	79.176	263.631	425.225	385.672	377.537	375.751	360.361	402.805	290.267	427.451	132.080	397.108	0.00038119	0.00055195	6.6296e-05	172.73	3.8039e-06	2.5509e-06	325.94	76.726	1.0366e-06	5.0501e-06	161.56	81.131	39.255	21.314	1.8722e-06	47.47	0.00038051	0.00035203	9.8063e-05	176.91	3.8242e-06	3.8908e-06	324.85	77.492	3.7974e-06	3.9271e-06	161.96	81.625	39.681	21.468	3.7129e-06	47.422	198.960	181.496	235.482	83.282	191.153	193.475	83.049	88.491	213.532	250.039	86.751	90.351	92.661	95.764	207.868	93.172	-8191	255	
867.735	1	1	0	0	0.16726	0.072869	0.15695	0.14266	0.066645	0.1053	0.30017	0.084081	0.1713	0.075258	0.21904	0.03985	0.16344	0.14317	0.12365	0.42492	-2.4062	-2.1312	-1.9083	-2.6458	-1.8958	-2.1604	-2.4938	-1.7458	-2.6188	-1.975	-2.0896	-2.8958	-2.0896	-2.3979	-2.6271	-2.0333	212.650	245.620	415.552	89.536	366.278	327.532	174.909	414.567	187.489	419.745	95.086	365.076	343.822	136.000	115.940	346.383	0.0003526	0.00015366	9.4121e-05	172.37	1.8825e-06	4.1471e-06	325.67	76.534	1.4353e-06	2.2414e-06	162.57	80.926	39.168	21.227	3.3408e-06	46.932	0.00037358	0.00034725	9.707e-05	175.92	3.8202e-06	3.9038e-06	324.11	77.259	3.6945e-06	3.9064e-06	161.95	81.304	39.412	21.385	3.8197e-06	47.119	199.772	251.917	182.753	83.056	244.622	224.870	82.457	88.500	241.996	209.092	86.352	90.222	92.938	95.712	217.205	92.866	-8191	255	
867.829	1	1	0	0	0.14973	0.039741	0.25509	0.14451	0.30019	0.067181	0.028294	0.12534	0.13714	0.35667	0.10998	0.16156	0.27594	0.10892	0.18573	0.27257	-2.2979	-2.3104	-1.7229	-2.7042	-1.8396	-2.0896	-2.9729	-1.8104	-2.55	-2.2938	-1.8438	-2.85	-1.8708	-2.2979	-2.5687	-1.8604	336.323	93.717	206.161	251.867	212.811	229.987	419.104	331.954	383.260	233.929	419.219	346.196	159.711	226.528	412.046	394.657	0.00035992	0.00056149	0.00011189	169.18	4.9619e-06	2.3696e-06	321.99	75.923	2.7891e-06	4.3384e-06	161.28	81.521	39.261	21.226	3.6329e-06	47.198	0.0003729	0.00035677	9.8169e-05	174.63	3.8458e-06	3.9862e-06	322.26	77.035	3.8091e-06	3.8144e-06	161.62	81.63	39.525	21.394	3.8348e-06	47.326	200.225	162.846	148.946	83.187	186.677	417.410	82.352	88.015	225.986	256.822	86.731	90.476	92.448	95.363	227.619	93.205	-8191	255	
