BOXY.EXE: ISS Imagent and Oximeter Data Acquisition Program Version 0.80
Ascii Record File

#ACQ INFORMATION
2  Detector Channels 
16  External MUX Channels 
1  Auxiliary Channels 
5000  Waveform (CCF) Frequency (Hz)
1  Waveforms Skipped 
30  Waveforms Averaged 
1  Cycles Averaged 
16  Acquisitions per Waveform 
10.0806  Updata Rate (Hz) 

#FILE INFORMATION
TRUE -- External MUX Channel results are PARSED.
FALSE -- AC DC and Phase are NOT grouped.
TRUE -- Companion Program Settings File CREATED.
FALSE -- AC data not excluded
FALSE -- DC data not excluded
FALSE -- Phase data not excluded
FALSE -- Auxillary Chn. data not excluded
Tab delimiters

#CALIBRATION STATE
TRUE -- Waveform Calibration Values APPLIED.


#AUX CALIBRATION VALUES
Val Type	aux-1	

Term	1.0000e+00	
Factor	0.0000e+00	


#WF CALIBRATION VALUES
A = Detector Channel
Val Type	A-AC1	A-AC2	A-AC3	A-AC4	A-AC5	A-AC6	A-AC7	A-AC8	A-AC9	A-AC10	A-AC11	A-AC12	A-AC13	A-AC14	A-AC15	A-AC16	A-DC1	A-DC2	A-DC3	A-DC4	A-DC5	A-DC6	A-DC7	A-DC8	A-DC9	A-DC10	A-DC11	A-DC12	A-DC13	A-DC14	A-DC15	A-DC16	A-Ph1	A-Ph2	A-Ph3	A-Ph4	A-Ph5	A-Ph6	A-Ph7	A-Ph8	A-Ph9	A-Ph10	A-Ph11	A-Ph12	A-Ph13	A-Ph14	A-Ph15	A-Ph16	

Term	0.00000e+00	0.00000e+00	0.00000e+00	0.00000e+00	0.00000e+00	0.00000e+00	0.00000e+00	0.00000e+00	0.00000e+00	0.00000e+00	0.00000e+00	0.00000e+00	0.00000e+00	0.00000e+00	0.00000e+00	0.00000e+00	0.00000e+00	0.00000e+00	0.00000e+00	0.00000e+00	0.00000e+00	0.00000e+00	0.00000e+00	0.00000e+00	0.00000e+00	0.00000e+00	0.00000e+00	0.00000e+00	0.00000e+00	0.00000e+00	0.00000e+00	0.00000e+00	0.00000e+00	0.00000e+00	0.00000e+00	0.00000e+00	0.00000e+00	0.00000e+00	0.00000e+00	0.00000e+00	0.00000e+00	0.00000e+00	0.00000e+00	0.00000e+00	0.00000e+00	0.00000e+00	0.00000e+00	0.00000e+00	
Factor	1.00000e+00	1.00000e+00	1.00000e+00	1.00000e+00	1.00000e+00	1.00000e+00	1.00000e+00	1.00000e+00	1.00000e+00	1.00000e+00	1.00000e+00	1.00000e+00	1.00000e+00	1.00000e+00	1.00000e+00	1.00000e+00	1.00000e+00	1.00000e+00	1.00000e+00	1.00000e+00	1.00000e+00	1.00000e+00	1.00000e+00	1.00000e+00	1.00000e+00	1.00000e+00	1.00000e+00	1.00000e+00	1.00000e+00	1.00000e+00	1.00000e+00	1.00000e+00	X	X	X	X	X	X	X	X	X	X	X	X	X	X	X	X	

B = Detector Channel
Val Type	B-AC1	B-AC2	B-AC3	B-AC4	B-AC5	B-AC6	B-AC7	B-AC8	B-AC9	B-AC10	B-AC11	B-AC12	B-AC13	B-AC14	B-AC15	B-AC16	B-DC1	B-DC2	B-DC3	B-DC4	B-DC5	B-DC6	B-DC7	B-DC8	B-DC9	B-DC10	B-DC11	B-DC12	B-DC13	B-DC14	B-DC15	B-DC16	B-Ph1	B-Ph2	B-Ph3	B-Ph4	B-Ph5	B-Ph6	B-Ph7	B-Ph8	B-Ph9	B-Ph10	B-Ph11	B-Ph12	B-Ph13	B-Ph14	B-Ph15	B-Ph16	

Term	0.00000e+00	0.00000e+00	0.00000e+00	0.00000e+00	0.00000e+00	0.00000e+00	0.00000e+00	0.00000e+00	0.00000e+00	0.00000e+00	0.00000e+00	0.00000e+00	0.00000e+00	0.00000e+00	0.00000e+00	0.00000e+00	0.00000e+00	0.00000e+00	0.00000e+00	0.00000e+00	0.00000e+00	0.00000e+00	0.00000e+00	0.00000e+00	0.00000e+00	0.00000e+00	0.00000e+00	0.00000e+00	0.00000e+00	0.00000e+00	0.00000e+00	0.00000e+00	-9.16924e+01	-1.29767e+02	-1.18293e+02	-1.86930e+02	-6.15527e+01	-7.43525e+01	-1.57927e+02	-1.62015e+02	-5.46448e+01	-6.47678e+01	-1.74803e+02	-1.71738e+02	-1.79902e+02	-1.78143e+02	-6.55759e+01	-1.51148e+02	
Factor	1.34725e-05	1.20035e-04	3.44946e-05	2.75324e-01	1.14839e-06	1.47898e-06	1.54831e-01	4.40518e-02	8.52034e-07	1.53134e-06	8.28116e-02	2.37421e-02	1.84838e-02	7.33700e-03	1.05337e-06	1.06775e-02	4.48628e-06	5.69377e-06	1.58866e-06	1.45487e-01	6.13995e-08	6.28015e-08	7.73109e-02	2.36346e-02	6.06459e-08	6.30374e-08	4.27097e-02	1.23527e-02	1.00779e-02	3.96030e-03	6.13034e-08	5.55185e-03	X	X	X	X	X	X	X	X	X	X	X	X	X	X	X	X	



#DISTANCE SETTINGS
A = Detector Channel
A-1	A-2	A-3	A-4	A-5	A-6	A-7	A-8	A-9	A-10	A-11	A-12	A-13	A-14	A-15	A-16	

2.5000e+00	3.0000e+00	2.5000e+00	3.0000e+00	2.0000e+00	3.0000e+00	1.5000e+00	3.0000e+00	3.0000e+00	3.0000e+00	3.0000e+00	3.0000e+00	3.0000e+00	3.0000e+00	1.5000e+00	3.0000e+00	

B = Detector Channel
B-1	B-2	B-3	B-4	B-5	B-6	B-7	B-8	B-9	B-10	B-11	B-12	B-13	B-14	B-15	B-16	

1.0000e+01	1.0000e+01	1.0000e+01	1.4400e+00	1.0000e+01	1.0000e+01	1.5100e+00	1.9400e+00	1.0000e+01	1.0000e+01	1.9900e+00	2.4900e+00	2.4100e+00	2.9000e+00	1.0000e+01	2.9800e+00	




#DATA BEGINS
time	group	step	mark	flag	A-AC1	A-AC2	A-AC3	A-AC4	A-AC5	A-AC6	A-AC7	A-AC8	A-AC9	A-AC10	A-AC11	A-AC12	A-AC13	A-AC14	A-AC15	A-AC16	A-DC1	A-DC2	A-DC3	A-DC4	A-DC5	A-DC6	A-DC7	A-DC8	A-DC9	A-DC10	A-DC11	A-DC12	A-DC13	A-DC14	A-DC15	A-DC16	A-Ph1	A-Ph2	A-Ph3	A-Ph4	A-Ph5	A-Ph6	A-Ph7	A-Ph8	A-Ph9	A-Ph10	A-Ph11	A-Ph12	A-Ph13	A-Ph14	A-Ph15	A-Ph16	B-AC1	B-AC2	B-AC3	B-AC4	B-AC5	B-AC6	B-AC7	B-AC8	B-AC9	B-AC10	B-AC11	B-AC12	B-AC13	B-AC14	B-AC15	B-AC16	B-DC1	B-DC2	B-DC3	B-DC4	B-DC5	B-DC6	B-DC7	B-DC8	B-DC9	B-DC10	B-DC11	B-DC12	B-DC13	B-DC14	B-DC15	B-DC16	B-Ph1	B-Ph2	B-Ph3	B-Ph4	B-Ph5	B-Ph6	B-Ph7	B-Ph8	B-Ph9	B-Ph10	B-Ph11	B-Ph12	B-Ph13	B-Ph14	B-Ph15	B-Ph16	aux-1	digaux	

896.809	1	1	0	256	0.23217	0.37151	0.088403	0.13814	0.25866	0.17143	0.20901	0.26919	0.19041	0.26712	0.10785	0.27717	0.069205	0.078221	0.24322	0.037666	-1.5875	-2.6729	-2.5708	-1.8563	-2.775	-2.3146	-2.3292	-3.0062	-1.7333	-2.5229	-2.675	-1.8271	-2.9208	-2.2562	-2.0938	-3.0146	89.035	348.773	259.676	257.253	147.248	172.183	172.744	324.844	205.296	250.321	425.520	364.440	91.088	88.947	313.698	108.681	0.00028061	0.00041689	0.00015344	175.17	6.0508e-06	3.102e-06	318.42	72.557	1.8533e-06	3.3272e-06	148.13	65.805	29.385	14.871	2.319e-06	36.316	0.0004915	0.00053065	0.00014373	185.76	5.655e-06	5.6271e-06	321.23	73.336	5.4551e-06	5.5441e-06	149.2	66.614	29.863	15.153	5.5863e-06	36.529	203.950	150.189	105.840	83.324	314.154	338.810	82.918	89.018	221.301	244.416	87.095	91.017	93.894	96.916	251.983	93.666	-8191	255	
896.905	1	1	0	0	0.13193	0.37927	0.16508	0.074643	0.15386	0.28859	0.16491	0.084015	0.16649	0.19291	0.13214	0.20322	0.37446	0.16605	0.19693	0.082865	-1.5083	-2.6333	-2.5646	-1.9708	-2.775	-2.2625	-2.0979	-2.6958	-1.8271	-2.5271	-2.7042	-2.05	-2.7729	-2.4562	-1.9688	-3.1625	253.196	209.206	171.389	87.948	72.871	236.056	403.222	91.277	393.149	400.816	190.580	284.986	342.899	99.218	323.181	273.898	0.00027107	0.00016693	5.855e-05	171.81	3.8144e-06	3.6186e-06	321.51	72.488	1.1619e-06	4.9935e-06	146.46	64.98	29.296	14.911	5.518e-06	35.89	0.00048017	0.00049856	0.00013661	183.08	5.2531e-06	5.3969e-06	322.69	73.495	5.2081e-06	5.1977e-06	148.14	65.961	29.905	15.129	5.0935e-06	36.297	204.425	378.607	167.373	83.248	234.391	268.619	82.938	89.707	247.536	237.901	87.418	91.101	93.386	96.407	242.838	93.898	-8191	255	
897.001	1	1	0	0	0.028032	0.28644	0.19859	0.28361	0.075634	0.11769	0.21663	0.33286	0.20099	0.052815	0.24363	0.2567	0.10382	0.020881	0.15855	0.10159	-1.6604	-2.2667	-2.775	-1.7542	-2.9167	-2.4188	-2.0604	-2.7917	-2.0146	-2.2062	-2.7979	-1.9729	-2.8208	-2.5083	-1.9813	-3.0312	353.983	92.252	264.856	279.713	340.677	356.368	282.301	366.541	295.290	377.965	350.992	369.318	108.057	349.037	201.441	87.507	0.00025751	0.000327	0.00012773	176.85	2.5482e-06	7.4923e-07	322.69	72.989	2.8847e-06	1.3525e-06	148.06	66.374	30.037	15.301	2.2638e-06	37.141	0.00043498	0.00046516	0.0001271	184.16	4.8297e-06	4.9434e-06	322.58	74.101	4.6157e-06	4.789e-06	149.46	66.964	30.521	15.56	4.4795e-06	37.211	199.697	127.402	183.530	83.486	182.217	323.632	82.698	89.093	214.085	192.592	86.974	90.845	94.041	96.589	252.881	94.116	-8191	255	
897.097	1	1	0	0	0.10476	0.20349	0.11304	0.14754	0.13169	0.15513	0.35483	0.18979	0.12763	0.15745	0.059744	0.12123	0.084758	0.25168	0.083281	0.29239	-1.8792	-2.15	-2.8542	-2.0542	-2.5812	-2.7604	-1.7854	-2.8208	-2.2667	-1.9937	-2.925	-1.9667	-2.4667	-2.6458	-1.8563	-2.7979	178.424	203.056	122.587	287.225	357.211	176.223	111.610	283.966	170.127	408.112	343.006	223.221	156.523	330.319	72.502	116.777	0.00030331	0.00029418	9.2e-05	178.36	3.0498e-06	3.7528e-06	328.02	74.272	1.0785e-06	3.1674e-06	152.05	67.861	30.495	15.355	3.8843e-06	37.552	0.00040913	0.00040171	0.00011114	185.94	4.3526e-06	4.3668e-06	327.89	75.375	4.2664e-06	4.4121e-06	151.78	68.087	30.915	15.686	4.4545e-06	37.717	199.022	142.423	153.963	82.991	203.912	246.442	82.419	88.857	250.423	142.558	86.645	91.111	94.248	96.880	233.823	93.967	-8191	255	
897.218	1	1	0	0	0.10246	0.22562	0.091217	0.17185	0.10833	0.16012	0.16467	0.055002	0.11627	0.10879	0.18605	0.061578	0.23589	0.42383	0.0092124	0.28784	-2.075	-2.2396	-3.0208	-1.975	-2.6521	-2.6875	-1.7979	-2.7875	-2.2333	-1.9292	-2.7833	-2.2562	-2.4521	-2.9854	-1.9833	-2.7375	151.457	125.145	366.995	175.426	371.248	219.393	226.618	345.504	158.337	317.099	392.757	353.079	375.296	186.280	261.662	388.155	0.00026449	0.00028843	0.0001397	182.18	1.6457e-06	2.6426e-06	328.32	74.656	2.1503e-06	4.0331e-06	152.57	67.359	30.473	15.628	9.1857e-07	38.066	0.00039455	0.00041191	0.00011103	188.34	4.3247e-06	4.4105e-06	330.32	75.774	4.2399e-06	4.4431e-06	153.26	68.139	30.982	15.905	4.2751e-06	38.062	200.210	409.005	184.571	82.705	278.585	163.846	83.220	89.212	288.217	123.623	87.107	91.166	94.183	96.583	373.367	94.047	-8191	255	
897.314	1	1	0	0	0.083705	0.093034	0.062083	0.21542	0.040664	0.1266	0.09764	0.19521	0.24135	0.20698	0.18054	0.10229	0.24603	0.099992	0.32151	0.28098	-2.1583	-1.9312	-2.975	-2.0521	-2.35	-2.8104	-1.7938	-2.6792	-2.5646	-2.0771	-2.8458	-2.1646	-2.3438	-2.8354	-1.8667	-2.5271	145.280	426.733	199.797	333.564	302.347	319.825	135.565	290.320	334.476	211.331	262.611	364.302	336.423	101.007	373.316	353.494	0.00026666	0.000198	9.9716e-05	179.23	1.8623e-06	3.4587e-06	326.65	74.433	1.8136e-06	1.6533e-06	150.8	66.356	29.995	15.49	2.6314e-06	37.065	0.00038551	0.00040092	0.0001093	186.12	4.345e-06	4.321e-06	327.99	75.553	4.2628e-06	4.5089e-06	151.02	66.879	30.576	15.723	4.5448e-06	37.166	200.005	215.578	193.894	84.400	309.946	277.634	82.887	89.322	182.329	119.323	87.266	91.007	93.895	96.758	156.549	94.088	-8191	255	
897.409	1	1	0	0	0.12539	0.31352	0.13263	0.048384	0.139	0.020787	0.18427	0.14667	0.25579	0.12761	0.14252	0.19176	0.11277	0.050802	0.17885	0.16024	-2.1875	-1.7167	-2.7146	-2.2188	-1.9167	-2.8438	-1.9833	-2.3187	-2.8021	-1.6146	-2.8563	-2.2979	-2.0708	-2.75	-2.1083	-2.5062	135.146	300.018	250.378	428.257	310.294	122.317	384.271	157.071	416.722	168.205	286.194	425.747	217.186	285.521	358.090	95.936	0.0003107	0.00023281	8.3253e-05	179.23	2.8763e-06	3.6262e-06	322.35	74.12	1.2765e-06	3.128e-06	148.66	66.177	30.272	15.477	1.2493e-06	36.884	0.00039818	0.00042086	0.00011548	185.13	4.5862e-06	4.6197e-06	323.35	74.854	4.3217e-06	4.5928e-06	149.42	66.613	30.612	15.755	4.6107e-06	37.11	201.930	99.207	110.442	83.499	256.251	178.770	82.845	89.679	266.803	127.844	86.709	90.963	94.164	96.815	239.747	93.711	-8191	255	
897.505	1	1	0	0	0.4226	0.04496	0.10471	0.13842	0.10828	0.10483	0.18138	0.091336	0.1304	0.1269	0.12718	0.16924	0.26168	0.28312	0.2871	0.23018	-2.3312	-1.7958	-2.6375	-2.4104	-2.2042	-2.8	-2.2104	-2.2042	-2.8583	-1.9104	-2.6625	-2.6021	-1.8875	-2.9625	-2.0375	-2.2208	145.315	114.984	205.269	278.461	116.858	225.742	326.256	155.404	384.241	172.404	211.180	341.391	403.648	317.302	357.349	410.126	0.0002709	0.00035915	9.7167e-05	177.83	1.3686e-06	2.2201e-06	323.93	73.544	2.9113e-06	3.3228e-06	149.45	66.164	30.288	15.639	2.6726e-06	36.996	0.00040038	0.00041477	0.00011655	185.42	4.5166e-06	4.4953e-06	323.6	74.879	4.3266e-06	4.54e-06	149.74	66.686	30.65	15.855	4.4663e-06	37.31	201.797	184.334	171.593	82.669	211.500	218.017	83.194	89.328	249.981	231.169	87.023	90.968	93.975	96.562	242.602	93.882	-8191	255	
897.625	1	1	0	0	0.18326	0.14731	0.09546	0.051443	0.17938	0.18021	0.17998	0.12686	0.13007	0.1448	0.10668	0.1505	0.080389	0.22574	0.096932	0.14261	-2.5333	-1.825	-2.5062	-2.6208	-1.7708	-2.8958	-2.2583	-2.0042	-2.9271	-1.7667	-2.7354	-2.5979	-2.0021	-2.8792	-2.3083	-2.2271	241.317	258.096	313.899	181.298	236.385	366.086	132.423	228.486	379.017	352.697	382.121	90.439	383.143	412.518	379.905	357.950	0.00029209	0.00016923	7.7387e-05	181.36	3.3062e-06	3.6671e-06	328.47	74.874	1.6797e-06	9.6993e-07	152.93	67.854	31.007	15.937	3.7194e-06	38.252	0.0003956	0.00041523	0.00011228	187.12	4.205e-06	4.305e-06	329.49	76.065	4.052e-06	4.2186e-06	153.39	68.295	31.362	16.218	4.0698e-06	38.314	202.686	284.597	209.225	83.670	240.762	171.389	82.818	89.771	237.741	165.813	87.401	91.331	93.992	96.771	209.048	94.217	-8191	255	
897.697	1	1	0	0	0.14953	0.13092	0.30241	0.11051	0.12684	0.16576	0.27428	0.31409	0.36316	0.22327	0.032259	0.2302	0.27611	0.18776	0.13107	0.37581	-2.5771	-1.9833	-2.5521	-2.5667	-1.7146	-2.7292	-2.3479	-2.1396	-3.1562	-1.7604	-2.4292	-2.9583	-1.8354	-2.8208	-2.2396	-2.0146	74.541	268.450	353.895	95.051	157.005	384.689	421.857	419.531	200.279	365.797	97.200	299.598	261.847	278.815	114.770	374.675	0.00032003	0.00039257	0.00010192	181.92	2.7459e-06	2.6715e-06	334.05	75.709	2.36e-06	5.082e-06	152.63	67.771	31	15.95	1.0855e-06	37.865	0.00037542	0.00037711	0.00010329	188.11	4.0471e-06	4.1117e-06	332.26	76.659	3.9645e-06	4.2239e-06	153.51	68.3	31.305	16.239	3.9947e-06	38.064	200.918	139.236	191.618	83.765	227.436	208.231	83.141	89.478	227.539	229.379	87.309	91.195	94.243	97.338	201.811	94.103	-8191	255	
897.818	1	1	0	0	0.11108	0.037282	0.12008	0.085172	0.13689	0.12039	0.1682	0.14783	0.23396	0.080404	0.46198	0.17882	0.24249	0.14956	0.062999	0.28964	-2.4042	-2.0125	-2.3125	-2.7958	-1.7563	-2.5229	-2.4958	-2.0438	-3.0646	-2.1562	-2.4021	-2.7687	-1.9146	-2.4813	-2.4917	-2.0062	284.639	81.821	409.580	114.098	410.586	369.894	404.992	185.156	226.571	410.129	427.038	143.415	281.235	399.860	221.634	392.808	0.00030689	0.00033168	5.9139e-05	182.18	2.6422e-06	4.9949e-06	328.74	75.322	1.5217e-06	3.7546e-06	152.82	67.193	30.949	16.089	2.2669e-06	37.715	0.00036532	0.00036193	0.00010065	187.76	3.8504e-06	3.9284e-06	329.5	76.471	3.7282e-06	4.0347e-06	152.7	67.899	31.245	16.338	4.0519e-06	37.948	201.498	165.315	165.059	83.170	235.315	187.908	82.921	89.590	209.066	231.595	87.339	91.503	94.438	97.009	189.055	93.631	-8191	255	
897.914	1	1	0	0	0.53696	0.40029	0.075863	0.21417	0.35799	0.20888	0.19887	0.1805	0.22986	0.22046	0.098949	0.31444	0.14545	0.087203	0.20267	0.18207	-2.4542	-2.2667	-2.1813	-2.8063	-1.7583	-2.4625	-2.8479	-1.9396	-2.5563	-2.3583	-2.1521	-2.8354	-1.8917	-2.425	-2.6167	-2.0625	356.388	91.891	191.344	112.075	159.241	386.424	360.527	316.241	246.132	426.530	361.420	338.849	96.748	266.313	235.162	299.821	0.00029857	0.00024767	6.7838e-05	184.12	1.2011e-06	3.0235e-06	330.08	74.919	1.5053e-06	4.0485e-06	152.88	67.283	30.956	16.113	2.3015e-06	37.896	0.0003674	0.00037251	0.00010642	188.84	4.1753e-06	4.2904e-06	328.85	76.283	4.1686e-06	4.3106e-06	152.43	67.898	31.126	16.404	4.2629e-06	38.05	201.138	175.863	127.121	83.296	285.058	264.459	83.153	89.824	381.496	192.041	87.338	91.344	94.141	96.973	303.560	94.019	-8191	255	
898.010	1	1	0	0	0.14021	0.087813	0.23265	0.056733	0.23567	0.16957	0.17459	0.119	0.053482	0.072707	0.16167	0.10224	0.10872	0.26977	0.082134	0.20025	-2.4562	-2.5583	-1.8687	-2.8438	-1.9229	-2.325	-2.8042	-1.6208	-2.5708	-2.4625	-1.9167	-3.0062	-2.1146	-2.0354	-2.5917	-1.9188	364.235	215.284	304.499	90.113	172.806	397.780	88.632	205.973	116.883	309.137	315.317	359.247	388.112	361.379	211.886	123.236	0.00028866	0.00010084	6.8108e-05	182.86	1.1863e-06	1.5486e-06	331.38	77.141	1.073e-06	5.0957e-06	152.92	67.969	30.788	16.148	3.4035e-06	38.141	0.00037961	0.00038911	0.00010738	190.38	4.2029e-06	4.2865e-06	332.17	77.129	4.18e-06	4.2234e-06	153.29	68.386	31.239	16.44	4.2909e-06	38.386	198.852	171.892	165.084	84.210	261.233	71.741	82.815	89.307	171.445	246.263	87.427	91.487	94.022	97.222	192.547	94.159	-8191	255	
898.104	1	1	0	0	0.14374	0.07341	0.17039	0.23549	0.11377	0.10469	0.23412	0.081649	0.10764	0.2379	0.22248	0.26174	0.2401	0.27185	0.14098	0.088937	-2.2854	-2.5604	-1.7583	-2.9021	-2.1792	-2.0646	-2.9229	-1.8646	-2.4562	-2.4979	-1.6063	-2.7646	-2.0458	-2.1729	-2.9188	-1.9833	326.987	162.414	156.365	338.326	82.798	137.485	306.027	134.173	398.557	148.568	234.514	287.195	423.690	365.293	258.737	183.957	0.00030697	0.00024331	0.00010604	184.76	3.834e-06	1.0087e-06	332.09	76.45	2.1566e-06	2.7221e-06	151.57	67.887	31.014	16.178	1.7824e-06	37.984	0.00038736	0.00039753	0.0001098	190.6	4.345e-06	4.355e-06	331.56	77.05	4.2997e-06	4.3451e-06	151.99	68.158	31.285	16.416	4.1796e-06	38.021	196.027	183.613	186.226	84.179	200.235	175.192	83.042	89.513	242.714	262.756	87.247	91.646	94.453	97.261	171.341	94.191	-8191	255	
898.201	1	1	0	0	0.2404	0.058694	0.10137	0.12294	0.24423	0.080922	0.14871	0.28978	0.19434	0.10332	0.11156	0.30977	0.33348	0.28783	0.22135	0.15982	-2.2292	-2.4313	-2.0021	-2.8396	-2.4021	-2.0687	-2.7875	-1.9854	-2.3688	-2.7958	-1.7687	-2.9188	-2.5604	-1.8563	-2.9292	-1.9813	108.712	267.235	122.064	248.853	376.531	321.257	395.746	137.884	93.121	197.361	179.014	296.400	410.131	266.589	76.192	339.939	0.00031514	5.4254e-05	6.9154e-05	184.98	2.2906e-06	3.0447e-06	328.3	75.152	1.1859e-06	1.954e-06	149.75	66.867	30.777	16.047	3.0495e-06	37.446	0.00039301	0.00039761	0.00010926	188.97	4.3064e-06	4.4011e-06	327.45	76.202	4.304e-06	4.212e-06	150.52	67.281	31.157	16.323	4.2248e-06	37.639	199.933	155.947	187.697	83.780	232.479	281.677	83.422	88.918	212.101	410.285	87.228	91.166	94.180	97.015	258.265	94.000	-8191	255	
898.297	1	1	0	0	0.17073	0.18398	0.16154	0.14979	0.2909	0.066489	0.10181	0.21729	0.14517	0.28909	0.066867	0.19076	0.2657	0.3965	0.13559	0.24373	-2.0354	-2.7167	-1.9292	-2.6979	-2.4042	-1.9125	-2.9042	-2.2896	-2.1042	-2.8958	-1.8125	-2.6437	-2.525	-2.0125	-2.775	-2.1917	267.102	240.178	309.996	295.601	157.614	176.256	202.816	360.457	199.971	166.997	99.044	427.497	376.384	386.086	252.412	386.979	0.00028676	9.9381e-05	0.0001103	182.37	3.0983e-06	3.9915e-06	329.87	75.591	1.1927e-06	4.1686e-06	150.85	67.305	30.786	16.112	3.0878e-06	37.72	0.00037373	0.00037701	0.00010775	188.79	4.1051e-06	4.1355e-06	328.59	76.322	4.0173e-06	4.2402e-06	151.17	67.692	31.209	16.413	4.0911e-06	37.891	197.975	321.374	232.424	83.832	229.790	199.148	82.896	89.779	196.510	255.985	87.044	91.661	94.072	97.262	239.790	94.058	-8191	255	
898.393	1	1	0	0	0.12466	0.30414	0.11962	0.13295	0.025546	0.29961	0.35496	0.16284	0.17152	0.15525	0.092938	0.17844	0.14856	0.065333	0.18828	0.29619	-1.8542	-2.9333	-1.8563	-2.5292	-2.7083	-1.9604	-2.8979	-2.2938	-2.1333	-2.8729	-2.0896	-2.6021	-2.6	-1.8854	-2.9188	-2.4146	370.730	116.898	132.044	193.418	201.996	100.308	79.488	363.994	185.645	363.313	304.095	270.873	156.590	413.321	80.951	402.347	0.00028693	0.00023807	6.5318e-05	184	2.6041e-06	2.5163e-06	332.01	76.671	1.7304e-06	8.9431e-07	152.23	67.795	31.187	16.466	4.0388e-06	38.207	0.00037473	0.00037301	0.0001044	190.31	4.042e-06	4.1483e-06	330.5	77.003	4.0005e-06	4.0223e-06	152.99	68.351	31.575	16.616	4.0445e-06	38.388	200.341	178.811	208.341	83.989	197.298	190.686	83.488	89.849	214.001	305.682	87.120	91.717	94.483	97.050	228.735	93.979	-8191	255	
898.489	1	1	0	0	0.0075632	0.097612	0.082292	0.1438	0.066557	0.022587	0.072778	0.036534	0.11521	0.010703	0.21877	0.1792	0.040438	0.333	0.14674	0.071879	-1.625	-2.8604	-1.9396	-2.35	-2.6813	-1.9188	-2.7167	-2.5771	-1.9917	-2.8812	-1.975	-2.3104	-2.8854	-2.1	-2.5042	-2.5958	232.405	223.361	415.537	334.282	411.108	407.955	182.321	377.981	337.296	400.651	172.901	348.349	361.281	284.416	196.597	335.125	0.00031226	0.00020833	8.9984e-05	187.48	2.2394e-06	6.3198e-06	333.59	76.837	8.6199e-07	1.9523e-06	152.66	68.544	31.251	16.43	1.6481e-06	38.339	0.00037099	0.00036496	0.00010322	191.26	3.9773e-06	4.1734e-06	332.69	77.454	3.9416e-06	4.0449e-06	153.55	68.87	31.684	16.626	4.0151e-06	38.42	203.084	185.743	100.143	83.760	376.142	265.062	83.015	89.157	220.246	210.530	87.177	91.365	94.302	97.088	171.137	94.001	-8191	255	
