BOXY.EXE: ISS Imagent and Oximeter Data Acquisition Program Version 0.80
Ascii Record File

#ACQ INFORMATION
2  Detector Channels 
16  External MUX Channels 
1  Auxiliary Channels 
5000  Waveform (CCF) Frequency (Hz)
1  Waveforms Skipped 
30  Waveforms Averaged 
1  Cycles Averaged 
16  Acquisitions per Waveform 
10.0806  Updata Rate (Hz) 

#FILE INFORMATION
TRUE -- External MUX Channel results are PARSED.
FALSE -- AC DC and Phase are NOT grouped.
TRUE -- Companion Program Settings File CREATED.
FALSE -- AC data not excluded
FALSE -- DC data not excluded
FALSE -- Phase data not excluded
FALSE -- Auxillary Chn. data not excluded
Tab delimiters

#CALIBRATION STATE
TRUE -- Waveform Calibration Values APPLIED.


#AUX CALIBRATION VALUES
Val Type	aux-1	

Term	1.0000e+00	
Factor	0.0000e+00	


#WF CALIBRATION VALUES
A = Detector Channel
Val Type	A-AC1	A-AC2	A-AC3	A-AC4	A-AC5	A-AC6	A-AC7	A-AC8	A-AC9	A-AC10	A-AC11	A-AC12	A-AC13	A-AC14	A-AC15	A-AC16	A-DC1	A-DC2	A-DC3	A-DC4	A-DC5	A-DC6	A-DC7	A-DC8	A-DC9	A-DC10	A-DC11	A-DC12	A-DC13	A-DC14	A-DC15	A-DC16	A-Ph1	A-Ph2	A-Ph3	A-Ph4	A-Ph5	A-Ph6	A-Ph7	A-Ph8	A-Ph9	A-Ph10	A-Ph11	A-Ph12	A-Ph13	A-Ph14	A-Ph15	A-Ph16	

Term	0.00000e+00	0.00000e+00	0.00000e+00	0.00000e+00	0.00000e+00	0.00000e+00	0.00000e+00	0.00000e+00	0.00000e+00	0.00000e+00	0.00000e+00	0.00000e+00	0.00000e+00	0.00000e+00	0.00000e+00	0.00000e+00	0.00000e+00	0.00000e+00	0.00000e+00	0.00000e+00	0.00000e+00	0.00000e+00	0.00000e+00	0.00000e+00	0.00000e+00	0.00000e+00	0.00000e+00	0.00000e+00	0.00000e+00	0.00000e+00	0.00000e+00	0.00000e+00	0.00000e+00	0.00000e+00	0.00000e+00	0.00000e+00	0.00000e+00	0.00000e+00	0.00000e+00	0.00000e+00	0.00000e+00	0.00000e+00	0.00000e+00	0.00000e+00	0.00000e+00	0.00000e+00	0.00000e+00	0.00000e+00	
Factor	1.00000e+00	1.00000e+00	1.00000e+00	1.00000e+00	1.00000e+00	1.00000e+00	1.00000e+00	1.00000e+00	1.00000e+00	1.00000e+00	1.00000e+00	1.00000e+00	1.00000e+00	1.00000e+00	1.00000e+00	1.00000e+00	1.00000e+00	1.00000e+00	1.00000e+00	1.00000e+00	1.00000e+00	1.00000e+00	1.00000e+00	1.00000e+00	1.00000e+00	1.00000e+00	1.00000e+00	1.00000e+00	1.00000e+00	1.00000e+00	1.00000e+00	1.00000e+00	X	X	X	X	X	X	X	X	X	X	X	X	X	X	X	X	

B = Detector Channel
Val Type	B-AC1	B-AC2	B-AC3	B-AC4	B-AC5	B-AC6	B-AC7	B-AC8	B-AC9	B-AC10	B-AC11	B-AC12	B-AC13	B-AC14	B-AC15	B-AC16	B-DC1	B-DC2	B-DC3	B-DC4	B-DC5	B-DC6	B-DC7	B-DC8	B-DC9	B-DC10	B-DC11	B-DC12	B-DC13	B-DC14	B-DC15	B-DC16	B-Ph1	B-Ph2	B-Ph3	B-Ph4	B-Ph5	B-Ph6	B-Ph7	B-Ph8	B-Ph9	B-Ph10	B-Ph11	B-Ph12	B-Ph13	B-Ph14	B-Ph15	B-Ph16	

Term	0.00000e+00	0.00000e+00	0.00000e+00	0.00000e+00	0.00000e+00	0.00000e+00	0.00000e+00	0.00000e+00	0.00000e+00	0.00000e+00	0.00000e+00	0.00000e+00	0.00000e+00	0.00000e+00	0.00000e+00	0.00000e+00	0.00000e+00	0.00000e+00	0.00000e+00	0.00000e+00	0.00000e+00	0.00000e+00	0.00000e+00	0.00000e+00	0.00000e+00	0.00000e+00	0.00000e+00	0.00000e+00	0.00000e+00	0.00000e+00	0.00000e+00	0.00000e+00	-1.50301e+02	-1.43373e+02	-1.49792e+02	-1.82306e+02	-7.93885e+01	-7.58284e+01	-1.59027e+02	-1.62015e+02	-9.78180e+01	-8.34192e+01	-1.70563e+02	-1.71693e+02	-1.81003e+02	-1.76539e+02	-7.99657e+01	-1.49547e+02	
Factor	2.19586e-05	8.39436e-05	3.41424e-05	1.49821e-01	8.35295e-07	9.81461e-07	1.65141e-01	4.79080e-02	1.03987e-06	1.07697e-06	8.44516e-02	2.96454e-02	2.29630e-02	8.60919e-03	9.99734e-07	1.26421e-02	8.08318e-07	8.29617e-07	2.31217e-07	7.45948e-02	9.07046e-09	9.09328e-09	7.73629e-02	2.38309e-02	9.06268e-09	9.06799e-09	3.98886e-02	1.40138e-02	1.13350e-02	4.22160e-03	9.04165e-09	5.95415e-03	X	X	X	X	X	X	X	X	X	X	X	X	X	X	X	X	



#DISTANCE SETTINGS
A = Detector Channel
A-1	A-2	A-3	A-4	A-5	A-6	A-7	A-8	A-9	A-10	A-11	A-12	A-13	A-14	A-15	A-16	

2.5000e+00	3.0000e+00	2.5000e+00	3.0000e+00	2.0000e+00	3.0000e+00	1.5000e+00	3.0000e+00	3.0000e+00	3.0000e+00	3.0000e+00	3.0000e+00	3.0000e+00	3.0000e+00	1.5000e+00	3.0000e+00	

B = Detector Channel
B-1	B-2	B-3	B-4	B-5	B-6	B-7	B-8	B-9	B-10	B-11	B-12	B-13	B-14	B-15	B-16	

1.0000e+01	1.0000e+01	1.0000e+01	1.4400e+00	1.0000e+01	1.0000e+01	1.5100e+00	1.9400e+00	1.0000e+01	1.0000e+01	1.9900e+00	2.4900e+00	2.4100e+00	2.9000e+00	1.0000e+01	2.9800e+00	




#DATA BEGINS
time	group	step	mark	flag	A-AC1	A-AC2	A-AC3	A-AC4	A-AC5	A-AC6	A-AC7	A-AC8	A-AC9	A-AC10	A-AC11	A-AC12	A-AC13	A-AC14	A-AC15	A-AC16	A-DC1	A-DC2	A-DC3	A-DC4	A-DC5	A-DC6	A-DC7	A-DC8	A-DC9	A-DC10	A-DC11	A-DC12	A-DC13	A-DC14	A-DC15	A-DC16	A-Ph1	A-Ph2	A-Ph3	A-Ph4	A-Ph5	A-Ph6	A-Ph7	A-Ph8	A-Ph9	A-Ph10	A-Ph11	A-Ph12	A-Ph13	A-Ph14	A-Ph15	A-Ph16	B-AC1	B-AC2	B-AC3	B-AC4	B-AC5	B-AC6	B-AC7	B-AC8	B-AC9	B-AC10	B-AC11	B-AC12	B-AC13	B-AC14	B-AC15	B-AC16	B-DC1	B-DC2	B-DC3	B-DC4	B-DC5	B-DC6	B-DC7	B-DC8	B-DC9	B-DC10	B-DC11	B-DC12	B-DC13	B-DC14	B-DC15	B-DC16	B-Ph1	B-Ph2	B-Ph3	B-Ph4	B-Ph5	B-Ph6	B-Ph7	B-Ph8	B-Ph9	B-Ph10	B-Ph11	B-Ph12	B-Ph13	B-Ph14	B-Ph15	B-Ph16	aux-1	digaux	

1983.558	1	1	0	512	0.082758	0.10263	0.1008	0.043811	0.034312	0.033316	0.36346	0.1657	0.22911	0.22908	0.11971	0.089711	0.15458	0.11391	0.045651	0.34568	-1.9292	-2.5479	-2.0208	-2.4625	-2.4917	-2.2812	-2.425	-2.25	-2.4625	-2.7292	-2.2521	-2.4188	-2.3271	-2.2292	-2.5208	-2.2104	175.348	119.658	376.963	267.482	223.170	351.318	440.949	225.014	323.706	462.971	186.646	280.475	160.264	465.900	305.020	420.084	0.00051206	0.00016059	5.3889e-05	154.34	2.524e-06	3.0971e-06	260.48	68.614	1.2372e-06	2.7349e-06	119.24	68.122	41.545	19.941	2.0582e-06	34.772	0.00013771	0.00012872	3.6852e-05	159.49	1.3972e-06	1.404e-06	261.76	69.64	1.4331e-06	1.4069e-06	118.03	66.841	40.738	19.639	1.4104e-06	33.697	159.350	190.721	468.923	123.389	187.052	428.462	122.937	128.646	228.686	220.538	127.236	130.506	131.366	138.262	212.515	134.421	-8191	255	
1983.677	1	1	0	0	0.086507	0.21377	0.087951	0.069756	0.14772	0.13436	0.21237	0.078573	0.24177	0.061001	0.10164	0.36137	0.079913	0.16704	0.1189	0.093376	-1.8583	-2.55	-2.0417	-2.525	-2.5271	-2.1646	-2.7917	-2.2729	-2.2167	-2.6188	-2.2417	-2.3812	-2.625	-2.2792	-2.5333	-2.3688	384.243	464.915	403.919	362.149	130.033	409.200	125.726	294.051	274.968	349.110	311.058	425.366	125.243	386.572	211.784	147.091	0.00043659	0.00010759	9.7512e-05	155.65	1.9531e-06	8.2385e-07	264.36	69.373	4.8722e-06	2.4252e-06	119.95	69.3	42.036	19.886	1.3085e-06	34.866	0.00014065	0.00013022	3.6291e-05	160.75	1.4292e-06	1.4387e-06	263.99	70.015	1.4225e-06	1.4132e-06	118.44	67.37	41.122	19.708	1.4128e-06	33.866	161.880	206.635	139.464	123.671	409.968	161.866	123.401	128.385	227.385	191.359	127.270	130.512	131.480	137.583	228.157	134.835	-8191	255	
1983.773	1	1	0	0	0.13722	0.094719	0.17946	0.34388	0.22008	0.075357	0.20093	0.097802	0.11714	0.054399	0.17035	0.04578	0.086287	0.206	0.25977	0.20114	-1.725	-2.5542	-2.3312	-2.5062	-2.4208	-2.1708	-2.4771	-2.2438	-2.2021	-2.7292	-2.1646	-2.3979	-2.55	-2.2646	-2.6083	-2.2104	435.183	311.395	425.738	442.289	260.989	186.438	305.033	145.341	448.110	351.237	153.900	432.050	145.223	136.819	419.890	447.230	0.00039788	0.00021783	0.00011764	155.59	1.0043e-06	1.51e-06	258.77	69.009	6.0206e-07	4.5589e-06	119.08	68.796	41.552	19.93	3.2456e-06	34.598	0.00013938	0.00013096	3.6532e-05	160.17	1.4302e-06	1.4204e-06	261.39	69.699	1.4333e-06	1.4117e-06	117.72	66.673	40.818	19.574	1.429e-06	33.439	161.535	268.098	176.028	123.840	324.677	251.479	123.029	128.963	421.306	213.324	127.235	130.216	130.994	138.062	226.049	134.475	-8191	255	
1983.847	1	1	0	0	0.10261	0.20728	0.12014	0.23043	0.054529	0.19436	0.29111	0.088653	0.10447	0.083714	0.13107	0.17614	0.046361	0.15675	0.10524	0.25818	-1.6167	-2.4854	-2.2333	-2.5646	-2.6458	-2.0979	-2.5542	-2.4313	-2.0938	-2.475	-2.5312	-2.45	-2.725	-2.2	-2.3667	-2.6958	112.679	196.213	193.142	360.561	271.555	417.384	240.135	188.236	281.534	359.643	118.166	346.765	267.944	422.920	209.756	402.009	0.00045574	0.00018693	2.8001e-05	155.94	9.8693e-07	3.0999e-06	258.4	69.292	1.6806e-06	2.7225e-06	119.51	68.343	41.525	19.759	2.3744e-06	34.582	0.00013949	0.00012924	3.5311e-05	160.53	1.4504e-06	1.4137e-06	260	69.819	1.4256e-06	1.4169e-06	117.29	66.178	40.843	19.58	1.4115e-06	33.351	166.045	115.884	204.171	123.518	379.297	276.822	123.477	128.691	239.253	176.863	126.922	130.111	131.323	137.702	250.543	134.503	-8191	255	
1983.966	1	1	0	0	0.16753	0.095056	0.21751	0.1772	0.12738	0.091944	0.25932	0.33122	0.36984	0.17465	0.14014	0.096825	0.081829	0.16089	0.20921	0.21931	-1.7354	-2.5	-2.3083	-2.3104	-2.575	-2.275	-2.3438	-2.6188	-2.2167	-2.6042	-2.4375	-2.3688	-2.5438	-2.4771	-2.4583	-2.5833	385.462	184.744	398.737	325.423	321.171	376.993	292.709	363.696	207.031	322.042	387.078	290.164	236.991	366.904	461.637	386.507	0.00045631	0.00013025	3.5511e-05	154.72	1.3274e-06	1.6312e-06	261.91	69.051	3.1994e-06	1.0813e-06	118.6	68.513	41.482	19.931	1.6253e-06	34.527	0.00013794	0.00012941	3.6288e-05	160.85	1.4277e-06	1.4219e-06	260.87	69.95	1.4313e-06	1.4101e-06	117.23	66.421	40.932	19.625	1.4312e-06	33.459	155.683	201.264	275.382	123.680	277.085	227.640	123.100	128.375	330.660	279.615	126.747	130.465	130.991	137.807	215.324	134.252	-8191	255	
1984.062	1	1	0	0	0.36901	0.30609	0.10482	0.22021	0.10375	0.041605	0.070244	0.19794	0.09692	0.1057	0.24315	0.068342	0.1272	0.035452	0.17867	0.088379	-1.8625	-2.5125	-2.1917	-2.1937	-2.4458	-2.3812	-2.5104	-2.3917	-2.0667	-2.6021	-2.3875	-2.1813	-2.3854	-2.3229	-2.3771	-2.6312	197.701	377.456	121.140	237.996	375.952	402.627	348.835	407.037	414.749	380.120	470.992	393.092	121.290	299.596	276.353	204.745	0.0004063	0.00014519	8.3162e-05	155.56	4.2169e-06	2.2668e-06	259.83	69.682	9.624e-07	4.7424e-06	118.89	68.645	41.822	20.139	1.5469e-06	34.385	0.00013735	0.00012883	3.5957e-05	161.3	1.406e-06	1.4227e-06	261.42	70.051	1.436e-06	1.4343e-06	117.75	66.563	41.06	19.743	1.4079e-06	33.472	158.155	150.650	192.044	123.710	254.935	158.654	122.671	129.055	201.711	232.837	127.326	130.448	131.103	138.180	269.656	134.722	-8191	255	
1984.158	1	1	0	0	0.11156	0.15261	0.11378	0.048888	0.099159	0.054518	0.29072	0.16838	0.14107	0.12566	0.20219	0.03683	0.2086	0.086131	0.16591	0.13475	-1.6938	-2.4042	-2.2479	-2.15	-2.7	-2.2396	-2.2521	-2.5833	-2.1292	-2.3896	-2.3729	-2.3208	-2.5	-2.3708	-2.3333	-2.6771	455.342	400.276	369.987	329.153	344.191	120.782	360.083	384.841	214.940	425.188	158.071	176.855	213.793	459.259	377.763	414.909	0.0004883	0.00029994	9.569e-05	157.65	2.4236e-06	2.4553e-06	259.16	69.469	1.4538e-06	1.4594e-06	121.05	68.757	42.086	19.971	1.6443e-06	34.491	0.00013692	0.00013116	3.6014e-05	161.52	1.4212e-06	1.4342e-06	261.71	70.159	1.4033e-06	1.4035e-06	118.75	66.961	41.461	19.791	1.4137e-06	33.523	157.656	208.400	155.808	123.524	211.821	333.301	123.237	128.739	237.606	261.885	126.603	130.278	131.664	137.644	296.925	134.588	-8191	255	
1984.279	1	1	0	0	0.17764	0.20362	0.34972	0.22353	0.20044	0.35537	0.016462	0.2437	0.036989	0.2817	0.19064	0.093406	0.14471	0.14931	0.066483	0.16005	-1.6396	-2.5187	-2.3333	-2.2042	-2.6333	-2.4646	-2.1146	-2.6	-2.3104	-2.2958	-2.6542	-2.0833	-2.4667	-2.4875	-2.2812	-2.7812	462.751	327.650	134.979	468.824	374.304	114.430	281.339	147.712	358.134	412.292	430.343	191.435	372.775	436.006	226.170	467.404	0.00041093	0.00014561	8.371e-05	158.29	2.6546e-06	3.0956e-06	260.66	69.145	5.5104e-06	1.6355e-06	118.34	67.984	42.099	19.896	2.9512e-06	34.448	0.00013744	0.00012945	3.5883e-05	163.34	1.4069e-06	1.4343e-06	261.09	70.139	1.4106e-06	1.4123e-06	117.29	66.271	41.289	19.713	1.4128e-06	33.274	152.053	124.110	270.912	123.580	412.626	280.173	122.936	128.760	290.075	238.308	127.251	130.367	131.066	138.027	272.388	134.319	-8191	255	
1984.375	1	1	0	0	0.19593	0.12255	0.048945	0.22036	0.058553	0.10999	0.048557	0.24038	0.16064	0.13034	0.090961	0.084442	0.082648	0.22884	0.1771	0.16723	-1.8208	-2.3708	-2.6562	-2.2646	-2.7292	-2.6146	-2.4	-2.4604	-2.2417	-2.325	-2.7292	-2.1854	-2.4	-2.4771	-2.2604	-2.7292	174.712	310.374	456.797	440.399	356.309	426.840	292.474	319.957	190.389	370.242	449.036	254.598	369.454	429.179	345.781	391.086	0.00044283	0.00019042	7.5567e-05	160.66	2.3646e-06	3.3058e-06	259.08	68.884	3.774e-06	3.4154e-06	118.3	67.881	41.846	19.924	3.3003e-06	34.175	0.00013721	0.00012822	3.5607e-05	164.66	1.405e-06	1.4147e-06	260.34	69.39	1.3878e-06	1.3988e-06	117.45	66.152	41.231	19.735	1.4185e-06	33.161	168.702	260.333	466.951	123.884	327.932	303.956	122.824	128.381	202.379	247.979	126.929	130.706	131.263	137.612	364.818	134.566	-8191	255	
1984.446	1	1	0	0	0.11382	0.12894	0.07531	0.17403	0.15769	0.073549	0.17159	0.22179	0.12752	0.075911	0.079766	0.1528	0.36132	0.12264	0.14737	0.27568	-1.8292	-2.2125	-2.5396	-2.2333	-2.3542	-2.6979	-2.1896	-2.8229	-2.3521	-2.4583	-2.5875	-2.275	-2.4792	-2.6562	-2.1667	-2.6188	406.088	359.314	298.895	264.603	181.218	321.730	152.752	390.121	402.765	354.410	441.435	300.696	205.117	343.467	401.472	407.937	0.00042724	0.00045279	9.1636e-05	159.16	2.1929e-07	2.6601e-06	258.02	69.367	1.9077e-06	1.0761e-06	118.08	68.476	42.157	20.126	2.086e-06	34.381	0.00013517	0.00012999	3.6521e-05	163.09	1.4277e-06	1.4249e-06	260.26	70.079	1.4009e-06	1.4207e-06	117.32	66.289	41.159	19.775	1.4213e-06	33.439	155.149	197.048	456.444	123.284	183.539	257.186	122.583	128.430	300.713	289.285	127.148	130.617	131.363	137.763	352.965	134.200	-8191	255	
1984.567	1	1	0	0	0.097669	0.1019	0.090183	0.026603	0.22263	0.060712	0.24627	0.22472	0.19042	0.15535	0.26167	0.12244	0.16037	0.088988	0.11521	0.24682	-2.0083	-2.2521	-2.55	-2.075	-2.4396	-2.4875	-2.2729	-2.4917	-2.5229	-2.3354	-2.6167	-2.3042	-2.3396	-2.5	-2.125	-2.625	385.906	426.824	354.252	325.339	407.070	446.213	469.184	412.042	223.900	454.159	382.239	419.382	409.946	348.858	191.440	371.842	0.00041957	0.0002528	5.7641e-05	159.09	2.4092e-06	2.6699e-06	260.42	69.35	3.2723e-06	1.881e-06	119.95	68.596	42.174	20.019	6.0958e-07	34.43	0.00013758	0.00013187	3.6039e-05	163.57	1.4208e-06	1.4061e-06	260.52	69.853	1.4332e-06	1.4116e-06	117.94	66.652	41.381	19.834	1.408e-06	33.546	155.730	207.413	147.706	123.742	143.052	283.025	122.882	129.502	173.409	273.076	126.914	130.385	131.684	137.822	170.303	134.495	-8191	255	
1984.663	1	1	0	0	0.2468	0.18429	0.15573	0.075908	0.21505	0.14433	0.17455	0.18208	0.070783	0.19808	0.071201	0.076371	0.22351	0.060037	0.30122	0.1624	-1.8771	-2.1333	-2.5333	-2.2562	-2.3479	-2.6708	-2.1604	-2.4521	-2.2771	-2.3604	-2.6937	-2.1833	-2.3104	-2.5542	-2.1813	-2.4313	284.323	351.321	302.422	328.206	258.095	229.139	361.441	390.709	327.662	198.537	161.139	279.939	457.837	152.105	398.232	159.468	0.00044946	0.00017992	8.0272e-05	159.97	1.8863e-06	2.7473e-06	261.1	69.438	5.5691e-07	7.0667e-07	118.71	68.499	42.147	19.944	4.2203e-06	34.419	0.00013906	0.00013024	3.5731e-05	165.13	1.4241e-06	1.3989e-06	260.95	69.935	1.4035e-06	1.393e-06	117.54	66.345	41.2	19.743	1.4158e-06	33.311	154.848	183.700	452.356	123.195	469.727	303.319	122.744	128.689	259.252	316.917	126.760	130.490	130.997	137.417	228.328	134.315	-8191	255	
1984.758	1	1	0	0	0.15023	0.15757	0.28449	0.16083	0.22314	0.18434	0.084657	0.18524	0.14734	0.24125	0.1177	0.15699	0.26026	0.11521	0.27862	0.12462	-1.8542	-2.0333	-2.7083	-2.4729	-2.3042	-2.4708	-2.2458	-2.4167	-2.2708	-2.0062	-2.4667	-2.2771	-2.25	-2.5958	-2.0563	-2.3063	149.529	145.979	416.334	457.227	379.331	134.387	455.739	394.766	410.718	261.759	130.346	399.555	374.566	370.241	154.387	129.523	0.00043523	0.00029483	0.00012587	159.96	5.3499e-07	2.7808e-06	259.58	68.985	4.0239e-06	4.0039e-06	118.39	68.002	41.814	20.067	3.9534e-07	34.453	0.00013694	0.00012808	3.6153e-05	164.77	1.4051e-06	1.4214e-06	260.85	69.92	1.408e-06	1.4022e-06	117.3	66.149	41.314	19.739	1.4042e-06	33.295	152.387	179.886	155.616	123.233	430.400	259.542	123.172	128.391	228.809	200.037	126.627	130.639	131.367	137.697	464.361	134.001	-8191	255	
1984.854	1	1	0	0	0.090414	0.2381	0.17876	0.1002	0.16277	0.076502	0.1583	0.17904	0.23718	0.12149	0.073285	0.11978	0.11416	0.26232	0.31231	0.21171	-2.0354	-2.2062	-2.55	-2.4021	-2.2854	-2.6792	-2.3187	-2.4271	-2.4667	-2.0792	-2.6125	-2.7479	-2.2479	-2.75	-2.2021	-2.4958	242.381	456.239	346.914	329.327	154.151	445.748	428.110	297.049	358.968	437.139	378.915	319.745	378.058	137.320	160.972	156.228	0.00045575	8.2298e-05	0.00012571	160	2.8899e-07	9.5658e-07	258.82	68.658	2.5481e-06	2.4832e-06	118.5	68.581	42.159	19.99	3.1724e-06	34.41	0.00013845	0.00012941	3.6155e-05	165.03	1.4357e-06	1.4101e-06	261.28	69.755	1.4045e-06	1.4135e-06	117.85	66.582	41.409	19.812	1.4318e-06	33.512	155.022	284.831	266.110	122.623	396.209	137.971	123.264	128.555	260.695	220.361	126.936	130.046	131.035	137.600	198.760	134.757	-8191	255	
1984.974	1	1	0	0	0.19046	0.11236	0.11393	0.12286	0.13197	0.098127	0.044026	0.24977	0.33442	0.053861	0.038557	0.15637	0.27183	0.23019	0.25582	0.13989	-2.0042	-2.1854	-2.3917	-2.475	-2.2542	-2.5958	-2.2771	-2.4125	-2.6125	-2.0771	-2.4604	-2.3125	-2.1312	-2.4958	-2.3333	-2.3187	347.515	250.497	242.084	234.956	333.612	388.434	424.618	304.402	355.593	279.281	429.910	191.923	442.190	116.344	213.708	377.984	0.00050295	0.00010678	0.00012164	158.74	1.6428e-06	3.3916e-06	259.84	68.681	1.3813e-06	2.7369e-06	118.78	68.401	41.781	20.174	2.7021e-06	34.837	0.00013842	0.00013013	3.6403e-05	164.47	1.423e-06	1.4187e-06	261.2	69.765	1.4186e-06	1.4292e-06	117.96	66.691	41.321	19.818	1.4307e-06	33.725	163.267	311.523	249.511	123.529	288.672	271.064	122.836	128.771	294.417	144.452	127.073	130.686	131.336	137.373	309.849	134.183	-8191	255	
1985.071	1	1	0	0	0.066928	0.27436	0.25445	0.081022	0.12151	0.19181	0.1245	0.12438	0.2603	0.21836	0.057701	0.26732	0.25058	0.25077	0.13197	0.38502	-2.1771	-2.1333	-2.4479	-2.2542	-2.0646	-2.5604	-2.3167	-2.2938	-2.7208	-2.1292	-2.475	-2.2604	-1.9958	-2.4729	-2.4	-2.2	166.444	460.774	233.870	235.471	330.584	130.159	186.752	276.957	137.622	156.656	422.428	111.614	124.200	128.597	158.612	118.585	0.0004938	1.399e-05	7.5441e-05	158.65	1.2394e-06	3.6941e-06	262.45	68.613	1.9003e-06	2.0964e-06	119.76	69.01	42.01	20.173	4.3668e-06	34.882	0.00013874	0.00013156	3.6499e-05	164.35	1.4357e-06	1.4255e-06	263.24	69.925	1.4186e-06	1.4109e-06	118.82	67.107	41.504	19.913	1.4082e-06	33.946	154.539	172.277	209.662	123.433	268.389	231.707	123.153	128.666	276.703	258.482	126.896	130.539	131.434	137.546	221.025	134.606	-8191	255	
1985.142	1	1	0	0	0.040785	0.14088	0.14448	0.1488	0.33329	0.12996	0.13687	0.031546	0.2011	0.34389	0.20459	0.25964	0.15982	0.12204	0.03611	0.14836	-2.0729	-2.0312	-2.3333	-2.5	-1.9583	-2.4729	-2.3688	-2.1854	-2.5854	-2.3625	-2.4458	-2.6021	-2.0542	-2.45	-2.4271	-2.1208	386.599	266.585	172.378	406.898	371.506	248.719	161.891	444.511	425.666	272.294	110.927	442.198	280.992	319.296	162.100	402.376	0.00051149	0.00020385	0.00010388	160.88	3.1199e-06	3.7306e-06	263.49	68.745	1.6443e-06	4.2687e-07	119.47	68.83	41.533	20.025	4.5016e-06	34.448	0.000138	0.00013095	3.5897e-05	165.35	1.4252e-06	1.4286e-06	263	69.92	1.4299e-06	1.4222e-06	118.76	66.831	41.198	19.742	1.4258e-06	33.49	158.786	273.539	201.802	123.084	206.336	275.681	123.138	128.492	112.588	289.923	126.886	129.777	131.160	137.680	202.654	134.345	-8191	255	
1985.238	1	1	0	0	0.057838	0.068501	0.28772	0.20573	0.21107	0.10303	0.13581	0.20836	0.10133	0.072154	0.11036	0.15272	0.096444	0.20258	0.28875	0.1173	-2.0979	-2.1292	-2.2729	-2.7229	-2.1604	-2.6292	-2.4875	-2.1021	-2.7292	-2.4354	-2.2417	-2.6188	-2.2188	-2.4062	-2.4333	-2.125	402.451	455.340	421.267	192.487	415.034	185.902	333.334	377.799	151.733	380.540	335.567	462.725	177.393	386.564	125.240	344.311	0.00041315	0.00013996	7.9924e-05	157.41	1.6409e-06	2.1844e-06	261.81	68.078	4.3153e-06	4.2589e-06	119.47	68.866	41.874	19.963	3.2381e-06	34.555	0.00013796	0.0001294	3.6061e-05	162.83	1.3925e-06	1.4088e-06	262.75	69.481	1.425e-06	1.4108e-06	118.46	66.904	41.134	19.688	1.4066e-06	33.614	153.803	236.825	158.101	123.495	198.695	247.853	123.124	128.671	139.626	272.941	126.687	130.349	131.256	137.849	297.082	134.719	-8191	255	
