BOXY.EXE: ISS Imagent and Oximeter Data Acquisition Program Version 0.80
Ascii Record File

#ACQ INFORMATION
2  Detector Channels 
16  External MUX Channels 
1  Auxiliary Channels 
5000  Waveform (CCF) Frequency (Hz)
1  Waveforms Skipped 
30  Waveforms Averaged 
1  Cycles Averaged 
16  Acquisitions per Waveform 
10.0806  Updata Rate (Hz) 

#FILE INFORMATION
TRUE -- External MUX Channel results are PARSED.
FALSE -- AC DC and Phase are NOT grouped.
TRUE -- Companion Program Settings File CREATED.
FALSE -- AC data not excluded
FALSE -- DC data not excluded
FALSE -- Phase data not excluded
FALSE -- Auxillary Chn. data not excluded
Tab delimiters

#CALIBRATION STATE
TRUE -- Waveform Calibration Values APPLIED.


#AUX CALIBRATION VALUES
Val Type	aux-1	

Term	1.0000e+00	
Factor	0.0000e+00	


#WF CALIBRATION VALUES
A = Detector Channel
Val Type	A-AC1	A-AC2	A-AC3	A-AC4	A-AC5	A-AC6	A-AC7	A-AC8	A-AC9	A-AC10	A-AC11	A-AC12	A-AC13	A-AC14	A-AC15	A-AC16	A-DC1	A-DC2	A-DC3	A-DC4	A-DC5	A-DC6	A-DC7	A-DC8	A-DC9	A-DC10	A-DC11	A-DC12	A-DC13	A-DC14	A-DC15	A-DC16	A-Ph1	A-Ph2	A-Ph3	A-Ph4	A-Ph5	A-Ph6	A-Ph7	A-Ph8	A-Ph9	A-Ph10	A-Ph11	A-Ph12	A-Ph13	A-Ph14	A-Ph15	A-Ph16	

Term	0.00000e+00	0.00000e+00	0.00000e+00	0.00000e+00	0.00000e+00	0.00000e+00	0.00000e+00	0.00000e+00	0.00000e+00	0.00000e+00	0.00000e+00	0.00000e+00	0.00000e+00	0.00000e+00	0.00000e+00	0.00000e+00	0.00000e+00	0.00000e+00	0.00000e+00	0.00000e+00	0.00000e+00	0.00000e+00	0.00000e+00	0.00000e+00	0.00000e+00	0.00000e+00	0.00000e+00	0.00000e+00	0.00000e+00	0.00000e+00	0.00000e+00	0.00000e+00	0.00000e+00	0.00000e+00	0.00000e+00	0.00000e+00	0.00000e+00	0.00000e+00	0.00000e+00	0.00000e+00	0.00000e+00	0.00000e+00	0.00000e+00	0.00000e+00	0.00000e+00	0.00000e+00	0.00000e+00	0.00000e+00	
Factor	1.00000e+00	1.00000e+00	1.00000e+00	1.00000e+00	1.00000e+00	1.00000e+00	1.00000e+00	1.00000e+00	1.00000e+00	1.00000e+00	1.00000e+00	1.00000e+00	1.00000e+00	1.00000e+00	1.00000e+00	1.00000e+00	1.00000e+00	1.00000e+00	1.00000e+00	1.00000e+00	1.00000e+00	1.00000e+00	1.00000e+00	1.00000e+00	1.00000e+00	1.00000e+00	1.00000e+00	1.00000e+00	1.00000e+00	1.00000e+00	1.00000e+00	1.00000e+00	X	X	X	X	X	X	X	X	X	X	X	X	X	X	X	X	

B = Detector Channel
Val Type	B-AC1	B-AC2	B-AC3	B-AC4	B-AC5	B-AC6	B-AC7	B-AC8	B-AC9	B-AC10	B-AC11	B-AC12	B-AC13	B-AC14	B-AC15	B-AC16	B-DC1	B-DC2	B-DC3	B-DC4	B-DC5	B-DC6	B-DC7	B-DC8	B-DC9	B-DC10	B-DC11	B-DC12	B-DC13	B-DC14	B-DC15	B-DC16	B-Ph1	B-Ph2	B-Ph3	B-Ph4	B-Ph5	B-Ph6	B-Ph7	B-Ph8	B-Ph9	B-Ph10	B-Ph11	B-Ph12	B-Ph13	B-Ph14	B-Ph15	B-Ph16	

Term	0.00000e+00	0.00000e+00	0.00000e+00	0.00000e+00	0.00000e+00	0.00000e+00	0.00000e+00	0.00000e+00	0.00000e+00	0.00000e+00	0.00000e+00	0.00000e+00	0.00000e+00	0.00000e+00	0.00000e+00	0.00000e+00	0.00000e+00	0.00000e+00	0.00000e+00	0.00000e+00	0.00000e+00	0.00000e+00	0.00000e+00	0.00000e+00	0.00000e+00	0.00000e+00	0.00000e+00	0.00000e+00	0.00000e+00	0.00000e+00	0.00000e+00	0.00000e+00	-1.50301e+02	-1.43373e+02	-1.49792e+02	-1.82306e+02	-7.93885e+01	-7.58284e+01	-1.59027e+02	-1.62015e+02	-9.78180e+01	-8.34192e+01	-1.70563e+02	-1.71693e+02	-1.81003e+02	-1.76539e+02	-7.99657e+01	-1.49547e+02	
Factor	2.19586e-05	8.39436e-05	3.41424e-05	1.49821e-01	8.35295e-07	9.81461e-07	1.65141e-01	4.79080e-02	1.03987e-06	1.07697e-06	8.44516e-02	2.96454e-02	2.29630e-02	8.60919e-03	9.99734e-07	1.26421e-02	8.08318e-07	8.29617e-07	2.31217e-07	7.45948e-02	9.07046e-09	9.09328e-09	7.73629e-02	2.38309e-02	9.06268e-09	9.06799e-09	3.98886e-02	1.40138e-02	1.13350e-02	4.22160e-03	9.04165e-09	5.95415e-03	X	X	X	X	X	X	X	X	X	X	X	X	X	X	X	X	



#DISTANCE SETTINGS
A = Detector Channel
A-1	A-2	A-3	A-4	A-5	A-6	A-7	A-8	A-9	A-10	A-11	A-12	A-13	A-14	A-15	A-16	

2.5000e+00	3.0000e+00	2.5000e+00	3.0000e+00	2.0000e+00	3.0000e+00	1.5000e+00	3.0000e+00	3.0000e+00	3.0000e+00	3.0000e+00	3.0000e+00	3.0000e+00	3.0000e+00	1.5000e+00	3.0000e+00	

B = Detector Channel
B-1	B-2	B-3	B-4	B-5	B-6	B-7	B-8	B-9	B-10	B-11	B-12	B-13	B-14	B-15	B-16	

1.0000e+01	1.0000e+01	1.0000e+01	1.4400e+00	1.0000e+01	1.0000e+01	1.5100e+00	1.9400e+00	1.0000e+01	1.0000e+01	1.9900e+00	2.4900e+00	2.4100e+00	2.9000e+00	1.0000e+01	2.9800e+00	




#DATA BEGINS
time	group	step	mark	flag	A-AC1	A-AC2	A-AC3	A-AC4	A-AC5	A-AC6	A-AC7	A-AC8	A-AC9	A-AC10	A-AC11	A-AC12	A-AC13	A-AC14	A-AC15	A-AC16	A-DC1	A-DC2	A-DC3	A-DC4	A-DC5	A-DC6	A-DC7	A-DC8	A-DC9	A-DC10	A-DC11	A-DC12	A-DC13	A-DC14	A-DC15	A-DC16	A-Ph1	A-Ph2	A-Ph3	A-Ph4	A-Ph5	A-Ph6	A-Ph7	A-Ph8	A-Ph9	A-Ph10	A-Ph11	A-Ph12	A-Ph13	A-Ph14	A-Ph15	A-Ph16	B-AC1	B-AC2	B-AC3	B-AC4	B-AC5	B-AC6	B-AC7	B-AC8	B-AC9	B-AC10	B-AC11	B-AC12	B-AC13	B-AC14	B-AC15	B-AC16	B-DC1	B-DC2	B-DC3	B-DC4	B-DC5	B-DC6	B-DC7	B-DC8	B-DC9	B-DC10	B-DC11	B-DC12	B-DC13	B-DC14	B-DC15	B-DC16	B-Ph1	B-Ph2	B-Ph3	B-Ph4	B-Ph5	B-Ph6	B-Ph7	B-Ph8	B-Ph9	B-Ph10	B-Ph11	B-Ph12	B-Ph13	B-Ph14	B-Ph15	B-Ph16	aux-1	digaux	

836.077	1	1	0	512	0.19889	0.1813	0.16806	0.16659	0.11424	0.1326	0.082554	0.050237	0.11713	0.23247	0.056794	0.23961	0.15878	0.26516	0.13659	0.21841	-1.8396	-1.9813	-2.4667	-2.1896	-2.1896	-2.6625	-2.0312	-2.5271	-2.425	-2.2521	-2.4479	-2.2542	-2.2125	-2.7229	-2.2396	-2.4854	242.720	227.497	151.073	53.912	315.338	357.267	231.943	38.592	137.244	397.501	232.394	323.521	283.778	58.160	344.983	373.384	0.00079788	0.00065274	0.00025717	499.78	1.0001e-05	9.5972e-06	573.41	226.1	1.7511e-05	9.4966e-06	295.73	138.78	102.98	59.046	7.6462e-06	78.42	0.0029573	0.0030331	0.000847	750.5	3.3306e-05	3.341e-05	831.1	303.27	3.3441e-05	3.3492e-05	423.16	181.13	138.84	71.372	3.3132e-05	95.016	102.137	279.148	107.789	49.968	208.420	231.815	48.769	55.533	196.245	243.203	53.169	56.564	59.876	64.808	190.052	60.950	-8191	255	
836.173	1	1	0	0	0.1934	0.19114	0.11404	0.048087	0.31397	0.31717	0.09428	0.38165	0.083495	0.061175	0.24709	0.11452	0.19455	0.1187	0.35017	0.35508	-2.0792	-2.0417	-2.4271	-2.4042	-2.3021	-2.5458	-2.2812	-2.2729	-2.6229	-2.0458	-2.3896	-2.4313	-2.1688	-2.5625	-2.2313	-2.3708	322.430	395.582	299.709	337.707	147.197	210.027	297.023	292.779	256.759	181.525	306.290	291.576	272.587	305.911	108.729	323.730	0.00078245	0.00061736	0.00034612	496.49	9.0875e-06	1.3851e-05	565.39	222.8	5.7144e-06	1.2856e-05	293	137.97	102.87	59.277	1.3391e-05	78.471	0.0029669	0.0030326	0.00084348	746.79	3.3136e-05	3.3387e-05	826.01	301.3	3.3617e-05	3.3751e-05	420.86	181.32	139.08	71.575	3.3714e-05	95.348	135.746	216.471	274.875	49.782	203.788	209.047	48.585	55.733	303.775	246.762	52.764	56.346	59.461	64.842	134.042	60.887	-8191	255	
836.269	1	1	0	0	0.056603	0.066265	0.10119	0.16261	0.18249	0.13806	0.26012	0.48194	0.2374	0.069176	0.24524	0.22462	0.2882	0.25962	0.30208	0.20118	-1.8729	-2.0958	-2.4521	-2.3375	-2.0958	-2.4313	-2.2771	-2.3354	-2.3479	-1.9813	-2.6458	-2.3854	-2.0021	-2.7479	-2.3	-2.2438	126.126	310.582	337.642	307.189	198.010	153.499	125.483	360.195	51.322	376.053	368.140	316.498	292.816	317.166	41.189	395.207	0.0004374	0.00029323	0.00029482	498.23	1.4493e-05	2.4554e-06	566.46	222.71	8.5784e-06	1.0444e-05	293.79	139.21	103.7	59.733	8.1473e-06	79.657	0.0030254	0.0030753	0.00085421	750.4	3.3344e-05	3.3442e-05	824.59	300.31	3.3389e-05	3.369e-05	421.46	182.32	140.26	72.371	3.4167e-05	96.705	170.998	336.808	64.104	49.873	73.018	371.793	48.590	55.560	115.824	242.135	52.795	56.193	59.386	64.875	280.664	60.755	-8191	255	
836.388	1	1	0	0	0.32049	0.16896	0.31234	0.28962	0.18467	0.053081	0.2235	0.24972	0.42322	0.11726	0.21189	0.10803	0.33904	0.20107	0.24418	0.36708	-2.0187	-2.2625	-2.35	-2.4167	-2.1688	-2.6208	-2.2979	-2.2167	-2.5292	-2.0792	-2.4271	-2.6771	-2.2021	-2.625	-2.3063	-2.35	264.674	236.360	309.733	129.130	244.234	184.639	345.367	271.052	46.965	271.837	382.289	136.691	372.558	61.202	138.836	60.375	0.00068506	0.00052843	0.00056822	501.81	8.0754e-06	1.0405e-05	569.38	222.85	9.4337e-06	4.4979e-06	291.31	137.75	102.78	59.197	3.254e-06	79.049	0.0030741	0.0031209	0.00086787	756.19	3.3483e-05	3.3431e-05	825.59	299.26	3.3049e-05	3.3175e-05	417.04	180.18	138.51	71.511	3.3518e-05	95.877	125.426	59.832	240.043	50.096	359.399	128.703	48.691	55.535	216.674	187.984	52.827	56.393	59.612	64.767	109.731	60.701	-8191	255	
836.460	1	1	0	0	0.07239	0.074691	0.17909	0.17465	0.12841	0.22119	0.019948	0.15906	0.16609	0.30602	0.23498	0.093313	0.077141	0.16731	0.076391	0.097997	-2.0938	-2.0271	-2.3125	-2.5854	-1.9688	-2.5792	-2.1896	-2.1542	-2.3708	-2.2125	-2.3458	-2.4667	-2.3333	-2.5833	-2.4417	-2.1333	134.161	245.853	199.629	265.302	107.560	145.999	245.549	356.660	54.927	343.424	275.287	150.111	295.548	58.961	122.693	253.356	0.00095532	0.00047618	0.00036968	501.21	5.0399e-06	6.8482e-06	571.47	221.99	8.6828e-06	3.9019e-06	289.85	137.17	101.53	59.031	1.9996e-05	78.738	0.0030318	0.003092	0.00085949	751.06	3.3458e-05	3.334e-05	824.98	298.02	3.2798e-05	3.2921e-05	415.07	179.18	137.2	71.182	3.3216e-05	95.631	105.575	57.505	365.509	50.189	243.536	277.588	48.795	55.798	370.578	331.045	52.840	56.587	59.568	64.522	225.622	60.933	-8191	255	
836.556	1	1	0	0	0.10469	0.07969	0.26641	0.2311	0.036776	0.039799	0.14006	0.1752	0.17162	0.17111	0.073686	0.1579	0.16343	0.20083	0.16634	0.33389	-2.1	-2.2854	-2.1479	-2.4562	-2.2146	-2.4313	-2.4854	-2.2146	-2.4813	-2.4771	-2.1604	-2.7479	-2.4292	-2.4813	-2.3875	-2.1312	385.503	250.877	57.998	272.561	56.553	372.010	238.302	386.964	204.494	365.502	244.672	346.146	389.406	55.124	210.578	351.313	0.00087454	0.0013088	0.00017769	499.56	6.6123e-06	2.3142e-06	567.42	222.39	2.3321e-05	1.8177e-05	289.02	135.99	100.57	58.166	9.4992e-06	77.434	0.0030275	0.0030935	0.00086474	752.37	3.3854e-05	3.3863e-05	828.6	299.53	3.3384e-05	3.3407e-05	415.61	178.02	136.53	70.258	3.2963e-05	93.655	119.358	175.397	91.853	49.897	380.877	311.786	48.149	55.808	128.243	263.257	52.855	56.545	59.377	64.875	177.290	60.897	-8191	255	
836.652	1	1	0	0	0.12903	0.088391	0.05325	0.19101	0.12486	0.24335	0.18394	0.17821	0.11454	0.38159	0.15509	0.14751	0.3247	0.010862	0.2247	0.094321	-2.0646	-2.1937	-1.9771	-2.4313	-2.1542	-2.3792	-2.5542	-2.2083	-2.575	-2.2917	-2.3229	-2.5792	-2.3042	-2.4333	-2.2812	-2.4562	391.177	205.816	203.006	358.119	40.233	281.834	388.421	388.578	139.677	166.369	62.497	78.493	367.227	127.118	223.262	369.681	0.00062797	0.00054624	0.00034246	487.56	1.3571e-05	1.2608e-05	562.34	219.33	5.4145e-06	8.3063e-06	288.62	137.22	101.47	58.234	7.1606e-06	78.179	0.002967	0.0030407	0.0008485	741.86	3.3629e-05	3.4042e-05	825.5	299.92	3.4246e-05	3.4305e-05	420.34	180.89	138.41	71.211	3.4022e-05	95.194	147.429	110.772	128.268	49.599	89.669	394.364	48.341	55.899	230.412	185.672	52.747	56.424	59.797	64.922	48.697	61.011	-8191	255	
836.773	1	1	0	0	0.15732	0.015043	0.35777	0.15218	0.11599	0.0020885	0.056209	0.1291	0.19239	0.12312	0.065455	0.12041	0.21325	0.12139	0.086146	0.2631	-1.8208	-2.2812	-1.9458	-2.3896	-2.1	-2.2958	-2.6229	-2.0479	-2.4688	-2.3229	-2.3	-2.6771	-2.2938	-2.4667	-2.4375	-2.2292	334.487	217.232	97.899	340.650	39.198	180.000	300.125	65.995	375.478	49.114	97.356	353.792	70.092	369.726	325.503	325.763	0.00064031	0.0016698	0.00034483	485.71	3.5253e-06	1.0671e-05	555.62	216.82	2.2861e-05	2.0856e-05	284.66	136.41	101.29	58.543	9.4908e-06	78.612	0.0030491	0.0030984	0.0008576	740.71	3.3302e-05	3.3467e-05	814.39	294.02	3.3165e-05	3.3375e-05	412.26	178.89	137.22	71.104	3.3683e-05	95.475	175.427	102.844	129.523	50.444	46.633	283.633	48.450	55.669	239.826	324.006	52.730	56.679	59.582	64.866	165.469	61.178	-8191	255	
836.869	1	1	0	0	0.18611	0.18102	0.14885	0.089167	0.27447	0.30942	0.29296	0.14732	0.29419	0.21418	0.17684	0.1424	0.12471	0.40894	0.17089	0.26225	-1.8854	-2.4562	-2.0187	-2.7104	-2.4896	-2.1583	-2.4229	-2.2417	-2.7458	-2.3625	-2.25	-2.6229	-2.4479	-2.2604	-2.5375	-2.2833	279.367	67.116	169.939	103.604	92.798	361.115	258.598	389.763	312.706	91.392	261.795	382.703	366.429	337.780	338.163	371.095	0.00046832	0.00031848	0.00050369	490.88	9.2868e-06	3.702e-06	560.5	216.7	1.9913e-06	1.9076e-06	284.07	135.38	100.48	58.392	1.8435e-05	79.201	0.0030472	0.0031163	0.00086568	746.24	3.396e-05	3.3864e-05	822.08	295.16	3.3509e-05	3.3456e-05	411.83	178.16	136.36	70.918	3.3581e-05	96.035	102.160	338.186	392.597	49.869	222.853	113.790	48.582	55.990	67.384	138.813	52.682	56.644	59.586	65.082	290.545	61.244	-8191	255	
836.965	1	1	0	0	0.20642	0.15978	0.13085	0.10848	0.072288	0.10675	0.19188	0.19851	0.21638	0.15346	0.15773	0.16178	0.092542	0.3444	0.10343	0.24019	-1.8708	-2.4062	-2.0625	-2.5771	-2.2562	-2.1188	-2.7083	-2.1312	-2.2021	-2.5542	-2.3	-2.3354	-2.5458	-2.175	-2.6	-2.2104	277.314	87.065	246.231	345.968	385.517	114.871	287.877	215.192	38.058	361.143	360.334	354.835	397.315	122.949	153.809	374.117	0.00042739	0.0019707	0.00080732	487.82	5.0213e-06	6.7378e-06	565.35	219.69	1.3835e-05	1.8103e-05	286.99	136.34	101.17	58.652	4.1413e-06	79.232	0.0030526	0.0031245	0.00087897	752.82	3.485e-05	3.5281e-05	839.81	302.68	3.5639e-05	3.5629e-05	424.16	181.84	138.81	71.665	3.4039e-05	95.81	122.149	344.637	138.608	50.197	189.137	157.625	48.608	55.933	46.126	46.672	52.875	56.603	59.716	65.049	200.225	60.929	-8191	255	
837.037	1	1	0	0	0.03275	0.069699	0.25209	0.30263	0.25127	0.24563	0.12459	0.35229	0.039128	0.21696	0.18488	0.22413	0.19643	0.26418	0.14558	0.091562	-1.8875	-2.2479	-1.8937	-2.3563	-2.5354	-1.9104	-2.5292	-2.2042	-2.2083	-2.4521	-2.0125	-2.3646	-2.4813	-2.2	-2.3458	-2.3583	81.085	147.008	319.674	278.065	110.228	369.449	271.785	366.019	115.182	52.548	50.153	72.091	46.115	373.309	179.921	350.210	0.00093999	0.00069127	0.00049251	475.78	8.3866e-06	2.264e-05	561.05	219.19	1.091e-05	4.5216e-06	288.3	137.98	102.12	59.351	2.7977e-06	79.21	0.0030184	0.0030854	0.00086033	734.54	3.4049e-05	3.4443e-05	830.37	301.57	3.5314e-05	3.568e-05	427.97	184.69	141.19	72.84	3.532e-05	96.943	139.960	168.159	371.117	50.062	163.263	253.488	49.171	55.635	187.422	120.327	52.713	56.522	59.872	64.859	344.208	60.723	-8191	255	
837.157	1	1	0	0	0.065994	0.20017	0.13731	0.13853	0.1959	0.085097	0.12042	0.25747	0.073866	0.13462	0.047849	0.18592	0.082055	0.38151	0.29878	0.30002	-1.8	-2.6104	-2.0896	-2.4708	-2.3667	-2.0896	-2.6896	-2.4271	-1.9729	-2.3833	-2.3125	-2.4917	-2.5854	-2.2729	-2.5646	-2.525	79.975	291.436	89.487	302.725	353.679	267.770	160.525	366.516	301.094	316.849	296.411	68.553	339.170	59.370	361.544	348.954	0.00070628	0.0011472	0.00073888	479.2	5.8104e-06	1.8664e-05	548.01	215.14	1.2218e-05	6.8053e-06	287.55	136.67	101.84	59.755	1.3604e-05	80.19	0.0031059	0.0031426	0.00086685	737.08	3.3533e-05	3.3575e-05	808.33	294.35	3.3655e-05	3.3966e-05	417.26	181.41	139.36	72.624	3.4972e-05	97.665	151.764	61.549	162.399	49.886	154.199	365.288	47.891	55.884	223.369	126.297	52.977	56.335	59.385	65.003	199.168	60.934	-8191	255	
837.254	1	1	0	0	0.079176	0.19	0.10264	0.30257	0.20773	0.12454	0.066212	0.10939	0.019442	0.061989	0.15086	0.27011	0.10548	0.2976	0.11865	0.13897	-1.5438	-2.3833	-2.225	-2.2146	-2.3292	-2.0083	-2.6042	-2.3292	-2.175	-2.5062	-2.4167	-2.25	-2.3417	-2.3604	-2.4854	-2.4979	159.821	380.302	124.519	377.935	290.352	167.244	236.921	366.197	203.899	261.610	132.977	371.757	383.432	299.875	377.857	307.530	0.00083995	0.00019807	0.00015389	492.41	5.8249e-06	1.6476e-05	555.43	218.34	1.7841e-05	4.1474e-06	285.33	137.11	102.81	59.991	1.0476e-05	81.046	0.0031525	0.0032141	0.00089282	755.96	3.45e-05	3.4506e-05	824.21	297.95	3.4064e-05	3.4268e-05	418.11	181.88	139.99	72.922	3.5298e-05	98.852	137.573	366.866	52.229	49.927	156.460	150.178	48.684	55.890	91.028	291.718	53.007	56.605	59.422	64.773	216.728	60.729	-8191	255	
837.350	1	1	0	0	0.14519	0.19365	0.14602	0.20964	0.015387	0.18265	0.23055	0.1051	0.041387	0.034194	0.21347	0.15839	0.2314	0.25211	0.19082	0.16777	-1.3708	-2.3625	-2.2146	-2.1229	-2.3167	-2.1292	-2.2625	-2.3646	-1.9854	-2.4083	-2.3583	-2.1354	-2.5958	-2.3542	-2.4979	-2.5958	95.066	272.666	150.844	386.950	284.864	211.643	242.666	280.424	180.652	142.303	56.615	365.488	62.899	88.447	168.411	331.198	0.00072296	0.00097863	0.00031883	502.39	7.5362e-06	9.1866e-08	575.61	225.17	9.9e-06	8.5143e-06	293.2	137.34	101.46	59.332	1.1508e-05	79.178	0.0032242	0.0033169	0.00092554	777.62	3.6435e-05	3.6496e-05	857.07	308.97	3.5585e-05	3.5309e-05	424.64	181.91	138.61	71.601	3.3573e-05	95.726	127.819	55.672	351.428	49.884	107.539	101.279	48.117	55.549	141.244	370.757	53.066	56.686	59.741	64.489	288.688	60.958	-8191	255	
837.469	1	1	0	0	0.064458	0.13406	0.026477	0.23243	0.093435	0.062459	0.14591	0.23028	0.099895	0.17035	0.058087	0.27972	0.18628	0.16161	0.088207	0.16105	-1.6021	-2.5438	-2.1917	-2.2396	-2.5583	-2.0792	-2.375	-2.8021	-1.8583	-2.35	-2.5896	-2.2583	-2.5187	-2.1833	-2.2833	-2.4104	183.885	115.427	118.046	157.410	337.651	159.420	191.458	325.771	95.353	304.858	172.459	191.268	283.357	39.166	297.371	94.840	0.00056829	0.0012172	0.00034497	475.77	4.1171e-06	1.111e-05	561.83	220.44	1.7767e-05	1.4694e-05	290.48	139.26	101.88	59.405	1.5955e-05	79.243	0.0029992	0.0030678	0.00085536	733.02	3.3821e-05	3.4259e-05	829.54	301.22	3.4895e-05	3.5153e-05	425.74	183.35	140.09	72.326	3.4326e-05	96.186	113.690	110.390	112.355	50.135	96.452	298.032	48.510	55.677	125.062	157.560	52.962	56.730	59.520	64.982	165.746	60.853	-8191	255	
837.565	1	1	0	0	0.24994	0.079334	0.19195	0.16552	0.35843	0.25006	0.15254	0.19709	0.14943	0.12908	0.16859	0.46131	0.23717	0.060399	0.1729	0.30988	-1.4708	-2.4646	-2.2271	-2.3042	-2.6312	-2.4042	-2.3875	-2.5542	-2.0375	-2.3042	-2.4167	-2.1833	-2.4437	-2.3563	-2.2417	-2.7938	184.881	257.895	79.329	275.695	47.585	42.283	344.375	244.943	276.146	323.131	381.324	319.140	349.246	340.130	146.493	370.014	0.0005708	0.00065144	0.00010668	477.11	1.1119e-06	1.2439e-05	545.29	215.23	2.7065e-05	1.7774e-05	287.34	136.67	102.14	59.169	3.4421e-06	80.247	0.0030252	0.0030509	0.00084423	724.28	3.2886e-05	3.2828e-05	800.99	291.73	3.3229e-05	3.365e-05	416.23	180.89	139.62	72.379	3.4854e-05	97.642	142.184	130.033	352.414	49.825	139.157	137.337	48.731	56.035	110.453	72.609	53.011	56.577	59.346	64.779	159.057	60.601	-8191	255	
837.661	1	1	0	0	0.28583	0.16296	0.061362	0.17756	0.14075	0.13133	0.30881	0.37221	0.24594	0.11413	0.16402	0.33205	0.13031	0.16807	0.20558	0.10289	-1.7458	-2.1604	-2.3792	-2.0708	-2.6771	-2.2542	-2.2479	-2.6229	-2.2292	-2.4917	-2.4813	-1.9188	-2.6937	-2.5	-2.1042	-2.7854	153.702	97.118	131.884	340.530	118.753	382.816	326.855	325.818	155.214	201.448	390.815	318.600	376.918	379.152	61.031	306.005	0.00079592	0.00072996	0.00055425	489.64	7.4825e-06	6.5614e-06	558.55	215.68	1.6107e-05	2.0971e-06	279.62	134.71	99.961	58.333	8.9832e-06	78.608	0.0031493	0.0032062	0.00088831	753.17	3.4362e-05	3.3958e-05	815.98	294.13	3.283e-05	3.2737e-05	405.77	176.08	134.92	70.341	3.2653e-05	95.024	128.519	175.698	307.865	49.950	117.636	190.352	48.312	55.990	202.386	129.695	52.957	56.808	59.592	64.979	99.170	60.852	-8191	255	
837.757	1	1	0	0	0.1859	0.038038	0.17153	0.23138	0.11813	0.16351	0.28671	0.19841	0.09618	0.17057	0.12844	0.13732	0.28774	0.081813	0.30754	0.17605	-1.8292	-2.2812	-2.5104	-2.3542	-2.3521	-2.1708	-2.1333	-2.5729	-2.3375	-2.15	-2.4521	-2.2771	-2.5875	-2.5354	-2.0896	-2.5	357.667	221.326	334.701	94.007	301.994	70.201	340.598	85.615	226.557	317.185	377.614	381.837	382.463	90.462	95.540	310.702	0.00073522	0.0016969	0.0004088	483.41	1.3267e-05	8.2517e-06	560.22	219.26	1.0902e-05	2.2451e-05	285.48	134.92	100.46	57.973	1.0255e-05	78.396	0.0029746	0.0030703	0.00085623	737.57	3.38e-05	3.3802e-05	819.85	296.18	3.315e-05	3.3052e-05	408.94	176.01	134.88	69.934	3.2055e-05	94.038	118.346	129.301	321.039	50.178	157.130	174.090	48.664	55.835	189.382	204.334	52.754	56.572	60.008	64.730	241.097	60.687	-8191	255	
