BOXY.EXE: ISS Imagent and Oximeter Data Acquisition Program Version 0.80
Ascii Record File

#ACQ INFORMATION
2  Detector Channels 
16  External MUX Channels 
1  Auxiliary Channels 
5000  Waveform (CCF) Frequency (Hz)
1  Waveforms Skipped 
30  Waveforms Averaged 
1  Cycles Averaged 
16  Acquisitions per Waveform 
10.0806  Updata Rate (Hz) 

#FILE INFORMATION
TRUE -- External MUX Channel results are PARSED.
FALSE -- AC DC and Phase are NOT grouped.
TRUE -- Companion Program Settings File CREATED.
FALSE -- AC data not excluded
FALSE -- DC data not excluded
FALSE -- Phase data not excluded
FALSE -- Auxillary Chn. data not excluded
Tab delimiters

#CALIBRATION STATE
TRUE -- Waveform Calibration Values APPLIED.


#AUX CALIBRATION VALUES
Val Type	aux-1	

Term	1.0000e+00	
Factor	0.0000e+00	


#WF CALIBRATION VALUES
A = Detector Channel
Val Type	A-AC1	A-AC2	A-AC3	A-AC4	A-AC5	A-AC6	A-AC7	A-AC8	A-AC9	A-AC10	A-AC11	A-AC12	A-AC13	A-AC14	A-AC15	A-AC16	A-DC1	A-DC2	A-DC3	A-DC4	A-DC5	A-DC6	A-DC7	A-DC8	A-DC9	A-DC10	A-DC11	A-DC12	A-DC13	A-DC14	A-DC15	A-DC16	A-Ph1	A-Ph2	A-Ph3	A-Ph4	A-Ph5	A-Ph6	A-Ph7	A-Ph8	A-Ph9	A-Ph10	A-Ph11	A-Ph12	A-Ph13	A-Ph14	A-Ph15	A-Ph16	

Term	0.00000e+00	0.00000e+00	0.00000e+00	0.00000e+00	0.00000e+00	0.00000e+00	0.00000e+00	0.00000e+00	0.00000e+00	0.00000e+00	0.00000e+00	0.00000e+00	0.00000e+00	0.00000e+00	0.00000e+00	0.00000e+00	0.00000e+00	0.00000e+00	0.00000e+00	0.00000e+00	0.00000e+00	0.00000e+00	0.00000e+00	0.00000e+00	0.00000e+00	0.00000e+00	0.00000e+00	0.00000e+00	0.00000e+00	0.00000e+00	0.00000e+00	0.00000e+00	0.00000e+00	0.00000e+00	0.00000e+00	0.00000e+00	0.00000e+00	0.00000e+00	0.00000e+00	0.00000e+00	0.00000e+00	0.00000e+00	0.00000e+00	0.00000e+00	0.00000e+00	0.00000e+00	0.00000e+00	0.00000e+00	
Factor	1.00000e+00	1.00000e+00	1.00000e+00	1.00000e+00	1.00000e+00	1.00000e+00	1.00000e+00	1.00000e+00	1.00000e+00	1.00000e+00	1.00000e+00	1.00000e+00	1.00000e+00	1.00000e+00	1.00000e+00	1.00000e+00	1.00000e+00	1.00000e+00	1.00000e+00	1.00000e+00	1.00000e+00	1.00000e+00	1.00000e+00	1.00000e+00	1.00000e+00	1.00000e+00	1.00000e+00	1.00000e+00	1.00000e+00	1.00000e+00	1.00000e+00	1.00000e+00	X	X	X	X	X	X	X	X	X	X	X	X	X	X	X	X	

B = Detector Channel
Val Type	B-AC1	B-AC2	B-AC3	B-AC4	B-AC5	B-AC6	B-AC7	B-AC8	B-AC9	B-AC10	B-AC11	B-AC12	B-AC13	B-AC14	B-AC15	B-AC16	B-DC1	B-DC2	B-DC3	B-DC4	B-DC5	B-DC6	B-DC7	B-DC8	B-DC9	B-DC10	B-DC11	B-DC12	B-DC13	B-DC14	B-DC15	B-DC16	B-Ph1	B-Ph2	B-Ph3	B-Ph4	B-Ph5	B-Ph6	B-Ph7	B-Ph8	B-Ph9	B-Ph10	B-Ph11	B-Ph12	B-Ph13	B-Ph14	B-Ph15	B-Ph16	

Term	0.00000e+00	0.00000e+00	0.00000e+00	0.00000e+00	0.00000e+00	0.00000e+00	0.00000e+00	0.00000e+00	0.00000e+00	0.00000e+00	0.00000e+00	0.00000e+00	0.00000e+00	0.00000e+00	0.00000e+00	0.00000e+00	0.00000e+00	0.00000e+00	0.00000e+00	0.00000e+00	0.00000e+00	0.00000e+00	0.00000e+00	0.00000e+00	0.00000e+00	0.00000e+00	0.00000e+00	0.00000e+00	0.00000e+00	0.00000e+00	0.00000e+00	0.00000e+00	-1.36660e+02	-1.60266e+02	-1.34086e+02	-1.83745e+02	-7.87698e+01	-1.00516e+02	-1.56747e+02	-1.62015e+02	-7.40872e+01	-9.28821e+01	-1.74571e+02	-1.71654e+02	-1.88132e+02	-1.77417e+02	-8.50884e+01	-1.50494e+02	
Factor	2.03993e-05	1.07868e-04	3.57229e-05	1.87245e-01	1.07033e-06	1.41399e-06	1.72526e-01	6.12020e-02	1.23551e-06	1.13726e-06	9.66703e-02	3.45722e-02	6.45775e-02	1.00719e-02	1.45188e-06	1.40147e-02	9.56666e-07	9.86707e-07	2.74933e-07	9.45559e-02	1.08021e-08	1.08257e-08	8.21921e-02	3.07922e-02	1.08017e-08	1.08237e-08	4.65095e-02	1.66970e-02	3.00134e-02	5.01095e-03	1.08182e-08	6.73353e-03	X	X	X	X	X	X	X	X	X	X	X	X	X	X	X	X	



#DISTANCE SETTINGS
A = Detector Channel
A-1	A-2	A-3	A-4	A-5	A-6	A-7	A-8	A-9	A-10	A-11	A-12	A-13	A-14	A-15	A-16	

2.5000e+00	3.0000e+00	2.5000e+00	3.0000e+00	2.0000e+00	3.0000e+00	1.5000e+00	3.0000e+00	3.0000e+00	3.0000e+00	3.0000e+00	3.0000e+00	3.0000e+00	3.0000e+00	1.5000e+00	3.0000e+00	

B = Detector Channel
B-1	B-2	B-3	B-4	B-5	B-6	B-7	B-8	B-9	B-10	B-11	B-12	B-13	B-14	B-15	B-16	

1.0000e+01	1.0000e+01	1.0000e+01	1.4400e+00	1.0000e+01	1.0000e+01	1.5100e+00	1.9400e+00	1.0000e+01	1.0000e+01	1.9900e+00	2.4900e+00	2.4100e+00	2.9000e+00	1.0000e+01	2.9800e+00	




#DATA BEGINS
time	group	step	mark	flag	A-AC1	A-AC2	A-AC3	A-AC4	A-AC5	A-AC6	A-AC7	A-AC8	A-AC9	A-AC10	A-AC11	A-AC12	A-AC13	A-AC14	A-AC15	A-AC16	A-DC1	A-DC2	A-DC3	A-DC4	A-DC5	A-DC6	A-DC7	A-DC8	A-DC9	A-DC10	A-DC11	A-DC12	A-DC13	A-DC14	A-DC15	A-DC16	A-Ph1	A-Ph2	A-Ph3	A-Ph4	A-Ph5	A-Ph6	A-Ph7	A-Ph8	A-Ph9	A-Ph10	A-Ph11	A-Ph12	A-Ph13	A-Ph14	A-Ph15	A-Ph16	B-AC1	B-AC2	B-AC3	B-AC4	B-AC5	B-AC6	B-AC7	B-AC8	B-AC9	B-AC10	B-AC11	B-AC12	B-AC13	B-AC14	B-AC15	B-AC16	B-DC1	B-DC2	B-DC3	B-DC4	B-DC5	B-DC6	B-DC7	B-DC8	B-DC9	B-DC10	B-DC11	B-DC12	B-DC13	B-DC14	B-DC15	B-DC16	B-Ph1	B-Ph2	B-Ph3	B-Ph4	B-Ph5	B-Ph6	B-Ph7	B-Ph8	B-Ph9	B-Ph10	B-Ph11	B-Ph12	B-Ph13	B-Ph14	B-Ph15	B-Ph16	aux-1	digaux	

885.252	1	1	0	256	0.14092	0.16576	0.22284	0.0984	0.20567	0.14	0.096068	0.23868	0.2039	0.066526	0.067949	0.10411	0.17265	0.138	0.042067	0.092334	-2.3083	-2.0208	-2.0958	-2.6437	-1.7313	-2.475	-2.4125	-1.7771	-2.5708	-2.0979	-1.8875	-2.5958	-1.7771	-2.4729	-2.3333	-1.6875	81.628	88.472	341.952	372.570	239.586	119.355	413.772	382.980	318.094	190.735	355.221	372.498	310.154	318.443	320.873	369.683	0.00015784	0.00032414	0.00033477	190.16	1.7317e-06	3.2383e-06	217.22	79.801	3.386e-06	5.6719e-06	89.868	27.914	29.941	11.758	1.9953e-06	9.5591	0.00045599	0.00046449	0.00012957	226.38	5.0607e-06	5.0973e-06	245.34	89.849	5.0998e-06	5.0983e-06	104.42	33.337	39.971	13.308	5.0674e-06	11.934	211.908	336.198	99.502	72.081	410.859	259.974	71.013	78.243	271.827	230.855	74.359	77.426	80.960	86.289	77.878	81.785	-8191	255	
885.348	1	1	0	0	0.050777	0.073646	0.11588	0.061359	0.039336	0.27599	0.1221	0.14831	0.14463	0.14022	0.32193	0.2491	0.11673	0.2629	0.13299	0.15496	-2.0521	-2.1417	-1.8042	-2.5375	-1.8396	-2.2812	-2.2958	-1.7812	-2.3833	-2.275	-1.8813	-2.6167	-1.9542	-1.9708	-2.6917	-1.6417	398.890	164.246	286.677	312.191	247.316	137.648	406.550	93.057	150.812	370.572	160.810	340.267	352.047	141.575	262.645	404.592	0.00012878	0.00039262	8.3489e-06	192.5	1.3947e-06	4.4945e-06	218.62	80.204	1.2909e-06	2.1424e-06	89.313	27.273	30.414	11.613	3.7667e-06	9.595	0.00045366	0.00046115	0.00013084	226.6	5.1159e-06	5.0718e-06	245.59	89.659	5.133e-06	5.0912e-06	104.08	33.105	39.743	13.279	5.121e-06	11.915	142.082	160.506	89.653	72.627	220.309	374.222	70.281	77.764	388.160	328.318	74.182	77.613	81.940	86.126	263.797	80.809	-8191	255	
885.444	1	1	0	0	0.12661	0.2146	0.27637	0.31939	0.069506	0.28703	0.12181	0.15606	0.094584	0.071309	0.05054	0.12519	0.14248	0.14882	0.065228	0.267	-2.1229	-2.1625	-2.025	-2.6292	-2.0854	-2.1979	-2.625	-1.8854	-2.4792	-2.55	-2.0042	-2.7333	-2.025	-1.95	-2.5604	-1.9292	281.309	191.066	103.714	80.165	215.259	333.206	66.400	260.886	297.197	336.239	273.100	95.647	169.718	275.041	396.162	220.222	7.7093e-05	0.00017348	0.00023634	194.16	3.6557e-06	8.5836e-06	217.26	79.584	7.6565e-06	1.6154e-06	89.629	27.129	29.806	11.645	2.6676e-06	9.4667	0.00045212	0.00046127	0.00012807	226.25	5.0572e-06	5.0714e-06	244.66	89.287	5.0633e-06	5.041e-06	103.48	32.905	39.664	13.207	5.0241e-06	11.827	136.804	280.358	65.400	72.341	408.718	188.333	70.299	77.757	102.860	417.064	72.973	77.735	81.759	86.212	236.290	80.882	-8191	255	
885.540	1	1	0	0	0.086244	0.13469	0.063802	0.20279	0.23176	0.2264	0.36806	0.22402	0.30243	0.12049	0.39149	0.15683	0.1388	0.21394	0.077787	0.14054	-1.9792	-2.4083	-2.0104	-2.6937	-2.125	-2.1375	-2.6937	-1.8104	-2.4083	-2.5958	-1.9208	-2.5312	-2.2	-1.9833	-2.7062	-2.1833	192.968	333.176	370.319	399.991	297.812	208.556	416.060	216.857	274.494	325.256	196.500	353.473	385.706	79.250	346.870	316.055	5.0761e-05	0.00045308	0.00015861	194.01	1.6752e-06	6.9349e-06	216.29	80.018	5.5313e-07	6.8387e-06	89.476	27.002	29.372	11.437	1.6494e-05	9.3101	0.00045377	0.00046447	0.00012826	226.76	5.0748e-06	5.0473e-06	243.14	89.405	5.0573e-06	5.0484e-06	103.74	32.876	39.374	13.14	5.0764e-06	11.835	162.759	85.111	176.310	72.583	240.640	267.846	70.804	78.274	373.429	406.258	73.806	78.497	81.582	86.505	374.396	81.162	-8191	255	
885.636	1	1	0	0	0.22251	0.17997	0.27163	0.095407	0.016934	0.21659	0.16075	0.075433	0.03698	0.09589	0.11008	0.23408	0.096193	0.20488	0.064038	0.11135	-1.7833	-2.425	-1.6979	-2.4271	-2.2833	-2.0271	-2.7583	-1.8521	-2.1188	-2.575	-1.7396	-2.55	-2.3688	-1.85	-2.5604	-2.1458	143.324	217.893	74.949	398.054	153.769	247.754	146.719	136.249	65.940	350.373	223.430	95.522	398.852	114.540	411.305	83.425	0.00016966	0.00032573	6.5984e-05	192.66	7.5752e-06	8.3842e-06	218.59	79.847	1.1118e-06	4.8655e-06	90.684	27.656	29.895	11.676	6.1138e-06	9.6647	0.00044903	0.00046503	0.00012824	227.5	5.086e-06	5.0417e-06	244.89	89.718	5.0439e-06	5.0602e-06	104.14	33.218	39.867	13.214	5.0949e-06	11.905	143.379	342.132	281.648	72.504	107.625	288.086	70.823	78.269	140.167	66.343	74.162	77.480	81.513	85.959	264.256	80.857	-8191	255	
885.732	1	1	0	0	0.14707	0.38418	0.26175	0.034474	0.15905	0.1776	0.17192	0.14801	0.3377	0.19734	0.15287	0.29515	0.16058	0.28614	0.22514	0.10537	-1.5854	-2.6562	-1.9125	-2.3625	-2.2208	-1.7667	-2.5771	-2.2125	-1.9312	-2.6437	-1.9312	-2.5354	-2.5729	-2.0042	-2.5958	-2.15	238.371	325.046	83.497	408.421	194.943	352.558	231.993	256.301	102.255	261.185	214.901	384.764	199.493	270.325	222.741	70.226	9.5333e-05	0.00054981	6.4981e-05	194.74	1.4552e-06	5.0664e-06	219.71	80.563	4.4451e-06	2.3672e-06	88.41	27.206	29.853	11.717	3.5657e-06	9.3179	0.00044829	0.00046349	0.00012776	226.65	5.0484e-06	5.0254e-06	245.02	89.661	5.0667e-06	5.0321e-06	103.44	32.858	39.815	13.218	5.0978e-06	11.831	132.567	122.395	396.579	73.539	391.773	290.653	70.906	77.622	315.162	254.508	73.831	78.659	81.358	85.791	368.459	80.979	-8191	255	
885.853	1	1	0	0	0.20665	0.1262	0.2217	0.21843	0.12794	0.13204	0.1301	0.052007	0.17723	0.093606	0.045292	0.15639	0.097512	0.16838	0.27512	0.11117	-1.6521	-2.7083	-1.6979	-2.3625	-2.4729	-1.7125	-2.6063	-2.1417	-2.0146	-2.7146	-2.0312	-2.3229	-2.7271	-1.7229	-2.6521	-2.3375	346.067	181.664	189.278	62.303	68.900	318.012	237.697	159.773	359.425	98.007	207.934	118.644	223.059	350.406	111.593	105.163	8.2561e-05	0.00052933	0.00020023	192.96	1.6841e-06	3.0951e-06	218.99	79.889	1.3514e-06	2.0918e-06	88.976	27.365	29.866	11.689	1.7297e-06	9.5245	0.00045285	0.00046629	0.00012929	226.71	5.08e-06	5.1161e-06	244.92	89.479	5.0932e-06	5.0902e-06	103.4	32.911	39.91	13.165	5.0518e-06	11.895	249.134	68.192	160.177	73.035	293.789	129.467	70.944	77.884	211.125	133.545	74.290	78.177	81.205	85.859	140.001	81.505	-8191	255	
885.925	1	1	0	0	0.15241	0.058195	0.29169	0.17377	0.42685	0.2372	0.16503	0.11395	0.2201	0.29394	0.24062	0.19077	0.18746	0.26491	0.2765	0.14765	-1.3729	-2.6896	-1.8917	-2.2354	-2.5687	-1.95	-2.6625	-2.1937	-1.8458	-2.65	-2.05	-2.1979	-2.6958	-1.7542	-2.4271	-2.5354	259.010	296.745	282.865	273.499	255.419	86.840	107.813	370.289	194.758	321.297	418.344	412.675	308.534	154.413	62.805	288.163	7.7643e-05	0.00047883	0.00018	193.32	7.6673e-06	2.562e-06	215.23	79.291	1.6934e-06	2.6387e-06	88.805	27.539	29.588	11.709	2.2913e-06	9.5279	0.00044727	0.00046195	0.00012912	226.08	5.0838e-06	5.0626e-06	244.36	89.504	5.0409e-06	5.0919e-06	103.36	33.088	39.824	13.249	5.0891e-06	11.908	172.707	403.101	76.170	72.662	244.855	101.013	70.993	78.094	98.896	138.234	74.005	78.136	80.969	86.945	187.991	81.765	-8191	255	
886.021	1	1	0	0	0.24732	0.2342	0.15176	0.10766	0.19413	0.11963	0.15744	0.41367	0.10179	0.095921	0.16601	0.075029	0.11677	0.1573	0.066462	0.26079	-1.4333	-2.3688	-2.0833	-1.9583	-2.5521	-1.9667	-2.3792	-2.3146	-1.8271	-2.6229	-2.1271	-1.9104	-2.6104	-1.9542	-2.4667	-2.6937	180.224	94.061	150.205	410.254	373.931	412.848	82.666	377.496	121.243	110.638	314.776	136.626	62.037	224.538	324.018	114.443	0.00010685	0.00059822	5.4405e-05	194.17	6.7396e-07	4.7669e-06	219.97	80.627	4.3242e-06	5.0157e-06	89.019	27.284	29.686	11.749	6.2631e-06	9.6426	0.00045016	0.00046703	0.0001291	227.48	5.0666e-06	5.075e-06	245.7	90.062	5.0794e-06	5.0927e-06	104.26	33.081	39.838	13.277	5.0818e-06	11.963	198.354	101.366	211.428	72.762	330.140	77.533	70.744	77.904	210.705	363.247	73.785	77.440	81.762	86.322	189.332	81.630	-8191	255	
886.142	1	1	0	0	0.24411	0.10716	0.13847	0.096966	0.29636	0.16134	0.10171	0.1982	0.1398	0.14208	0.15451	0.12011	0.062913	0.067041	0.06554	0.23935	-1.4542	-2.4729	-1.9562	-1.8479	-2.6917	-1.8729	-2.1354	-2.5875	-1.7208	-2.5417	-2.3354	-2.1604	-2.4708	-2.0438	-2.0687	-2.5104	103.732	111.870	212.904	364.960	248.317	101.913	121.836	144.274	309.888	216.846	220.184	91.861	309.021	410.111	206.667	306.145	0.00010666	0.00058963	0.00011952	194.96	1.9988e-06	3.1829e-06	219.12	79.961	1.5295e-06	4.2954e-06	89.912	27.044	29.956	11.603	6.6996e-06	9.5831	0.00045195	0.00046752	0.00012993	227.37	5.0845e-06	5.0716e-06	244.18	90.185	5.0763e-06	5.0912e-06	104.18	32.98	39.823	13.236	5.0519e-06	11.948	181.470	153.859	158.884	72.942	313.042	154.951	70.645	78.141	240.868	211.301	72.687	77.459	82.270	85.674	326.035	81.943	-8191	255	
886.236	1	1	0	0	0.39325	0.11223	0.21209	0.032807	0.19569	0.099286	0.064617	0.22401	0.10993	0.16314	0.064996	0.11033	0.070758	0.24256	0.23285	0.17321	-1.3833	-2.5458	-2.3458	-1.8604	-2.6458	-2.0229	-2	-2.6937	-1.7417	-2.2146	-2.3458	-1.8188	-2.4833	-2.1542	-1.9937	-2.8625	123.952	79.539	352.214	164.569	287.803	260.285	291.640	253.820	61.630	249.153	307.738	165.057	154.565	214.605	334.707	382.983	0.00010278	0.00047932	8.389e-05	194.11	5.5299e-06	2.068e-06	217.26	80.859	4.0079e-06	6.6604e-07	89.686	27.558	30.228	11.893	5.0544e-06	9.5304	0.00044978	0.00046322	0.00012884	227.34	5.1138e-06	5.0739e-06	244.8	90.316	5.1168e-06	5.1381e-06	104.41	33.269	40.081	13.351	5.0951e-06	11.929	170.248	312.047	73.758	72.580	397.833	235.743	70.972	78.194	179.979	168.081	74.135	78.123	82.207	86.729	93.203	81.806	-8191	255	
886.332	1	1	0	0	0.077036	0.14635	0.17853	0.055442	0.064808	0.086396	0.22355	0.12528	0.05741	0.24497	0.15396	0.25297	0.24164	0.11683	0.19451	0.25155	-1.3396	-2.3021	-2.4417	-1.8208	-2.6375	-2.1646	-1.9208	-2.8333	-1.7958	-2.3771	-2.4813	-1.9521	-2.6896	-2.3271	-2.0833	-2.6833	308.191	233.656	262.736	164.650	99.283	409.030	71.251	127.244	413.992	245.299	158.752	350.686	87.073	305.684	321.338	86.697	8.77e-05	0.00028221	0.00014708	195.37	7.4146e-06	1.1535e-06	220.98	81.065	6.2147e-06	3.3484e-06	89.99	27.682	30.16	11.77	4.2218e-06	9.6036	0.00045124	0.00047086	0.00013081	227.03	5.1994e-06	5.1548e-06	247.04	90.387	5.102e-06	5.1306e-06	104.51	33.365	39.911	13.346	5.0857e-06	11.991	83.627	250.211	128.442	72.602	292.765	290.719	71.312	78.138	221.094	202.803	73.192	79.026	81.830	86.367	111.363	81.206	-8191	255	
886.430	1	1	0	0	0.11939	0.20058	0.19414	0.016694	0.10745	0.24745	0.06397	0.13946	0.10691	0.092883	0.22048	0.2453	0.054686	0.15383	0.10295	0.17328	-1.4021	-2.2958	-2.5854	-1.8729	-2.5896	-2.3375	-2.0792	-2.8063	-2.0896	-2.3167	-2.5958	-1.9292	-2.4458	-2.4625	-1.7854	-2.6333	187.028	263.637	309.586	201.096	291.026	82.751	98.481	151.521	347.487	293.255	243.932	226.735	158.232	196.485	404.640	87.063	7.3348e-05	0.00079593	7.0583e-05	192.45	4.8064e-06	3.174e-06	218.93	79.683	3.2202e-06	2.4607e-06	89.658	27.266	29.833	11.79	5.0315e-06	9.5177	0.00045167	0.00046996	0.0001301	227.42	5.1489e-06	5.1674e-06	245.93	90.03	5.0733e-06	5.133e-06	104.64	33.168	39.871	13.317	5.1181e-06	11.906	144.290	264.184	348.012	72.553	170.963	118.395	70.968	78.103	372.233	199.255	73.777	77.328	82.170	86.305	184.607	80.987	-8191	255	
886.549	1	1	0	0	0.047617	0.1036	0.29248	0.093765	0.10353	0.14478	0.15089	0.16755	0.19617	0.1903	0.22232	0.20203	0.17497	0.087083	0.22935	0.20294	-1.6146	-1.9771	-2.7604	-1.9312	-2.6104	-2.4396	-1.8792	-2.7562	-2.2271	-1.975	-2.6937	-1.9917	-2.4708	-2.5604	-1.6729	-2.7438	301.810	121.118	307.680	61.120	162.202	76.324	206.543	375.993	292.512	365.165	130.005	216.252	233.272	325.912	359.724	135.344	0.00015333	0.00034497	0.00010321	192.65	4.9304e-06	3.4155e-06	215.9	80.457	1.5804e-06	6.4277e-06	88.972	27.196	30.064	11.758	2.1792e-06	9.6773	0.00045681	0.00046809	0.00012906	226.55	5.1267e-06	5.1335e-06	244.22	89.722	5.0697e-06	5.0641e-06	104.11	32.943	39.824	13.353	5.0641e-06	11.929	165.363	86.540	210.526	72.257	148.034	299.096	71.024	78.198	339.178	284.911	73.644	78.574	82.461	86.103	272.766	81.815	-8191	255	
886.621	1	1	0	0	0.11917	0.12736	0.17497	0.15832	0.085554	0.24457	0.33309	0.052229	0.23232	0.038618	0.18247	0.26025	0.30409	0.1846	0.14226	0.29901	-1.8271	-2.0229	-2.575	-1.9854	-2.3354	-2.6312	-1.9542	-2.6021	-2.2771	-1.8896	-2.65	-1.9271	-1.9021	-2.7146	-1.7	-2.6417	412.618	122.184	344.582	144.037	190.374	284.170	188.293	173.593	203.139	119.422	269.116	399.156	417.423	404.441	276.716	372.243	4.2771e-05	0.00039075	0.00014675	194.67	6.1032e-06	5.9718e-06	218.63	79.989	3.5903e-06	1.0779e-06	88.97	27.357	30.085	11.768	8.4447e-06	9.5661	0.00044949	0.00046315	0.00012902	226.76	5.1159e-06	5.0811e-06	244.28	89.658	5.0897e-06	5.1155e-06	103.99	33.122	39.938	13.325	5.0729e-06	11.939	122.871	193.893	211.997	72.093	187.173	79.674	70.311	78.443	234.700	217.754	74.325	77.469	83.222	86.471	81.977	81.790	-8191	255	
886.741	1	1	0	0	0.19772	0.13607	0.091889	0.13403	0.1396	0.16197	0.080605	0.13354	0.22253	0.070262	0.14785	0.17714	0.17905	0.26317	0.11555	0.36326	-1.8438	-1.6938	-2.6542	-2.0438	-2.0167	-2.5104	-1.8062	-2.5417	-2.5375	-1.8354	-2.7333	-2.1083	-2.2042	-2.6729	-1.7958	-2.3646	366.488	200.334	379.883	383.898	328.110	376.984	190.214	353.865	232.729	165.348	392.971	335.766	348.240	316.107	351.280	259.791	0.00019062	0.00049696	0.00011764	192.59	4.3192e-06	2.4136e-06	218.78	80.331	5.1826e-06	7.4802e-06	89.893	27.287	30.39	11.784	7.0123e-06	9.4432	0.00045741	0.00046211	0.00012972	226.64	5.0655e-06	5.088e-06	244.6	90.177	5.1161e-06	5.0608e-06	104.16	33.137	40.024	13.339	5.0764e-06	11.93	168.543	323.929	192.018	72.383	134.917	324.842	70.956	77.892	357.105	355.210	75.029	77.772	82.601	86.494	144.460	81.909	-8191	255	
886.837	1	1	0	0	0.15365	0.15045	0.035869	0.13204	0.096505	0.32736	0.096641	0.18283	0.18204	0.24185	0.045023	0.14624	0.32503	0.08334	0.10514	0.13736	-2.1229	-1.7938	-2.5604	-2.2396	-1.9312	-2.6083	-2.0208	-2.4396	-2.4188	-1.8333	-2.6417	-2.2188	-1.8542	-2.7687	-1.8062	-2.2729	355.741	335.814	105.990	319.358	102.003	191.386	147.117	271.761	259.959	103.227	357.264	373.377	402.032	410.947	83.837	325.664	6.0605e-05	0.00049322	0.00024059	193.93	2.29e-06	4.34e-06	217.59	79.23	7.2002e-06	4.4574e-06	88.733	27.403	29.797	11.681	2.3716e-06	9.6033	0.00045604	0.00046227	0.00013053	226.19	5.1113e-06	5.1311e-06	243.5	89.831	5.13e-06	5.0789e-06	103.53	32.925	39.804	13.325	5.1167e-06	11.92	136.856	81.451	273.826	71.990	298.265	341.398	70.837	77.714	374.024	128.653	74.301	77.459	83.470	86.596	395.194	81.643	-8191	255	
886.933	1	1	0	0	0.10034	0.182	0.14389	0.19042	0.02378	0.078264	0.1268	0.17073	0.10349	0.099232	0.26342	0.021615	0.1914	0.20914	0.069806	0.15425	-2.1458	-1.775	-2.5208	-2.2146	-1.8458	-2.6625	-1.9167	-2.2271	-2.5958	-1.7771	-2.6417	-2.4583	-1.9813	-2.6375	-2.1063	-1.9604	349.157	265.920	227.300	102.873	112.649	307.260	134.237	400.142	175.994	242.292	94.291	100.574	324.262	100.876	142.861	92.967	6.3599e-05	0.00042081	0.00014182	192.89	2.6957e-06	5.1801e-06	216.64	79.604	7.8904e-07	1.2183e-06	89.313	27.916	29.708	11.717	8.708e-06	9.6202	0.00045362	0.00046559	0.00013027	226.54	5.0862e-06	5.1013e-06	243.18	89.51	5.1182e-06	5.1029e-06	103.84	32.921	39.903	13.331	5.1503e-06	11.939	155.568	102.800	380.353	72.642	323.503	208.838	71.572	78.136	91.650	112.753	73.729	78.713	81.810	86.272	290.945	81.932	-8191	255	
