BOXY.EXE: ISS Imagent and Oximeter Data Acquisition Program Version 0.80
Ascii Record File

#ACQ INFORMATION
2  Detector Channels 
16  External MUX Channels 
1  Auxiliary Channels 
5000  Waveform (CCF) Frequency (Hz)
1  Waveforms Skipped 
30  Waveforms Averaged 
1  Cycles Averaged 
16  Acquisitions per Waveform 
10.0806  Updata Rate (Hz) 

#FILE INFORMATION
TRUE -- External MUX Channel results are PARSED.
FALSE -- AC DC and Phase are NOT grouped.
TRUE -- Companion Program Settings File CREATED.
FALSE -- AC data not excluded
FALSE -- DC data not excluded
FALSE -- Phase data not excluded
FALSE -- Auxillary Chn. data not excluded
Tab delimiters

#CALIBRATION STATE
TRUE -- Waveform Calibration Values APPLIED.


#AUX CALIBRATION VALUES
Val Type	aux-1	

Term	1.0000e+00	
Factor	0.0000e+00	


#WF CALIBRATION VALUES
A = Detector Channel
Val Type	A-AC1	A-AC2	A-AC3	A-AC4	A-AC5	A-AC6	A-AC7	A-AC8	A-AC9	A-AC10	A-AC11	A-AC12	A-AC13	A-AC14	A-AC15	A-AC16	A-DC1	A-DC2	A-DC3	A-DC4	A-DC5	A-DC6	A-DC7	A-DC8	A-DC9	A-DC10	A-DC11	A-DC12	A-DC13	A-DC14	A-DC15	A-DC16	A-Ph1	A-Ph2	A-Ph3	A-Ph4	A-Ph5	A-Ph6	A-Ph7	A-Ph8	A-Ph9	A-Ph10	A-Ph11	A-Ph12	A-Ph13	A-Ph14	A-Ph15	A-Ph16	

Term	0.00000e+00	0.00000e+00	0.00000e+00	0.00000e+00	0.00000e+00	0.00000e+00	0.00000e+00	0.00000e+00	0.00000e+00	0.00000e+00	0.00000e+00	0.00000e+00	0.00000e+00	0.00000e+00	0.00000e+00	0.00000e+00	0.00000e+00	0.00000e+00	0.00000e+00	0.00000e+00	0.00000e+00	0.00000e+00	0.00000e+00	0.00000e+00	0.00000e+00	0.00000e+00	0.00000e+00	0.00000e+00	0.00000e+00	0.00000e+00	0.00000e+00	0.00000e+00	0.00000e+00	0.00000e+00	0.00000e+00	0.00000e+00	0.00000e+00	0.00000e+00	0.00000e+00	0.00000e+00	0.00000e+00	0.00000e+00	0.00000e+00	0.00000e+00	0.00000e+00	0.00000e+00	0.00000e+00	0.00000e+00	
Factor	1.00000e+00	1.00000e+00	1.00000e+00	1.00000e+00	1.00000e+00	1.00000e+00	1.00000e+00	1.00000e+00	1.00000e+00	1.00000e+00	1.00000e+00	1.00000e+00	1.00000e+00	1.00000e+00	1.00000e+00	1.00000e+00	1.00000e+00	1.00000e+00	1.00000e+00	1.00000e+00	1.00000e+00	1.00000e+00	1.00000e+00	1.00000e+00	1.00000e+00	1.00000e+00	1.00000e+00	1.00000e+00	1.00000e+00	1.00000e+00	1.00000e+00	1.00000e+00	X	X	X	X	X	X	X	X	X	X	X	X	X	X	X	X	

B = Detector Channel
Val Type	B-AC1	B-AC2	B-AC3	B-AC4	B-AC5	B-AC6	B-AC7	B-AC8	B-AC9	B-AC10	B-AC11	B-AC12	B-AC13	B-AC14	B-AC15	B-AC16	B-DC1	B-DC2	B-DC3	B-DC4	B-DC5	B-DC6	B-DC7	B-DC8	B-DC9	B-DC10	B-DC11	B-DC12	B-DC13	B-DC14	B-DC15	B-DC16	B-Ph1	B-Ph2	B-Ph3	B-Ph4	B-Ph5	B-Ph6	B-Ph7	B-Ph8	B-Ph9	B-Ph10	B-Ph11	B-Ph12	B-Ph13	B-Ph14	B-Ph15	B-Ph16	

Term	0.00000e+00	0.00000e+00	0.00000e+00	0.00000e+00	0.00000e+00	0.00000e+00	0.00000e+00	0.00000e+00	0.00000e+00	0.00000e+00	0.00000e+00	0.00000e+00	0.00000e+00	0.00000e+00	0.00000e+00	0.00000e+00	0.00000e+00	0.00000e+00	0.00000e+00	0.00000e+00	0.00000e+00	0.00000e+00	0.00000e+00	0.00000e+00	0.00000e+00	0.00000e+00	0.00000e+00	0.00000e+00	0.00000e+00	0.00000e+00	0.00000e+00	0.00000e+00	-6.21754e+01	-1.29907e+02	-1.24308e+02	-1.80762e+02	-5.26411e+01	-6.17388e+01	-1.54848e+02	-1.62015e+02	-4.22166e+01	-7.04166e+01	-1.70366e+02	-1.69164e+02	-1.78724e+02	-1.75805e+02	-5.78430e+01	-1.48156e+02	
Factor	1.71954e-05	1.67617e-04	4.33893e-05	1.54313e-01	1.43465e-06	1.59009e-06	1.64624e-01	6.03797e-02	1.16268e-06	1.56915e-06	8.76266e-02	2.82588e-02	2.37562e-02	8.66378e-03	1.59200e-06	1.25101e-02	5.98073e-06	7.73180e-06	2.16888e-06	7.96205e-02	8.16941e-08	8.55453e-08	7.98241e-02	3.12165e-02	8.23015e-08	8.55736e-08	4.39271e-02	1.42219e-02	1.24740e-02	4.52282e-03	8.38410e-08	6.30525e-03	X	X	X	X	X	X	X	X	X	X	X	X	X	X	X	X	



#DISTANCE SETTINGS
A = Detector Channel
A-1	A-2	A-3	A-4	A-5	A-6	A-7	A-8	A-9	A-10	A-11	A-12	A-13	A-14	A-15	A-16	

2.5000e+00	3.0000e+00	2.5000e+00	3.0000e+00	2.0000e+00	3.0000e+00	1.5000e+00	3.0000e+00	3.0000e+00	3.0000e+00	3.0000e+00	3.0000e+00	3.0000e+00	3.0000e+00	1.5000e+00	3.0000e+00	

B = Detector Channel
B-1	B-2	B-3	B-4	B-5	B-6	B-7	B-8	B-9	B-10	B-11	B-12	B-13	B-14	B-15	B-16	

1.0000e+01	1.0000e+01	1.0000e+01	1.4400e+00	1.0000e+01	1.0000e+01	1.5100e+00	1.9400e+00	1.0000e+01	1.0000e+01	1.9900e+00	2.4900e+00	2.4100e+00	2.9000e+00	1.0000e+01	2.9800e+00	




#DATA BEGINS
time	group	step	mark	flag	A-AC1	A-AC2	A-AC3	A-AC4	A-AC5	A-AC6	A-AC7	A-AC8	A-AC9	A-AC10	A-AC11	A-AC12	A-AC13	A-AC14	A-AC15	A-AC16	A-DC1	A-DC2	A-DC3	A-DC4	A-DC5	A-DC6	A-DC7	A-DC8	A-DC9	A-DC10	A-DC11	A-DC12	A-DC13	A-DC14	A-DC15	A-DC16	A-Ph1	A-Ph2	A-Ph3	A-Ph4	A-Ph5	A-Ph6	A-Ph7	A-Ph8	A-Ph9	A-Ph10	A-Ph11	A-Ph12	A-Ph13	A-Ph14	A-Ph15	A-Ph16	B-AC1	B-AC2	B-AC3	B-AC4	B-AC5	B-AC6	B-AC7	B-AC8	B-AC9	B-AC10	B-AC11	B-AC12	B-AC13	B-AC14	B-AC15	B-AC16	B-DC1	B-DC2	B-DC3	B-DC4	B-DC5	B-DC6	B-DC7	B-DC8	B-DC9	B-DC10	B-DC11	B-DC12	B-DC13	B-DC14	B-DC15	B-DC16	B-Ph1	B-Ph2	B-Ph3	B-Ph4	B-Ph5	B-Ph6	B-Ph7	B-Ph8	B-Ph9	B-Ph10	B-Ph11	B-Ph12	B-Ph13	B-Ph14	B-Ph15	B-Ph16	aux-1	digaux	

755.515	1	1	0	256	0.075708	0.29901	0.10919	0.14614	0.13031	0.1987	0.025963	0.29313	0.18017	0.201	0.16987	0.21411	0.21381	0.072123	0.348	0.28083	-1.425	-2.1708	-2.3854	-1.9	-2.3771	-2.2417	-2.1417	-2.2562	-2.0229	-2.0042	-2.4521	-1.9417	-2.425	-2.3083	-1.6771	-2.4729	66.940	383.649	107.261	364.040	142.553	177.724	236.164	67.520	262.694	219.501	210.328	359.843	318.013	101.392	61.030	268.100	0.00053315	0.00060228	0.00034144	561.62	6.0602e-06	7.8752e-06	676.89	209.27	4.1264e-06	2.9129e-06	296.49	125.11	88.521	44.643	9.5932e-06	68.107	0.00086313	0.00086234	0.00024308	555.14	8.8939e-06	9.7841e-06	670.83	208.65	9.9638e-06	9.5694e-06	296.92	125.14	88.798	44.752	1.0151e-05	67.906	228.773	105.557	108.763	66.986	210.604	185.019	66.834	73.332	256.770	167.390	71.837	76.514	78.590	82.267	227.776	79.750	-8191	255	
755.636	1	1	0	0	0.17457	0.049612	0.17877	0.18593	0.22435	0.19307	0.32518	0.15839	0.073184	0.1804	0.31854	0.24343	0.31141	0.095747	0.38907	0.17688	-1.7479	-1.9521	-2.3083	-2.0354	-2.0917	-2.3521	-1.9729	-2.3812	-2.1562	-1.8479	-2.5	-1.9896	-2.1083	-2.425	-2.0167	-2.5271	86.132	188.540	280.939	332.755	257.675	327.515	346.279	398.761	381.815	166.914	321.814	58.908	68.980	312.318	166.854	398.974	0.00048591	0.00034942	6.9465e-05	558.12	3.2804e-06	3.4097e-06	677.15	208.57	5.5038e-06	6.81e-06	299.39	125.39	88.755	44.505	6.6761e-06	68.16	0.00086066	0.00088624	0.00025159	553.46	9.3361e-06	1.0024e-05	669.76	208.8	9.7968e-06	9.7401e-06	298.05	125.38	88.868	44.653	1.0088e-05	68.02	223.258	95.588	151.494	67.375	253.527	207.468	66.840	73.200	225.737	145.559	71.331	76.426	78.627	82.502	251.336	79.570	-8191	255	
755.732	1	1	0	0	0.12504	0.18284	0.071666	0.13658	0.17924	0.082471	0.098829	0.071533	0.0967	0.20412	0.2083	0.11734	0.25869	0.28198	0.14133	0.078921	-1.6063	-1.9125	-2.4437	-2.1833	-2.1688	-2.4	-2.2271	-2.4667	-2.2104	-1.9771	-2.5021	-2.3312	-2.0208	-2.525	-1.9937	-2.4021	237.037	331.925	61.290	407.884	173.972	55.601	167.712	102.036	64.214	217.770	337.027	278.990	69.988	409.756	166.267	317.606	0.00054303	0.00079965	0.00014344	558.81	3.6993e-06	3.2045e-06	679.83	211.17	2.5448e-06	4.4653e-06	297.81	125.83	88.832	44.644	1.9362e-06	68.474	0.00085982	0.0009133	0.00025724	554.74	9.6322e-06	1.0281e-05	673.3	210.36	1.0134e-05	1.0574e-05	298.07	125.85	89.141	44.945	1.0828e-05	68.245	228.986	126.447	166.338	67.043	239.148	196.287	66.831	73.492	242.752	193.916	71.735	76.383	78.293	82.128	264.347	79.767	-8191	255	
755.804	1	1	0	0	0.22496	0.18128	0.18324	0.22261	0.14592	0.16412	0.12461	0.11645	0.19089	0.071532	0.1691	0.21172	0.22323	0.50589	0.12851	0.29616	-1.825	-2.175	-2.4208	-1.9958	-2.0896	-2.3167	-2.1583	-2.2417	-2.2313	-1.8958	-2.225	-2.4562	-2.1479	-2.2708	-1.8875	-2.3187	154.997	119.383	75.609	384.575	357.008	156.314	399.906	121.506	147.946	328.051	287.116	350.028	354.046	70.314	348.513	330.866	0.0005442	0.00075932	0.00012563	559.61	6.3645e-06	5.8431e-06	679.06	209.66	2.9084e-06	4.7219e-06	302.3	127.07	89.322	44.762	9.9595e-06	69.161	0.00087148	0.00093787	0.00026084	557.2	9.8428e-06	1.0532e-05	673.88	210.9	1.0232e-05	1.0813e-05	300.39	126.95	89.776	45.234	1.0894e-05	68.811	223.067	177.446	175.825	67.397	168.016	202.015	67.109	73.350	203.292	156.751	71.722	76.353	78.628	82.248	206.889	79.754	-8191	255	
755.900	1	1	0	0	0.11522	0.13837	0.16498	0.21198	0.33911	0.062749	0.2272	0.11742	0.22867	0.087145	0.2363	0.35515	0.12369	0.117	0.18362	0.12762	-1.7521	-1.8125	-2.2125	-2.1979	-1.9667	-2.4167	-2.1021	-2.1	-2.2125	-1.7812	-2.2771	-2.0521	-2.1354	-2.6813	-1.9792	-2.2	175.116	207.419	155.955	323.389	258.827	202.390	340.217	372.825	283.270	278.044	360.421	357.474	300.914	332.427	395.007	57.868	0.00054454	0.00063234	4.1019e-05	561.86	5.4629e-06	6.2233e-06	686.87	210.89	2.3116e-06	2.2862e-06	302.24	125.95	88.736	44.679	7.5693e-06	68.46	0.00091832	0.00099157	0.00026591	558.86	1.0207e-05	1.0908e-05	677.33	211.07	1.0588e-05	1.1293e-05	301.29	126.65	89.419	44.893	1.1054e-05	68.139	218.914	169.472	268.951	67.078	198.269	232.407	66.528	73.515	265.658	166.277	71.352	76.398	78.608	82.451	189.526	79.798	-8191	255	
756.021	1	1	0	0	0.16927	0.22024	0.2193	0.19389	0.041741	0.099989	0.2107	0.056439	0.0048473	0.3161	0.12646	0.17201	0.15266	0.34103	0.10742	0.07357	-1.875	-1.9937	-2.325	-2.2396	-1.9146	-2.3688	-2.0417	-2.3438	-2.4	-2.0125	-2.2771	-2.3542	-2.0021	-2.6063	-2.0062	-2.2417	222.682	340.989	195.542	407.731	122.208	332.085	89.606	86.622	170.820	140.259	127.950	349.651	160.937	353.212	161.887	309.282	0.00051978	0.00062933	7.4767e-05	556.66	3.2456e-06	6.7157e-06	675.65	208.77	5.9336e-06	4.1352e-06	297.41	125.4	87.459	43.885	6.9261e-07	67.513	0.00090322	0.0010094	0.00027285	553.32	1.0733e-05	1.0778e-05	670	208.4	1.0406e-05	1.1443e-05	297.28	124.87	88.233	44.22	1.1425e-05	67.322	223.472	173.677	168.902	67.157	176.709	181.795	67.170	73.512	197.731	198.164	71.758	76.375	78.376	82.663	203.977	79.668	-8191	255	
756.117	1	1	0	0	0.12081	0.11569	0.34268	0.261	0.37357	0.15082	0.36389	0.094855	0.19463	0.19585	0.12092	0.1785	0.23506	0.1996	0.10644	0.19928	-1.8333	-1.8771	-2.0229	-2.3083	-2.0271	-2.3354	-2.2375	-2.0917	-2.3146	-2.0896	-2.0458	-2.3042	-2.0667	-2.475	-2.3521	-2.0875	155.874	308.984	239.449	385.818	56.690	189.618	387.607	231.025	341.522	142.863	94.773	109.115	76.025	371.986	79.362	222.934	0.00055643	0.0011119	0.00014239	552.2	7.0103e-06	5.1998e-06	671.88	206.69	2.678e-06	2.5815e-06	294.14	124.69	87.244	43.704	6.5296e-06	66.875	0.00094235	0.001056	0.00028121	551.32	1.0919e-05	1.0965e-05	665.93	206.73	1.083e-05	1.1841e-05	294.8	124.22	87.533	44.054	1.1556e-05	67.047	225.653	117.540	148.504	67.182	229.857	232.395	66.717	73.224	235.570	177.690	71.593	76.337	78.713	82.509	206.897	79.813	-8191	255	
756.213	1	1	0	0	0.052455	0.11948	0.19173	0.16214	0.050458	0.093663	0.21277	0.33281	0.25129	0.31366	0.11138	0.066751	0.14475	0.19895	0.29535	0.06957	-1.9312	-1.7583	-1.9062	-2.4542	-1.9562	-2.3312	-2.2229	-2.0333	-2.4979	-2.1521	-2.1854	-2.3625	-1.8333	-2.35	-2.1667	-2.0833	132.566	384.835	254.829	59.976	113.225	356.854	62.083	361.951	353.693	343.643	301.974	278.957	282.696	322.889	77.274	118.143	0.00052535	0.00065342	0.00018355	551.6	7.0083e-06	2.9974e-06	673.82	205.67	2.4923e-06	1.3127e-06	295.66	123.72	87.072	43.71	4.9868e-06	67.206	0.00094148	0.001073	0.00029073	549.49	1.1491e-05	1.1503e-05	667.53	206.36	1.1107e-05	1.1581e-05	295.06	123.82	87.692	44.002	1.1479e-05	67.228	221.513	181.570	137.114	67.435	236.337	238.684	66.801	73.476	280.806	222.331	71.807	76.642	78.656	82.702	194.946	79.688	-8191	255	
756.333	1	1	0	0	0.3433	0.21509	0.23336	0.072604	0.25956	0.23028	0.34991	0.24505	0.23681	0.23483	0.12981	0.12436	0.073827	0.15652	0.28922	0.25167	-1.7875	-2.2021	-2.1063	-2.4771	-1.8146	-2.3042	-2.2979	-1.95	-2.3688	-2.2625	-1.8667	-2.2833	-2.0458	-2.0375	-2.0917	-2.1042	391.224	408.620	327.596	136.796	243.011	68.815	354.833	333.032	146.121	62.158	343.286	377.710	353.796	55.821	229.073	395.649	0.00056589	0.00031749	8.5392e-05	552.71	3.8527e-06	5.9068e-06	675.67	206.36	8.9251e-06	4.7049e-06	299.19	124.63	87.659	44.266	5.6675e-06	68.228	0.00092055	0.0010615	0.00028467	550.53	1.1017e-05	1.1035e-05	669.42	207.46	1.0949e-05	1.1274e-05	298.01	125	88.219	44.392	1.1031e-05	67.953	221.911	114.844	154.299	67.232	258.927	203.950	67.194	73.353	228.805	213.135	72.013	76.540	78.568	82.411	213.055	79.610	-8191	255	
756.405	1	1	0	0	0.30799	0.16232	0.24677	0.16715	0.29242	0.26673	0.084494	0.17044	0.20105	0.042798	0.15462	0.19395	0.2143	0.16286	0.34595	0.21	-1.725	-2.3187	-2.0312	-2.475	-2.1917	-2.1542	-2.6229	-1.8625	-2.2917	-2.2896	-2.1146	-2.4854	-2.0563	-2.1771	-2.3958	-1.9188	79.721	267.472	234.507	294.657	383.723	182.802	301.095	78.647	390.096	352.943	143.394	146.490	395.750	307.138	62.431	179.503	0.00051054	0.00024975	0.00014369	551.5	3.0945e-06	4.6201e-06	674.94	206.78	3.2137e-06	4.2788e-06	294.15	124.83	86.923	43.649	9.1653e-06	66.912	0.00090685	0.001029	0.00027669	550.27	1.0847e-05	1.0586e-05	667.87	206.66	1.0315e-05	1.0907e-05	294.82	124.35	87.532	43.894	1.0677e-05	66.98	227.325	118.548	162.952	67.453	159.348	227.584	66.691	73.760	225.878	202.868	71.812	76.282	78.761	82.539	210.953	79.492	-8191	255	
756.501	1	1	0	0	0.21291	0.12602	0.27191	0.16837	0.0086678	0.18003	0.090674	0.086013	0.17871	0.24705	0.082659	0.15987	0.10278	0.23894	0.08458	0.38967	-1.6958	-2.1979	-1.9333	-2.4604	-2.0167	-2.1104	-2.5062	-2.0146	-2.1958	-2.3417	-2.0812	-2.6771	-2.3125	-2.1312	-2.3187	-2	263.668	126.369	195.971	256.462	185.114	327.813	199.164	203.954	110.781	63.389	281.809	309.015	75.229	364.705	284.843	350.945	0.00048578	0.00043078	0.00020134	549.44	4.0439e-06	4.3137e-06	671.36	203.78	4.8497e-06	3.6587e-06	294.72	123.54	86.74	43.571	6.6386e-06	67.146	0.00089697	0.00098556	0.00027907	546.74	1.0908e-05	1.0398e-05	663.24	204.73	9.9489e-06	1.0568e-05	293.86	123.38	86.98	43.753	1.0308e-05	67.035	227.488	140.324	150.852	67.141	220.665	177.686	66.768	73.557	197.029	209.504	71.538	76.539	78.528	82.501	181.262	79.663	-8191	255	
756.620	1	1	0	0	0.50422	0.19316	0.12821	0.16465	0.27899	0.16257	0.021988	0.19516	0.18765	0.20642	0.17577	0.14867	0.052802	0.3842	0.14928	0.13509	-1.7667	-2.2542	-1.9083	-2.3375	-1.9896	-1.9312	-2.4688	-1.8646	-2.1146	-2.3937	-1.975	-2.4542	-2.2271	-2.2438	-2.2625	-2.0875	155.701	119.336	317.145	349.981	357.843	198.726	356.910	316.311	57.948	230.975	362.517	174.683	376.304	389.938	397.516	57.889	0.00051498	0.00049862	0.00012427	550.9	5.2764e-06	6.076e-06	675.57	205.33	6.6464e-06	4.1026e-06	295.41	123.98	86.421	43.556	8.0626e-06	67.161	0.00085569	0.00093018	0.00026555	546.75	1.0236e-05	1.0043e-05	666.17	205.86	9.5353e-06	9.8588e-06	294.64	123.91	87.035	43.856	9.9956e-06	67.019	225.040	138.917	213.982	67.347	241.695	200.093	66.686	73.589	260.655	181.917	71.649	76.524	78.654	82.477	237.435	79.727	-8191	255	
756.716	1	1	0	0	0.18706	0.1112	0.16753	0.075167	0.20886	0.038842	0.17597	0.09206	0.06142	0.16162	0.26652	0.25186	0.20578	0.21993	0.25361	0.31214	-1.8083	-2.3438	-1.9375	-2.2333	-2.1375	-2.0625	-2.4833	-2.05	-2.0125	-2.2021	-1.65	-2.2854	-2.1083	-2.0021	-2.2792	-2.0812	76.526	272.221	135.619	118.761	325.141	353.834	261.010	66.771	269.653	385.594	67.148	172.707	240.421	60.993	106.226	304.151	0.00052345	0.00061746	0.00014715	548.52	6.3556e-06	4.0427e-06	674.86	206.45	4.0696e-06	2.7931e-06	294.16	123.74	86.663	43.661	3.1342e-06	67.429	0.00082753	0.00090225	0.0002622	545.89	9.8264e-06	9.9628e-06	665.81	205.98	9.5658e-06	9.8978e-06	294.08	123.9	87.098	43.92	9.6983e-06	67.218	224.484	138.303	180.114	67.335	236.071	229.731	66.843	73.449	217.889	176.203	71.766	76.931	78.634	82.644	199.658	79.670	-8191	255	
756.812	1	1	0	0	0.11304	0.17636	0.063339	0.22871	0.15019	0.010603	0.15259	0.16884	0.31005	0.078237	0.16431	0.16805	0.16605	0.16253	0.21158	0.18376	-1.4521	-2.375	-1.9813	-2.0333	-2.2396	-2.0083	-2.4313	-2.1146	-1.85	-2.2854	-1.9042	-2.3083	-2.4125	-1.9625	-2.3354	-2.2083	66.518	166.438	87.832	397.217	337.109	312.517	317.165	288.158	88.569	203.243	204.100	324.945	405.278	396.417	217.099	345.363	0.00051384	0.00037276	0.00012954	550.79	6.8376e-06	3.732e-06	675.34	205.3	4.6088e-06	4.6544e-06	295.5	125.38	87.143	43.717	5.852e-06	67.308	0.00083177	0.0009082	0.00025645	547.78	9.6002e-06	1.0001e-05	666.13	205.47	9.4967e-06	9.7795e-06	294.74	124.31	87.239	43.941	9.4553e-06	67.311	229.690	117.466	83.340	67.469	187.103	234.111	67.311	73.483	235.633	162.590	71.453	76.682	78.888	82.488	252.583	79.558	-8191	255	
756.933	1	1	0	0	0.46025	0.20959	0.056813	0.1383	0.19798	0.3091	0.13444	0.070455	0.12075	0.19948	0.21173	0.038611	0.12566	0.31695	0.16905	0.037612	-1.3625	-2.4583	-2.0917	-1.9875	-2.3604	-2.1063	-2.5125	-2.3479	-2.1771	-2.3312	-1.9188	-2.0396	-2.2917	-1.8271	-2.1208	-2.3083	208.941	322.462	345.217	120.717	142.791	57.134	385.308	412.913	410.457	239.377	192.609	356.830	282.008	100.437	178.118	227.933	0.00055912	0.00067052	0.00019147	549.83	1.179e-06	3.172e-06	669.6	205.63	2.7424e-06	3.739e-06	294.99	124.32	87.134	43.94	6.7404e-06	67.307	0.00081299	0.00083371	0.00024879	547.03	9.0789e-06	9.6345e-06	662.96	205.31	9.0489e-06	9.2411e-06	294.1	123.9	87.326	44.088	9.0452e-06	67.322	226.836	162.953	135.689	67.344	111.866	120.292	66.953	73.072	263.092	236.423	72.007	76.617	78.687	82.390	206.512	79.661	-8191	255	
757.029	1	1	0	0	0.27776	0.28357	0.079555	0.098467	0.17314	0.20366	0.11657	0.32373	0.26573	0.19937	0.13346	0.19761	0.15809	0.067422	0.10769	0.13065	-1.5896	-2.2833	-1.9208	-2.0938	-2.4167	-1.9813	-2.1917	-2.2854	-1.8375	-2.2417	-2.1646	-1.8813	-2.2167	-2.1292	-2.1771	-2.2167	242.768	147.458	69.675	332.754	104.764	309.857	92.798	397.843	286.285	242.227	300.393	177.141	142.814	348.848	246.838	289.090	0.00050787	0.00014818	0.0002345	553.76	3.2549e-06	3.6249e-06	677.36	206.34	3.1843e-06	5.9957e-06	295.32	124.8	87.382	44.237	9.7244e-06	67.61	0.00079236	0.00080176	0.0002447	547.88	8.6426e-06	9.3654e-06	665.99	206.28	8.5621e-06	8.7109e-06	295.26	124.15	87.58	44.355	8.7319e-06	67.576	227.033	183.695	144.285	67.036	216.256	228.222	66.922	73.639	224.277	204.991	72.025	76.357	78.863	82.497	224.697	80.005	-8191	255	
757.101	1	1	0	0	0.11831	0.56315	0.044906	0.078727	0.053056	0.082803	0.11348	0.30764	0.2057	0.19755	0.17649	0.081613	0.36129	0.099414	0.20411	0.19836	-1.3021	-2.1875	-1.8937	-2.0146	-2.3354	-1.8771	-2.1854	-2.2896	-1.8333	-2.2958	-2.125	-1.8646	-2.4854	-2.0667	-2.175	-2.325	87.255	139.763	273.801	288.491	219.976	191.271	138.614	308.726	395.273	246.104	348.968	329.850	390.142	194.254	405.412	333.469	0.00053155	0.00059986	0.0001569	555.76	4.9111e-06	6.7492e-06	677.5	207.26	3.8283e-06	2.6378e-06	298.5	125.13	87.626	44.291	8.4349e-06	67.728	0.0007873	0.00079605	0.00023216	548.75	8.4708e-06	9.1852e-06	665.66	206.95	8.8186e-06	8.974e-06	295.55	124.66	87.974	44.434	8.8496e-06	67.623	225.083	138.527	154.855	67.215	225.478	218.480	66.916	73.422	204.831	150.227	71.795	76.585	78.832	82.440	230.936	79.675	-8191	255	
757.197	1	1	0	0	0.10978	0.14033	0.037346	0.044096	0.065563	0.23751	0.22722	0.1705	0.16723	0.50696	0.14606	0.15973	0.14513	0.12043	0.054268	0.14049	-1.4042	-2.1646	-1.975	-1.9021	-2.3208	-2.0375	-2.0458	-2.4	-1.7833	-2.4083	-2.3333	-2.0375	-2.4833	-2.1396	-1.9271	-2.3521	284.358	127.706	192.428	178.016	401.148	108.700	245.718	316.091	69.328	110.230	114.946	338.928	298.129	67.132	350.940	352.638	0.00058187	0.00032969	0.00010774	552.53	7.6804e-06	2.0094e-06	678.57	206.85	3.6906e-06	3.9013e-06	296.89	124.66	87.572	44.431	5.7453e-06	67.815	0.00080866	0.0008143	0.00023001	549.34	8.7016e-06	9.4595e-06	669.16	207.02	9.1471e-06	9.1917e-06	296.45	124.57	87.864	44.508	8.9444e-06	67.699	224.256	105.625	177.786	67.035	193.727	271.591	66.984	73.214	223.577	223.826	71.859	76.480	78.829	82.454	227.688	79.650	-8191	255	
