BOXY.EXE: ISS Imagent and Oximeter Data Acquisition Program Version 0.80
Ascii Record File

#ACQ INFORMATION
2  Detector Channels 
16  External MUX Channels 
1  Auxiliary Channels 
5000  Waveform (CCF) Frequency (Hz)
1  Waveforms Skipped 
30  Waveforms Averaged 
1  Cycles Averaged 
16  Acquisitions per Waveform 
10.0806  Updata Rate (Hz) 

#FILE INFORMATION
TRUE -- External MUX Channel results are PARSED.
FALSE -- AC DC and Phase are NOT grouped.
TRUE -- Companion Program Settings File CREATED.
FALSE -- AC data not excluded
FALSE -- DC data not excluded
FALSE -- Phase data not excluded
FALSE -- Auxillary Chn. data not excluded
Tab delimiters

#CALIBRATION STATE
TRUE -- Waveform Calibration Values APPLIED.


#AUX CALIBRATION VALUES
Val Type	aux-1	

Term	1.0000e+00	
Factor	0.0000e+00	


#WF CALIBRATION VALUES
A = Detector Channel
Val Type	A-AC1	A-AC2	A-AC3	A-AC4	A-AC5	A-AC6	A-AC7	A-AC8	A-AC9	A-AC10	A-AC11	A-AC12	A-AC13	A-AC14	A-AC15	A-AC16	A-DC1	A-DC2	A-DC3	A-DC4	A-DC5	A-DC6	A-DC7	A-DC8	A-DC9	A-DC10	A-DC11	A-DC12	A-DC13	A-DC14	A-DC15	A-DC16	A-Ph1	A-Ph2	A-Ph3	A-Ph4	A-Ph5	A-Ph6	A-Ph7	A-Ph8	A-Ph9	A-Ph10	A-Ph11	A-Ph12	A-Ph13	A-Ph14	A-Ph15	A-Ph16	

Term	0.00000e+00	0.00000e+00	0.00000e+00	0.00000e+00	0.00000e+00	0.00000e+00	0.00000e+00	0.00000e+00	0.00000e+00	0.00000e+00	0.00000e+00	0.00000e+00	0.00000e+00	0.00000e+00	0.00000e+00	0.00000e+00	0.00000e+00	0.00000e+00	0.00000e+00	0.00000e+00	0.00000e+00	0.00000e+00	0.00000e+00	0.00000e+00	0.00000e+00	0.00000e+00	0.00000e+00	0.00000e+00	0.00000e+00	0.00000e+00	0.00000e+00	0.00000e+00	0.00000e+00	0.00000e+00	0.00000e+00	0.00000e+00	0.00000e+00	0.00000e+00	0.00000e+00	0.00000e+00	0.00000e+00	0.00000e+00	0.00000e+00	0.00000e+00	0.00000e+00	0.00000e+00	0.00000e+00	0.00000e+00	
Factor	1.00000e+00	1.00000e+00	1.00000e+00	1.00000e+00	1.00000e+00	1.00000e+00	1.00000e+00	1.00000e+00	1.00000e+00	1.00000e+00	1.00000e+00	1.00000e+00	1.00000e+00	1.00000e+00	1.00000e+00	1.00000e+00	1.00000e+00	1.00000e+00	1.00000e+00	1.00000e+00	1.00000e+00	1.00000e+00	1.00000e+00	1.00000e+00	1.00000e+00	1.00000e+00	1.00000e+00	1.00000e+00	1.00000e+00	1.00000e+00	1.00000e+00	1.00000e+00	X	X	X	X	X	X	X	X	X	X	X	X	X	X	X	X	

B = Detector Channel
Val Type	B-AC1	B-AC2	B-AC3	B-AC4	B-AC5	B-AC6	B-AC7	B-AC8	B-AC9	B-AC10	B-AC11	B-AC12	B-AC13	B-AC14	B-AC15	B-AC16	B-DC1	B-DC2	B-DC3	B-DC4	B-DC5	B-DC6	B-DC7	B-DC8	B-DC9	B-DC10	B-DC11	B-DC12	B-DC13	B-DC14	B-DC15	B-DC16	B-Ph1	B-Ph2	B-Ph3	B-Ph4	B-Ph5	B-Ph6	B-Ph7	B-Ph8	B-Ph9	B-Ph10	B-Ph11	B-Ph12	B-Ph13	B-Ph14	B-Ph15	B-Ph16	

Term	0.00000e+00	0.00000e+00	0.00000e+00	0.00000e+00	0.00000e+00	0.00000e+00	0.00000e+00	0.00000e+00	0.00000e+00	0.00000e+00	0.00000e+00	0.00000e+00	0.00000e+00	0.00000e+00	0.00000e+00	0.00000e+00	0.00000e+00	0.00000e+00	0.00000e+00	0.00000e+00	0.00000e+00	0.00000e+00	0.00000e+00	0.00000e+00	0.00000e+00	0.00000e+00	0.00000e+00	0.00000e+00	0.00000e+00	0.00000e+00	0.00000e+00	0.00000e+00	-2.63813e+02	-1.35610e+02	-1.20718e+02	-1.83142e+02	-1.03639e+02	-7.76492e+01	-1.58739e+02	-1.62015e+02	-6.67048e+01	-5.05097e+01	-1.74416e+02	-1.69969e+02	-1.82317e+02	-1.77446e+02	-7.21603e+01	-1.50100e+02	
Factor	6.34764e-05	1.25928e-04	3.90822e-05	1.62229e-01	1.76456e-06	1.41241e-06	1.55923e-01	5.22478e-02	2.01247e-06	1.74817e-06	8.59677e-02	2.68576e-02	3.53234e-02	8.80985e-03	1.52861e-06	1.26090e-02	2.79852e-06	2.94799e-06	8.21211e-07	8.30312e-02	3.20143e-08	3.23669e-08	7.47397e-02	2.68061e-02	3.19947e-08	3.24091e-08	4.26679e-02	1.33414e-02	1.79389e-02	4.54378e-03	3.21625e-08	6.28425e-03	X	X	X	X	X	X	X	X	X	X	X	X	X	X	X	X	



#DISTANCE SETTINGS
A = Detector Channel
A-1	A-2	A-3	A-4	A-5	A-6	A-7	A-8	A-9	A-10	A-11	A-12	A-13	A-14	A-15	A-16	

2.5000e+00	3.0000e+00	2.5000e+00	3.0000e+00	2.0000e+00	3.0000e+00	1.5000e+00	3.0000e+00	3.0000e+00	3.0000e+00	3.0000e+00	3.0000e+00	3.0000e+00	3.0000e+00	1.5000e+00	3.0000e+00	

B = Detector Channel
B-1	B-2	B-3	B-4	B-5	B-6	B-7	B-8	B-9	B-10	B-11	B-12	B-13	B-14	B-15	B-16	

1.0000e+01	1.0000e+01	1.0000e+01	1.4400e+00	1.0000e+01	1.0000e+01	1.5100e+00	1.9400e+00	1.0000e+01	1.0000e+01	1.9900e+00	2.4900e+00	2.4100e+00	2.9000e+00	1.0000e+01	2.9800e+00	




#DATA BEGINS
time	group	step	mark	flag	A-AC1	A-AC2	A-AC3	A-AC4	A-AC5	A-AC6	A-AC7	A-AC8	A-AC9	A-AC10	A-AC11	A-AC12	A-AC13	A-AC14	A-AC15	A-AC16	A-DC1	A-DC2	A-DC3	A-DC4	A-DC5	A-DC6	A-DC7	A-DC8	A-DC9	A-DC10	A-DC11	A-DC12	A-DC13	A-DC14	A-DC15	A-DC16	A-Ph1	A-Ph2	A-Ph3	A-Ph4	A-Ph5	A-Ph6	A-Ph7	A-Ph8	A-Ph9	A-Ph10	A-Ph11	A-Ph12	A-Ph13	A-Ph14	A-Ph15	A-Ph16	B-AC1	B-AC2	B-AC3	B-AC4	B-AC5	B-AC6	B-AC7	B-AC8	B-AC9	B-AC10	B-AC11	B-AC12	B-AC13	B-AC14	B-AC15	B-AC16	B-DC1	B-DC2	B-DC3	B-DC4	B-DC5	B-DC6	B-DC7	B-DC8	B-DC9	B-DC10	B-DC11	B-DC12	B-DC13	B-DC14	B-DC15	B-DC16	B-Ph1	B-Ph2	B-Ph3	B-Ph4	B-Ph5	B-Ph6	B-Ph7	B-Ph8	B-Ph9	B-Ph10	B-Ph11	B-Ph12	B-Ph13	B-Ph14	B-Ph15	B-Ph16	aux-1	digaux	

6373.511	1	1	0	768	0.085829	0.28778	0.15154	0.12636	0.15654	0.10456	0.17936	0.26475	0.024776	0.04502	0.23054	0.090768	0.075294	0.13306	0.16422	0.29301	-2.0438	-2.075	-2.7458	-2.3667	-2.3875	-2.7875	-2.2583	-2.6937	-2.5229	-2.0708	-2.7125	-2.2896	-2.3208	-2.6979	-1.9937	-2.5375	281.668	208.749	59.027	242.419	179.823	377.895	379.588	406.769	201.505	169.857	331.427	395.246	259.342	157.631	105.680	314.711	0.0012945	0.00037309	0.00013509	1354.7	7.9785e-06	6.0868e-06	1357.5	366.16	1.1341e-05	6.4048e-06	417.38	140.21	122.65	41.469	7.9544e-06	51.38	0.0005915	0.00056999	0.00015741	1378.9	6.2771e-06	6.2425e-06	1377.6	374.07	6.2193e-06	6.3662e-06	427.25	143.22	124.82	42.913	6.2514e-06	53.227	377.153	127.663	166.168	65.477	231.415	134.724	65.228	70.194	232.231	175.221	69.215	73.594	74.035	79.042	208.463	77.801	-8191	255	
6373.607	1	1	0	0	0.29484	0.0060117	0.04496	0.36132	0.12704	0.14273	0.27038	0.31701	0.017006	0.22928	0.12962	0.38435	0.21384	0.096487	0.087496	0.16905	-2.0292	-1.9167	-2.8146	-2.4979	-2.3583	-2.6625	-2.2667	-2.6813	-2.5521	-2.0625	-2.7792	-2.5604	-2.2854	-2.8271	-1.9333	-2.5104	347.285	295.576	350.173	325.302	52.026	84.565	332.832	407.301	192.597	220.156	375.551	315.214	273.918	148.553	105.665	345.376	0.0014532	0.00043264	0.00011763	1352.7	8.1368e-06	6.856e-06	1353.7	367.72	1.0699e-05	6.7768e-06	418.52	140.19	122.3	41.619	7.3297e-06	51.496	0.00058822	0.0005727	0.00016012	1379	6.2761e-06	6.1952e-06	1376.9	375.3	6.204e-06	6.2186e-06	428.19	143.58	124.99	43.017	6.1828e-06	53.216	383.772	142.156	125.321	65.093	173.854	164.395	64.726	69.740	256.166	191.341	69.268	73.541	74.322	78.669	188.353	78.057	-8191	255	
6373.703	1	1	0	0	0.11935	0.12846	0.21522	0.23318	0.15491	0.12163	0.26392	0.50711	0.1983	0.057838	0.34028	0.15753	0.086786	0.059235	0.42556	0.094348	-2.1813	-1.9062	-2.4729	-2.5292	-2.0312	-2.4771	-2.4458	-2.3708	-2.5979	-1.9562	-2.7188	-2.6583	-2.2417	-2.9396	-2.2417	-2.4604	315.277	112.791	213.254	93.238	231.252	193.577	382.697	318.935	173.710	279.882	66.276	83.100	351.074	344.931	350.191	383.324	0.0015957	0.00017485	0.00022666	1353.8	6.6724e-06	6.8926e-06	1355.2	366.92	5.3804e-06	2.2306e-06	417.89	140.46	122.26	41.605	1.6009e-06	51.609	0.00059273	0.00056808	0.00015818	1381.8	6.3246e-06	6.1931e-06	1379.5	375.42	6.23e-06	6.3092e-06	428.6	143.54	125.03	42.991	6.3222e-06	53.194	390.296	72.839	118.906	65.331	142.953	196.928	65.184	70.008	199.707	147.012	69.426	74.091	74.528	78.866	156.343	78.009	-8191	255	
6373.797	1	1	0	0	0.22261	0.081805	0.36156	0.12721	0.080146	0.088283	0.20722	0.075318	0.26003	0.076189	0.12073	0.29767	0.31597	0.37033	0.043181	0.05348	-2.4854	-2.1688	-2.6708	-2.6167	-2.2062	-2.7854	-2.6146	-2.4375	-2.6229	-1.9937	-2.5854	-2.5563	-1.9896	-2.7208	-2.4208	-2.325	230.691	109.471	333.558	388.134	118.072	369.596	61.929	155.499	214.081	160.193	376.188	400.797	100.028	364.970	184.993	216.385	0.0014837	0.00016106	0.00012015	1353.4	9.2723e-06	5.1944e-06	1355.5	367.39	5.5671e-06	1.7662e-06	418.19	140.3	122.33	41.48	8.8547e-06	51.53	0.00058936	0.00056564	0.00015842	1380.3	6.2807e-06	6.2437e-06	1380.1	375.19	6.1879e-06	6.2914e-06	427.86	143.46	124.7	42.929	6.3142e-06	53.141	385.484	125.958	135.387	65.280	189.084	163.427	65.146	70.098	187.665	193.773	69.415	74.097	74.498	78.725	180.421	77.777	-8191	255	
6373.893	1	1	0	0	0.062327	0.060893	0.030603	0.1671	0.21524	0.046291	0.40892	0.43914	0.19281	0.10451	0.2361	0.22482	0.039199	0.14117	0.13647	0.21404	-2.3271	-1.9542	-2.4625	-2.6813	-2.0396	-2.7625	-2.5417	-2.3729	-2.7062	-2.0729	-2.2583	-2.8396	-2.025	-2.6333	-2.4313	-2.025	241.958	385.928	164.107	298.036	220.482	176.987	363.462	313.774	293.076	331.365	351.044	400.377	234.520	272.178	58.770	280.837	0.0015418	0.00063041	0.00018865	1352.8	8.2927e-06	6.5578e-06	1358.9	366.21	6.1203e-06	5.6827e-06	418.09	140.76	122.15	41.508	1.2639e-05	51.299	0.00059186	0.00056864	0.00015941	1379.7	6.2925e-06	6.2849e-06	1380.3	374.81	6.2419e-06	6.2499e-06	428.68	143.71	124.83	43.008	6.3188e-06	53.168	382.206	162.912	163.942	65.131	183.095	182.256	64.618	69.419	196.910	291.977	69.015	73.788	74.062	78.886	225.474	77.981	-8191	255	
6373.990	1	1	0	0	0.20817	0.12254	0.19996	0.097684	0.16288	0.07496	0.24631	0.10493	0.04866	0.087697	0.10964	0.13133	0.26316	0.070833	0.13805	0.2145	-2.5438	-2.1896	-2.3812	-2.6792	-1.9208	-2.5104	-2.6063	-2.25	-2.6021	-2.1688	-2.3312	-2.6708	-2.0521	-2.5417	-2.5354	-2.1375	313.189	390.958	165.580	346.505	204.811	230.868	361.450	193.562	89.920	379.773	312.997	92.513	63.855	364.650	329.615	346.605	0.0015183	0.00065111	0.00016585	1357.2	4.1454e-06	3.0381e-06	1357.4	366.41	1.4982e-05	3.9323e-06	418.76	140.39	122.2	41.608	8.7055e-06	51.604	0.00058769	0.0005696	0.00015939	1381.5	6.2375e-06	6.2467e-06	1379.2	374.52	6.1616e-06	6.2305e-06	427.54	143.36	124.85	42.971	6.2319e-06	53.212	384.835	195.193	189.691	65.634	162.115	159.114	65.131	70.214	227.807	297.743	69.475	74.494	74.875	79.228	205.331	78.376	-8191	255	
6374.110	1	1	0	0	0.11296	0.16558	0.19156	0.22593	0.099311	0.1184	0.14959	0.37997	0.30671	0.050356	0.23939	0.18107	0.16888	0.20537	0.27958	0.091568	-2.2687	-2.0646	-2.0667	-2.7708	-1.975	-2.5875	-2.75	-2.1375	-2.6188	-2.4333	-2.3021	-2.7896	-2.0229	-2.4896	-2.5563	-2.1125	250.256	346.364	289.278	62.116	87.964	125.250	380.355	405.859	137.364	368.961	67.592	315.804	213.201	396.234	253.984	266.044	0.0014238	0.00067157	7.9302e-05	1350.8	6.1312e-06	2.4803e-06	1356.2	366.38	6.8279e-06	9.8003e-06	417.63	140.01	122.46	41.721	4.4337e-06	51.601	0.00058792	0.00057593	0.00015785	1377.7	6.2607e-06	6.2731e-06	1379.7	374.51	6.2422e-06	6.1461e-06	428.25	143.54	124.92	43.077	6.1905e-06	53.176	384.794	116.065	122.839	65.063	209.006	193.034	65.231	69.926	211.142	243.561	69.024	73.831	74.213	78.792	209.907	77.977	-8191	255	
6374.206	1	1	0	0	0.13391	0.071795	0.13751	0.2486	0.093576	0.21972	0.036265	0.2528	0.23939	0.13212	0.19567	0.25089	0.1087	0.22365	0.059246	0.092614	-2.1792	-2.1792	-2.0979	-2.8146	-1.9042	-2.4708	-2.8812	-2.2354	-2.6479	-2.5271	-2.3083	-2.9292	-2.1208	-2.5646	-2.6167	-2.0833	192.217	238.507	78.222	383.541	213.089	129.123	322.183	394.452	408.001	281.062	360.052	360.323	280.570	377.730	345.025	193.595	0.001437	0.00056672	0.00018923	1357.4	1.0549e-05	6.2988e-06	1354.9	366.85	4.0409e-06	1.336e-06	416.69	139.67	121.41	41.506	5.5663e-06	51.583	0.00058553	0.00056262	0.00015288	1381.2	6.1169e-06	6.12e-06	1379.4	374.44	6.0681e-06	6.0863e-06	427.16	143.58	124.55	42.958	6.0772e-06	53.151	385.808	136.359	156.037	65.402	174.255	214.336	65.307	70.244	190.734	224.805	69.389	74.157	74.846	79.203	218.756	78.305	-8191	255	
6374.303	1	1	0	0	0.14012	0.13328	0.10892	0.28534	0.24475	0.20519	0.10383	0.33685	0.070947	0.26261	0.1751	0.11363	0.16082	0.16673	0.065048	0.18523	-2.1063	-2.4875	-2.0021	-2.9437	-2.2833	-2.3583	-2.9208	-2.0563	-2.4188	-2.4188	-2.1104	-2.6917	-2.3271	-2.4708	-2.5333	-2.2083	358.266	250.004	253.448	381.965	219.026	245.968	147.825	312.581	277.509	66.251	96.124	292.254	240.366	164.133	181.534	398.453	0.0016032	0.00072482	9.6463e-05	1354.5	2.8427e-06	5.9893e-06	1356.1	365.9	8.5054e-06	1.6735e-06	417.17	140.7	122.44	41.533	5.7167e-06	51.623	0.00057556	0.00056734	0.00015703	1380.2	6.2576e-06	6.237e-06	1378.6	374.16	6.185e-06	6.2469e-06	427.8	143.48	124.77	42.955	6.2565e-06	53.191	380.456	142.902	184.493	65.636	190.167	159.877	65.537	70.268	165.394	240.686	69.679	74.403	75.084	79.099	209.120	78.569	-8191	255	
6374.399	1	1	0	0	0.088955	0.055452	0.30393	0.32734	0.16916	0.026875	0.1611	0.13729	0.16321	0.087909	0.15763	0.19446	0.068955	0.062028	0.05935	0.16109	-2.0167	-2.6292	-1.9875	-2.7667	-2.2188	-2.1646	-2.9208	-2.1604	-2.4313	-2.6354	-2.2854	-2.8521	-2.2458	-2.2708	-2.6292	-2.3271	214.210	56.351	335.741	343.307	306.989	100.059	54.831	291.702	104.520	108.841	373.440	390.110	363.726	354.175	365.592	183.558	0.0015838	0.00063217	0.00011236	1357.1	4.4267e-06	4.9808e-06	1356.9	366.05	7.6888e-06	6.8398e-06	418.39	140.41	122.74	41.502	7.7261e-06	51.5	0.00058584	0.00056542	0.00015756	1380.8	6.1477e-06	6.1919e-06	1379.3	374.37	6.1452e-06	6.102e-06	428	143.46	125.02	42.915	6.1984e-06	53.156	380.031	111.574	144.759	65.139	163.461	176.200	64.863	69.755	208.049	256.878	69.116	73.612	74.506	78.655	184.517	77.586	-8191	255	
6374.495	1	1	0	0	0.094062	0.30515	0.13428	0.3469	0.13088	0.12609	0.026463	0.24596	0.02416	0.15058	0.077637	0.19466	0.062088	0.1196	0.078417	0.17248	-1.7938	-2.8	-2.0146	-2.7062	-2.5104	-2.1521	-2.9437	-2.4167	-2.3125	-2.6083	-2.1646	-2.5604	-2.5563	-2.0854	-2.7188	-2.075	123.962	185.836	332.183	337.857	188.217	135.185	254.094	362.103	63.507	60.052	134.255	276.882	128.685	310.711	84.521	341.579	0.0015372	0.00050107	0.00014431	1355.5	9.0048e-06	6.7216e-06	1357.3	366.99	7.3945e-06	3.1481e-06	418.34	140.4	122.2	41.46	6.7079e-06	51.269	0.00057959	0.00056429	0.00015581	1379.2	6.1714e-06	6.1775e-06	1379.5	374.49	6.0937e-06	6.1034e-06	427.07	143.42	124.78	42.874	6.1592e-06	53.022	386.715	146.403	173.409	64.979	161.450	178.000	64.951	69.957	223.670	196.571	68.909	73.714	74.430	78.610	182.673	78.104	-8191	255	
6374.591	1	1	0	0	0.03248	0.28611	0.093047	0.19109	0.21263	0.079953	0.056065	0.26842	0.14913	0.322	0.15633	0.22515	0.089951	0.30336	0.20047	0.21784	-1.8146	-2.5375	-2.1021	-2.5563	-2.425	-2.1437	-2.8667	-2.3854	-2.1958	-2.7021	-2.2625	-2.5729	-2.5792	-2	-2.6042	-2.4354	144.568	190.486	359.305	105.974	396.118	66.006	302.004	382.469	170.190	312.711	180.304	62.088	265.809	84.339	216.834	60.792	0.0014338	0.00049103	0.00019602	1350.7	7.4365e-06	5.3185e-06	1355.4	365.29	1.3167e-05	7.0613e-06	415.02	140.19	122.23	41.319	5.1717e-06	51.481	0.00057932	0.00055649	0.00015463	1377.3	6.1996e-06	6.0237e-06	1377.1	373.89	6.1005e-06	6.086e-06	426.74	143.21	124.62	42.796	6.0425e-06	53.12	382.044	152.716	149.620	65.029	169.474	185.330	64.976	69.948	209.628	254.328	68.925	73.524	74.589	78.618	238.579	78.256	-8191	255	
6374.712	1	1	0	0	0.18889	0.11595	0.14753	0.094641	0.093026	0.032619	0.37414	0.19732	0.20659	0.10117	0.079016	0.34288	0.19108	0.14791	0.26348	0.25188	-1.7208	-2.4375	-2.1229	-2.6	-2.5667	-2.025	-3.025	-2.5042	-2.1125	-2.9042	-2.1854	-2.3896	-2.6979	-2.125	-2.5354	-2.4896	206.074	268.819	233.569	98.126	170.449	162.814	325.209	294.151	320.181	118.719	273.725	347.215	87.349	308.817	343.832	360.927	0.0012557	0.00080603	0.00014968	1350.3	7.0906e-06	4.3453e-06	1355.5	364.32	9.146e-06	5.0647e-06	417.42	140.02	121.86	41.534	1.8468e-06	51.616	0.00057024	0.00054412	0.00015493	1376	6.0417e-06	6.0145e-06	1375.1	373.51	6.0442e-06	5.9816e-06	426.34	143.16	124.3	42.823	5.985e-06	53.032	390.491	151.228	149.307	65.068	192.900	162.483	64.992	69.920	222.072	199.076	69.260	73.624	74.216	78.659	162.161	77.512	-8191	255	
6374.806	1	1	0	0	0.18329	0.12308	0.068463	0.1431	0.18395	0.040559	0.1453	0.18114	0.095363	0.050757	0.24638	0.088667	0.11924	0.19233	0.12	0.20326	-1.7583	-2.6146	-2.2	-2.4521	-2.7771	-1.9688	-2.8208	-2.6458	-2.0625	-2.7729	-2.4417	-2.4188	-2.6688	-2.1354	-2.4917	-2.4396	268.051	245.825	379.749	386.960	240.235	182.610	319.516	378.338	167.556	306.770	301.080	360.504	321.530	359.783	144.470	65.784	0.0016108	0.00044333	0.00021097	1352.8	1.0514e-05	8.5544e-07	1350.7	364.53	1.3291e-05	3.7553e-06	415.72	139.91	121.56	41.516	1.0161e-05	51.424	0.00056237	0.00054443	0.00015061	1375.1	5.9332e-06	5.9405e-06	1374.6	372.75	5.9322e-06	5.9064e-06	425.36	142.8	124.03	42.779	5.8812e-06	52.975	387.247	204.477	144.642	65.146	153.875	170.570	64.885	70.013	229.091	199.687	69.323	73.577	74.198	78.632	200.390	78.162	-8191	255	
6374.902	1	1	0	0	0.14311	0.3734	0.17431	0.27156	0.11787	0.090044	0.32769	0.27104	0.10022	0.15212	0.10775	0.259	0.1684	0.2469	0.21791	0.22197	-1.6417	-2.6917	-2.2896	-2.3667	-2.6937	-2.25	-2.7646	-2.7	-2.1271	-2.7792	-2.375	-2.3208	-2.9021	-2.0542	-2.4125	-2.7333	397.732	281.129	314.649	394.024	55.750	311.832	364.932	76.016	182.166	179.043	392.820	356.595	256.636	215.740	397.987	82.574	0.0013374	0.00048654	0.00027239	1352.9	6.9331e-06	2.7735e-06	1353	365.38	1.1998e-05	6.1664e-06	416.94	139.72	121.48	41.256	8.7644e-06	51.273	0.00056113	0.00054175	0.00015139	1374.5	5.9052e-06	5.8224e-06	1373.9	372.63	5.8548e-06	5.8706e-06	425.5	142.64	123.83	42.671	5.8923e-06	52.903	383.689	144.132	164.056	65.249	185.530	133.060	64.882	70.077	251.992	180.146	69.187	73.859	74.205	78.804	185.650	78.062	-8191	255	
6374.998	1	1	0	0	0.25156	0.20763	0.20147	0.011624	0.089256	0.14978	0.31483	0.21356	0.021812	0.1797	0.37939	0.17122	0.23956	0.19983	0.12737	0.089257	-1.6917	-2.5167	-2.3229	-2.175	-2.8271	-2.0938	-2.7104	-2.8167	-1.7938	-2.7146	-2.4562	-2.3	-2.6229	-2.2979	-2.2125	-2.8333	339.317	104.216	81.315	362.190	406.223	350.643	384.730	407.880	372.608	367.284	401.952	365.186	299.013	358.592	381.512	168.642	0.001487	0.00084539	7.0786e-05	1349.9	5.5728e-06	5.468e-06	1350.4	365.1	5.8861e-06	9.4315e-06	415.34	139.39	121.31	41.467	4.9306e-06	51.273	0.00054928	0.00053147	0.00014585	1373	5.7657e-06	5.7889e-06	1371.5	372.37	5.8152e-06	5.7686e-06	425.02	142.52	123.64	42.623	5.8512e-06	52.864	382.122	150.640	182.007	65.216	184.116	174.172	64.964	69.918	217.946	240.752	69.138	73.762	74.462	78.378	245.384	78.353	-8191	255	
6375.072	1	1	0	0	0.080634	0.14092	0.22094	0.11061	0.027464	0.31233	0.11691	0.10142	0.18315	0.02808	0.13274	0.17458	0.22313	0.36631	0.17966	0.076697	-1.6833	-2.5667	-2.3125	-2.3708	-2.8187	-2.3	-2.5104	-2.7979	-2.0396	-2.3771	-2.4437	-2.0458	-2.7896	-2.3708	-2.0542	-2.6771	169.223	221.889	248.468	341.718	157.152	313.453	174.919	148.706	411.117	216.064	73.568	259.311	398.388	365.530	206.398	365.580	0.0014393	0.00040753	7.751e-05	1352.6	7.1376e-06	5.8997e-06	1352.9	364.92	1.2523e-05	5.3051e-06	416.08	139.22	121.36	41.475	9.1008e-06	51.128	0.00054759	0.00052673	0.00014829	1373.2	5.7398e-06	5.6585e-06	1372.9	372.62	5.6588e-06	5.7064e-06	425.14	142.45	123.8	42.602	5.6773e-06	52.844	388.058	191.950	215.175	65.038	155.857	188.244	65.078	69.816	198.296	220.962	69.428	73.839	74.193	78.808	188.876	77.836	-8191	255	
6375.191	1	1	0	0	0.20737	0.037528	0.14278	0.062496	0.28538	0.14128	0.20134	0.084784	0.14315	0.16619	0.084459	0.29275	0.20156	0.12126	0.226	0.049694	-1.6021	-2.3312	-2.4208	-2.0417	-2.6833	-2.3187	-2.3021	-2.7333	-1.9229	-2.3333	-2.7625	-2.2062	-2.7458	-2.4625	-2.1354	-2.8604	254.342	285.894	98.869	321.391	204.420	191.707	370.755	80.706	370.843	296.178	264.007	325.773	76.330	410.591	339.825	379.768	0.0016108	0.00058472	0.00019575	1352.4	1.1049e-05	5.532e-06	1354.4	364.69	7.5763e-06	8.6561e-06	416.14	139.49	121.61	41.367	4.1524e-06	51.227	0.00054276	0.00052458	0.00014559	1372.8	5.7477e-06	5.6628e-06	1373	372.57	5.7347e-06	5.7486e-06	425.25	142.49	123.7	42.664	5.741e-06	52.856	385.679	156.465	159.089	64.854	197.827	166.103	64.947	70.148	220.312	215.321	69.131	73.381	74.574	78.703	226.122	78.137	-8191	255	
