BOXY.EXE: ISS Imagent and Oximeter Data Acquisition Program Version 0.80
Ascii Record File

#ACQ INFORMATION
2  Detector Channels 
16  External MUX Channels 
1  Auxiliary Channels 
5000  Waveform (CCF) Frequency (Hz)
1  Waveforms Skipped 
30  Waveforms Averaged 
1  Cycles Averaged 
16  Acquisitions per Waveform 
10.0806  Updata Rate (Hz) 

#FILE INFORMATION
TRUE -- External MUX Channel results are PARSED.
FALSE -- AC DC and Phase are NOT grouped.
TRUE -- Companion Program Settings File CREATED.
FALSE -- AC data not excluded
FALSE -- DC data not excluded
FALSE -- Phase data not excluded
FALSE -- Auxillary Chn. data not excluded
Tab delimiters

#CALIBRATION STATE
TRUE -- Waveform Calibration Values APPLIED.


#AUX CALIBRATION VALUES
Val Type	aux-1	

Term	1.0000e+00	
Factor	0.0000e+00	


#WF CALIBRATION VALUES
A = Detector Channel
Val Type	A-AC1	A-AC2	A-AC3	A-AC4	A-AC5	A-AC6	A-AC7	A-AC8	A-AC9	A-AC10	A-AC11	A-AC12	A-AC13	A-AC14	A-AC15	A-AC16	A-DC1	A-DC2	A-DC3	A-DC4	A-DC5	A-DC6	A-DC7	A-DC8	A-DC9	A-DC10	A-DC11	A-DC12	A-DC13	A-DC14	A-DC15	A-DC16	A-Ph1	A-Ph2	A-Ph3	A-Ph4	A-Ph5	A-Ph6	A-Ph7	A-Ph8	A-Ph9	A-Ph10	A-Ph11	A-Ph12	A-Ph13	A-Ph14	A-Ph15	A-Ph16	

Term	0.00000e+00	0.00000e+00	0.00000e+00	0.00000e+00	0.00000e+00	0.00000e+00	0.00000e+00	0.00000e+00	0.00000e+00	0.00000e+00	0.00000e+00	0.00000e+00	0.00000e+00	0.00000e+00	0.00000e+00	0.00000e+00	0.00000e+00	0.00000e+00	0.00000e+00	0.00000e+00	0.00000e+00	0.00000e+00	0.00000e+00	0.00000e+00	0.00000e+00	0.00000e+00	0.00000e+00	0.00000e+00	0.00000e+00	0.00000e+00	0.00000e+00	0.00000e+00	0.00000e+00	0.00000e+00	0.00000e+00	0.00000e+00	0.00000e+00	0.00000e+00	0.00000e+00	0.00000e+00	0.00000e+00	0.00000e+00	0.00000e+00	0.00000e+00	0.00000e+00	0.00000e+00	0.00000e+00	0.00000e+00	
Factor	1.00000e+00	1.00000e+00	1.00000e+00	1.00000e+00	1.00000e+00	1.00000e+00	1.00000e+00	1.00000e+00	1.00000e+00	1.00000e+00	1.00000e+00	1.00000e+00	1.00000e+00	1.00000e+00	1.00000e+00	1.00000e+00	1.00000e+00	1.00000e+00	1.00000e+00	1.00000e+00	1.00000e+00	1.00000e+00	1.00000e+00	1.00000e+00	1.00000e+00	1.00000e+00	1.00000e+00	1.00000e+00	1.00000e+00	1.00000e+00	1.00000e+00	1.00000e+00	X	X	X	X	X	X	X	X	X	X	X	X	X	X	X	X	

B = Detector Channel
Val Type	B-AC1	B-AC2	B-AC3	B-AC4	B-AC5	B-AC6	B-AC7	B-AC8	B-AC9	B-AC10	B-AC11	B-AC12	B-AC13	B-AC14	B-AC15	B-AC16	B-DC1	B-DC2	B-DC3	B-DC4	B-DC5	B-DC6	B-DC7	B-DC8	B-DC9	B-DC10	B-DC11	B-DC12	B-DC13	B-DC14	B-DC15	B-DC16	B-Ph1	B-Ph2	B-Ph3	B-Ph4	B-Ph5	B-Ph6	B-Ph7	B-Ph8	B-Ph9	B-Ph10	B-Ph11	B-Ph12	B-Ph13	B-Ph14	B-Ph15	B-Ph16	

Term	0.00000e+00	0.00000e+00	0.00000e+00	0.00000e+00	0.00000e+00	0.00000e+00	0.00000e+00	0.00000e+00	0.00000e+00	0.00000e+00	0.00000e+00	0.00000e+00	0.00000e+00	0.00000e+00	0.00000e+00	0.00000e+00	0.00000e+00	0.00000e+00	0.00000e+00	0.00000e+00	0.00000e+00	0.00000e+00	0.00000e+00	0.00000e+00	0.00000e+00	0.00000e+00	0.00000e+00	0.00000e+00	0.00000e+00	0.00000e+00	0.00000e+00	0.00000e+00	-9.99014e+01	-1.28059e+02	-1.24292e+02	-1.80815e+02	-5.64162e+01	-6.70400e+01	-1.57141e+02	-1.62015e+02	-5.78422e+01	-6.46554e+01	-1.71605e+02	-1.71581e+02	-1.83471e+02	-1.76929e+02	-6.31455e+01	-1.49760e+02	
Factor	1.57090e-05	1.56009e-04	4.31416e-05	1.49598e-01	1.26044e-06	1.72627e-06	1.55617e-01	4.50887e-02	1.02207e-06	1.73542e-06	7.47621e-02	2.92882e-02	3.47003e-02	8.87559e-03	1.34979e-06	1.27559e-02	1.64394e-05	5.02448e-05	1.40396e-05	7.54145e-02	4.32544e-07	5.76823e-07	7.39352e-02	2.29014e-02	4.22910e-07	5.74600e-07	3.67841e-02	1.45451e-02	1.77443e-02	4.53651e-03	4.81585e-07	6.33307e-03	X	X	X	X	X	X	X	X	X	X	X	X	X	X	X	X	



#DISTANCE SETTINGS
A = Detector Channel
A-1	A-2	A-3	A-4	A-5	A-6	A-7	A-8	A-9	A-10	A-11	A-12	A-13	A-14	A-15	A-16	

2.5000e+00	3.0000e+00	2.5000e+00	3.0000e+00	2.0000e+00	3.0000e+00	1.5000e+00	3.0000e+00	3.0000e+00	3.0000e+00	3.0000e+00	3.0000e+00	3.0000e+00	3.0000e+00	1.5000e+00	3.0000e+00	

B = Detector Channel
B-1	B-2	B-3	B-4	B-5	B-6	B-7	B-8	B-9	B-10	B-11	B-12	B-13	B-14	B-15	B-16	

1.0000e+01	1.0000e+01	1.0000e+01	1.4400e+00	1.0000e+01	1.0000e+01	1.5100e+00	1.9400e+00	1.0000e+01	1.0000e+01	1.9900e+00	2.4900e+00	2.4100e+00	2.9000e+00	1.0000e+01	2.9800e+00	




#DATA BEGINS
time	group	step	mark	flag	A-AC1	A-AC2	A-AC3	A-AC4	A-AC5	A-AC6	A-AC7	A-AC8	A-AC9	A-AC10	A-AC11	A-AC12	A-AC13	A-AC14	A-AC15	A-AC16	A-DC1	A-DC2	A-DC3	A-DC4	A-DC5	A-DC6	A-DC7	A-DC8	A-DC9	A-DC10	A-DC11	A-DC12	A-DC13	A-DC14	A-DC15	A-DC16	A-Ph1	A-Ph2	A-Ph3	A-Ph4	A-Ph5	A-Ph6	A-Ph7	A-Ph8	A-Ph9	A-Ph10	A-Ph11	A-Ph12	A-Ph13	A-Ph14	A-Ph15	A-Ph16	B-AC1	B-AC2	B-AC3	B-AC4	B-AC5	B-AC6	B-AC7	B-AC8	B-AC9	B-AC10	B-AC11	B-AC12	B-AC13	B-AC14	B-AC15	B-AC16	B-DC1	B-DC2	B-DC3	B-DC4	B-DC5	B-DC6	B-DC7	B-DC8	B-DC9	B-DC10	B-DC11	B-DC12	B-DC13	B-DC14	B-DC15	B-DC16	B-Ph1	B-Ph2	B-Ph3	B-Ph4	B-Ph5	B-Ph6	B-Ph7	B-Ph8	B-Ph9	B-Ph10	B-Ph11	B-Ph12	B-Ph13	B-Ph14	B-Ph15	B-Ph16	aux-1	digaux	

15608.223	1	1	0	256	0.29172	0.16256	0.12475	0.060039	0.431	0.11219	0.072072	0.12539	0.19367	0.20833	0.14585	0.13105	0.065214	0.094503	0.21819	0.095019	-2.3063	-2.5896	-2.6271	-2.4333	-2.725	-2.7167	-2.55	-2.8	-2.45	-2.7167	-2.6813	-2.5083	-2.9	-2.6542	-2.4313	-2.9521	383.829	69.297	148.491	290.731	109.653	233.873	349.826	68.043	384.243	403.766	344.209	276.187	67.908	181.106	272.949	347.080	0.00039203	0.00045135	0.00020513	137.15	5.2604e-06	4.1287e-06	314.15	29.866	3.7322e-06	1.3245e-06	110.43	61.397	13.546	11.045	5.5097e-06	50.29	0.0063994	0.018386	0.005122	163.04	0.00015962	0.00021327	334.86	38.051	0.00015592	0.00020908	122.81	66.775	19.687	12.709	0.00017289	52.6	196.908	142.872	96.622	73.075	129.980	246.461	74.640	79.052	245.560	291.443	79.330	83.436	85.045	85.453	150.162	84.546	-8191	255	
15608.319	1	1	0	0	0.038549	0.085664	0.11366	0.28023	0.14721	0.17875	0.14769	0.28667	0.15672	0.09926	0.18111	0.14759	0.15499	0.23998	0.073927	0.22123	-2.1375	-2.5542	-2.7229	-2.4833	-2.9896	-2.7438	-2.5229	-2.8458	-2.5917	-2.6188	-2.8917	-2.5208	-2.7021	-2.7375	-2.5312	-2.7313	349.168	114.239	351.173	103.896	318.727	303.122	143.566	404.377	164.142	118.365	113.788	352.626	123.581	347.372	160.656	385.510	0.00033372	5.2559e-05	0.00013069	138.74	1.8272e-06	1.075e-06	313.46	30.1	1.1126e-06	4.5488e-06	110.69	60.489	13.065	10.94	8.3031e-06	50.029	0.0062733	0.01822	0.0050042	162.24	0.00015689	0.00020651	333.96	37.731	0.00015408	0.00020638	121.84	66.004	19.343	12.551	0.00017381	52.185	200.655	152.265	126.128	73.686	358.589	360.213	74.713	79.031	196.892	209.365	78.564	83.493	83.676	85.454	200.291	84.453	-8191	255	
15608.440	1	1	0	0	0.19759	0.13956	0.30915	0.18491	0.22788	0.17427	0.2201	0.25836	0.10743	0.11739	0.19339	0.18877	0.039267	0.21146	0.17464	0.37638	-2.2354	-2.6	-2.8125	-2.3521	-2.7021	-2.8271	-2.4896	-2.6792	-2.6271	-2.725	-2.75	-2.5417	-2.6396	-2.6375	-2.4979	-2.8042	194.976	311.131	109.934	253.694	406.826	127.776	317.089	219.097	267.685	363.024	177.357	353.791	308.720	83.161	62.970	411.344	0.00045612	0.00049241	7.3699e-05	138.23	4.1908e-06	3.1794e-06	310.81	29.953	1.2985e-06	3.6109e-06	111.58	61.472	13.313	11.125	6.3875e-06	50.792	0.0062198	0.018044	0.0050597	161.52	0.00015619	0.00020736	333.46	37.673	0.00015495	0.00021001	123.06	66.713	19.609	12.801	0.00017901	53.084	188.878	132.256	223.703	73.665	96.331	294.501	74.796	78.670	364.655	218.604	78.707	83.439	84.221	85.397	172.808	84.510	-8191	255	
15608.534	1	1	0	0	0.16381	0.12672	0.22696	0.056058	0.13057	0.22861	0.1947	0.029695	0.14776	0.18338	0.094139	0.16459	0.20358	0.090479	0.13545	0.088587	-2.0104	-2.425	-2.6583	-2.3417	-2.8896	-2.7438	-2.3417	-2.6937	-2.6917	-2.6271	-2.8083	-2.5667	-2.5979	-2.5896	-2.4646	-2.8312	197.637	196.465	274.745	79.530	249.528	347.555	105.020	196.483	276.829	218.238	72.680	329.348	129.900	97.597	345.808	197.933	0.00035915	0.0010128	0.00027829	139.06	1.8052e-06	1.3619e-05	313.38	29.792	9.0637e-07	4.4688e-06	112.82	62.876	13.593	11.364	2.3646e-06	51.242	0.0064448	0.018737	0.0052696	163.95	0.00016091	0.00021405	335.15	38.312	0.00015711	0.00021439	124.91	68.089	20.108	13.053	0.00018103	53.43	185.792	149.216	188.407	73.675	135.631	289.378	74.835	78.918	128.866	199.875	78.735	82.855	85.214	84.846	165.296	84.235	-8191	255	
15608.631	1	1	0	0	0.27539	0.16292	0.29328	0.054389	0.14248	0.14821	0.1981	0.1555	0.15164	0.080052	0.18262	0.14226	0.11018	0.12595	0.18732	0.3137	-2.0479	-2.45	-2.6104	-2.4542	-2.6625	-2.9271	-2.3958	-2.6125	-2.7542	-2.3917	-2.8958	-2.3333	-2.7417	-2.7833	-2.5104	-2.7479	402.641	212.590	374.489	376.751	124.562	66.792	276.534	174.967	386.082	212.614	326.405	369.831	109.271	82.844	226.521	325.149	0.00034733	0.00081783	0.00021971	139.4	3.3231e-06	6.478e-06	313.35	30.46	3.9217e-06	5.0365e-06	112.6	62.157	13.814	11.308	6.2664e-06	50.974	0.0065047	0.01881	0.0053492	164.96	0.00016409	0.00021701	336.35	38.681	0.00016097	0.0002192	125.18	67.824	20.124	13.044	0.00018309	53.387	184.403	115.860	208.747	73.807	158.245	225.838	74.965	78.907	199.213	154.813	78.672	83.987	83.805	85.250	160.391	84.529	-8191	255	
15608.727	1	1	0	0	0.096297	0.38386	0.059714	0.11249	0.21093	0.034758	0.049966	0.037029	0.30117	0.38972	0.21733	0.31397	0.14984	0.025092	0.14528	0.18616	-2.1646	-2.475	-2.775	-2.55	-2.5396	-2.7021	-2.6479	-2.8	-2.6375	-2.4625	-2.9333	-2.8146	-2.5958	-2.9625	-2.4979	-2.7354	118.317	98.674	200.212	154.850	366.837	79.824	409.272	302.995	323.029	352.037	238.614	385.966	274.310	249.772	371.700	291.055	0.00038721	0.00072873	7.4372e-05	139.58	3.6207e-06	3.9302e-06	314.5	30.226	1.3784e-06	5.1649e-06	113.88	62.709	13.67	11.236	4.1639e-07	51.092	0.0064131	0.019058	0.0053187	165.47	0.00016044	0.00021583	337.06	38.54	0.00015817	0.00021538	125.36	68.138	20.086	13.001	0.00018051	53.415	183.998	370.367	140.686	73.709	345.585	310.274	74.766	78.653	225.262	159.842	78.830	83.175	85.220	85.787	181.712	84.379	-8191	255	
15608.847	1	1	0	0	0.065683	0.19888	0.18665	0.1439	0.067281	0.21807	0.29425	0.044693	0.16345	0.13625	0.14424	0.099664	0.060666	0.17208	0.044378	0.14641	-2.2771	-2.4667	-2.8292	-2.575	-2.6312	-2.7667	-2.3854	-2.5729	-2.7188	-2.3896	-2.5729	-2.6542	-2.4771	-2.4375	-2.5083	-2.6667	299.233	224.316	290.171	284.659	195.659	132.378	402.849	119.376	226.842	345.879	290.388	372.510	128.533	65.555	273.647	386.626	0.00039032	0.00055308	7.3174e-05	138.95	3.4507e-06	1.8185e-06	313.66	29.794	3.8326e-06	4.1919e-06	111.65	61.101	13.465	11.045	6.3882e-06	50.224	0.006384	0.018676	0.0051997	163.48	0.00015741	0.00021219	335.66	37.963	0.00015347	0.00020831	123.56	66.611	19.614	12.668	0.00017441	52.418	193.314	402.739	359.023	73.423	221.355	404.089	74.409	79.302	171.297	260.309	78.705	83.476	84.020	85.303	231.299	84.765	-8191	255	
15608.919	1	1	0	0	0.22692	0.19487	0.11211	0.23904	0.081456	0.068927	0.35929	0.20793	0.11715	0.17208	0.21202	0.025875	0.24853	0.11916	0.2575	0.14434	-2.2625	-2.3438	-2.6479	-2.6021	-2.4667	-2.8312	-2.6208	-2.5438	-2.6937	-2.6125	-2.7188	-2.6479	-2.3167	-2.7979	-2.5833	-2.7167	275.111	114.263	402.334	404.795	123.887	320.243	349.887	211.684	410.085	329.349	293.742	135.476	106.448	354.142	298.439	300.504	0.00038114	0.00018221	0.00014021	137.89	1.9234e-06	2.624e-06	312.33	29.244	1.4314e-06	6.1766e-06	108.47	58.908	12.717	10.779	2.8468e-06	49.248	0.0062565	0.018239	0.0050701	161.54	0.00015547	0.00020739	332.24	37.06	0.00015078	0.00020634	119.94	64.113	18.759	12.4	0.00017068	51.524	185.515	356.631	132.798	73.929	180.921	289.143	74.642	79.376	347.944	237.580	78.866	83.666	84.553	85.704	267.020	84.450	-8191	255	
15609.015	1	1	0	0	0.19756	0.21704	0.28631	0.13873	0.17467	0.079913	0.15829	0.36343	0.31448	0.090307	0.087739	0.13603	0.30134	0.038162	0.077933	0.12652	-2.4375	-2.4875	-2.5917	-2.7979	-2.5167	-3.0563	-2.6833	-2.5333	-2.9646	-2.6375	-2.8104	-2.8667	-2.3375	-2.6771	-2.6208	-2.6875	134.933	140.127	349.146	262.124	390.323	98.457	373.386	72.703	218.524	333.666	139.761	130.425	342.294	381.196	306.558	383.354	0.00033678	0.00066144	9.1902e-05	136.36	2.1703e-06	3.3079e-06	312.52	29.411	2.6049e-06	7.4055e-06	108.04	58.823	12.814	10.734	5.2577e-06	49.503	0.0060774	0.017739	0.0049199	159.31	0.00015356	0.0002032	329.89	36.858	0.00014779	0.00020202	119.68	64.049	18.717	12.352	0.00016732	51.614	190.952	148.122	98.311	74.358	262.571	374.863	75.033	79.817	121.778	98.775	79.034	83.848	84.751	84.787	223.419	84.640	-8191	255	
15609.136	1	1	0	0	0.22533	0.13845	0.061873	0.15976	0.23901	0.15076	0.25128	0.086312	0.17151	0.086221	0.23712	0.25037	0.15786	0.11215	0.25592	0.20428	-2.2729	-2.5312	-2.6208	-2.7958	-2.5333	-2.6521	-2.6188	-2.4938	-2.9083	-2.6458	-2.8688	-2.8729	-2.4083	-2.6792	-2.7271	-2.6854	324.481	402.042	116.449	335.597	95.437	106.815	398.533	369.968	323.184	62.157	86.347	370.408	267.124	287.599	197.531	305.171	0.00035903	0.00023911	6.7225e-06	136.17	5.0826e-06	3.4721e-06	310.98	29.708	1.8038e-06	2.1256e-06	109.75	59.773	13.117	11.003	4.2175e-06	50.131	0.0060965	0.017742	0.0049522	160.22	0.0001537	0.0002022	330.87	36.968	0.0001499	0.00020371	121.11	65.142	19.198	12.558	0.00017079	52.264	183.221	414.192	88.825	72.783	341.845	195.772	74.649	78.905	111.137	396.700	78.862	83.347	85.354	85.067	293.771	84.530	-8191	255	
15609.232	1	1	0	0	0.21686	0.048717	0.29403	0.236	0.22881	0.10499	0.32294	0.071209	0.070449	0.037799	0.06452	0.14317	0.018122	0.30692	0.28387	0.11545	-2.3438	-2.5104	-2.5917	-2.8	-2.4917	-2.7896	-2.8875	-2.3771	-2.8771	-2.6146	-2.375	-2.9333	-2.4125	-2.7979	-2.4729	-2.3208	361.885	346.062	347.905	107.736	385.225	207.694	408.744	74.570	269.926	202.639	333.645	183.252	196.682	325.617	381.063	195.656	0.00031241	4.3132e-05	0.00016211	138.27	3.9724e-06	7.9284e-07	312.18	29.599	8.8778e-07	6.3954e-06	110.36	60.995	13.144	10.991	1.7531e-06	49.8	0.0062203	0.017994	0.0050181	161.75	0.00015536	0.00020459	332.55	37.385	0.00015044	0.00020354	121.84	65.876	19.257	12.542	0.00016884	52.038	191.936	161.666	175.594	73.901	172.125	274.596	74.500	79.111	199.396	155.294	79.323	83.352	83.509	84.929	131.059	84.417	-8191	255	
15609.328	1	1	0	0	0.12914	0.14442	0.20536	0.11234	0.17371	0.087846	0.13459	0.21639	0.23382	0.10466	0.20516	0.28607	0.16528	0.11592	0.11088	0.1895	-2.4229	-2.4833	-2.5271	-2.7667	-2.5167	-2.6437	-2.675	-2.5833	-2.7083	-2.8312	-2.3979	-2.9	-2.3042	-2.4604	-2.8104	-2.5604	314.619	168.035	115.841	304.406	321.666	300.579	217.122	267.267	84.884	185.822	295.408	365.128	324.017	386.810	119.756	345.515	0.00031093	0.00034679	0.00012524	137.4	4.866e-06	2.5262e-06	307.68	29.314	1.3608e-06	2.4971e-06	108.67	59.328	12.716	10.695	5.7487e-06	49.574	0.0060448	0.017491	0.0049239	160.57	0.00015216	0.00019996	328.83	36.888	0.00014832	0.00019918	119.78	64.578	18.878	12.339	0.00016711	51.603	189.164	388.712	227.356	73.208	131.742	344.056	74.438	79.265	145.994	164.864	79.153	83.449	84.106	85.243	143.589	84.555	-8191	255	
15609.424	1	1	0	0	0.12204	0.24095	0.056871	0.25453	0.15627	0.19369	0.10177	0.08896	0.33416	0.11936	0.083531	0.07569	0.10832	0.21234	0.1734	0.17848	-2.3958	-2.5604	-2.45	-2.6937	-2.6708	-2.6354	-2.7396	-2.4583	-2.8125	-2.8458	-2.6021	-2.8104	-2.5792	-2.6167	-2.6479	-2.525	155.142	78.490	169.550	174.382	119.559	222.319	194.089	347.500	111.455	175.409	180.300	332.927	302.510	73.952	258.177	384.127	0.00034461	0.00071726	0.00017228	136.88	6.665e-06	1.5631e-06	308.08	29.085	3.5024e-06	4.9791e-07	107.81	58.722	12.739	10.586	4.0122e-06	48.815	0.0060127	0.017363	0.004822	159.38	0.00015037	0.00019775	327.12	36.518	0.00014494	0.00019575	118.63	63.548	18.359	12.146	0.00016332	50.887	192.715	173.123	249.405	73.641	336.198	104.137	74.461	79.029	201.582	119.409	78.758	83.715	84.174	85.177	62.046	84.800	-8191	255	
15609.519	1	1	0	0	0.094408	0.11571	0.23017	0.31397	0.10909	0.30594	0.28985	0.10034	0.38004	0.11052	0.10142	0.37471	0.29848	0.22724	0.23537	0.2182	-2.3563	-2.6146	-2.5021	-2.7417	-2.6167	-2.7396	-2.8521	-2.6542	-2.8354	-2.8583	-2.5729	-2.8958	-2.6417	-2.6167	-2.7333	-2.6208	331.766	381.044	202.461	139.848	399.386	105.571	358.722	69.245	83.814	235.992	254.029	356.277	416.686	416.861	109.607	280.323	0.00031803	0.00083149	2.0131e-05	134.69	4.6363e-06	3.321e-06	303.26	28.572	2.3287e-06	3.5392e-06	105.83	57.496	12.415	10.535	2.4139e-06	48.252	0.0058329	0.016749	0.0047263	156.76	0.00014564	0.00019397	324.45	36.016	0.00014135	0.00019207	116.96	62.493	17.932	11.96	0.00016288	50.378	188.664	135.656	164.082	73.096	159.426	158.757	74.555	79.584	145.369	203.367	78.923	83.298	84.805	85.550	357.648	84.524	-8191	255	
15609.615	1	1	0	0	0.12034	0.045668	0.11062	0.28221	0.13062	0.10065	0.064185	0.22632	0.05183	0.22543	0.1668	0.3088	0.40899	0.0083779	0.28876	0.26806	-2.2812	-2.6646	-2.4792	-2.7354	-2.7542	-2.5062	-2.8312	-2.4396	-2.6271	-2.7771	-2.4167	-2.8688	-2.7083	-2.6604	-2.9542	-2.6875	367.096	337.708	73.817	118.166	110.835	161.194	62.398	348.806	199.573	323.118	107.483	123.585	79.978	318.788	262.085	70.436	0.00031993	0.0002807	8.5263e-05	134.5	6.1999e-07	3.1671e-07	303.71	28.375	2.0981e-06	2.5588e-06	106.13	57.566	12.155	10.431	2.0763e-06	48.105	0.0057855	0.016758	0.0047738	156.78	0.00014489	0.00019492	324.71	35.902	0.00014286	0.00019557	117.22	62.225	17.91	11.99	0.00016466	50.249	178.523	263.274	383.157	72.875	402.459	173.180	74.859	79.361	299.724	99.152	79.035	83.896	83.788	84.826	412.191	84.643	-8191	255	
15609.711	1	1	0	0	0.19041	0.20938	0.17962	0.20223	0.13112	0.17908	0.13649	0.11122	0.037872	0.091636	0.068615	0.038824	0.091322	0.063906	0.10195	0.16533	-2.1646	-2.7167	-2.5062	-2.7125	-2.7667	-2.4583	-2.8354	-2.4917	-2.4708	-2.7354	-2.5417	-2.6521	-2.6667	-2.5083	-2.8312	-2.5667	107.528	74.615	63.816	396.273	206.075	157.182	334.704	67.267	86.008	384.291	250.769	307.302	404.400	283.529	143.189	376.303	0.00041732	0.00062162	9.2771e-05	134.28	1.8716e-06	5.7122e-06	304.05	28.168	5.0354e-06	3.6039e-06	105.14	56.662	12.151	10.379	5.6228e-06	47.982	0.0058133	0.017023	0.0047535	155.72	0.00014469	0.00019467	323.56	35.626	0.00014099	0.00019473	115.93	61.704	17.769	11.916	0.00016278	49.931	189.545	407.615	233.813	73.456	118.957	379.087	74.544	79.273	140.786	332.077	79.163	83.192	84.965	85.262	216.140	84.452	-8191	255	
15609.807	1	1	0	0	0.081329	0.10767	0.070708	0.086245	0.28813	0.025651	0.14185	0.075445	0.16524	0.34121	0.04851	0.28639	0.054427	0.17457	0.15989	0.25377	-2.1833	-2.9229	-2.4542	-2.8229	-2.7729	-2.425	-2.7458	-2.6125	-2.7354	-2.8167	-2.6708	-2.9188	-2.6896	-2.5542	-2.9417	-2.7604	296.710	390.905	120.919	256.555	91.824	304.725	197.673	258.035	406.617	395.034	410.844	132.713	249.854	405.216	96.098	389.020	0.00033324	0.00041683	0.00010716	133.08	5.8698e-06	3.2547e-06	303.44	28.366	4.6747e-07	4.9786e-06	104.82	56.145	12.096	10.359	4.0353e-06	47.756	0.005813	0.017005	0.0047995	155.84	0.00014566	0.0001952	323.19	35.714	0.00014159	0.00019632	115.84	60.934	17.655	11.918	0.0001639	49.894	190.997	91.196	128.866	73.497	225.420	257.045	74.691	79.987	317.501	240.830	79.134	83.824	84.115	85.504	308.417	84.697	-8191	255	
15609.928	1	1	0	0	0.17604	0.024683	0.056361	0.15801	0.079131	0.23213	0.26097	0.33712	0.19285	0.14025	0.11869	0.25474	0.1785	0.21828	0.18199	0.13811	-2.1896	-2.7292	-2.4292	-2.7354	-2.9125	-2.4792	-2.6292	-2.7438	-2.5292	-2.6562	-2.4542	-2.8146	-2.6854	-2.3292	-2.7438	-2.8937	317.175	248.628	108.044	173.984	237.088	166.645	174.903	410.763	62.378	241.241	119.347	101.603	133.036	370.245	192.366	273.943	0.00038651	0.00077899	7.5899e-05	134.27	6.6713e-06	5.666e-06	302.66	28.206	8.9771e-07	4.0045e-06	105.9	57.245	12.234	10.511	3.2522e-06	48.529	0.0058623	0.017199	0.0047896	156.09	0.00014634	0.00019868	324.07	35.771	0.00014469	0.00019527	116.94	62.411	18.04	12.071	0.0001637	50.66	190.615	203.814	326.105	73.918	125.514	414.838	74.654	78.909	136.787	247.758	78.463	83.371	85.020	85.399	126.932	84.648	-8191	255	
