BOXY.EXE: ISS Imagent and Oximeter Data Acquisition Program Version 0.80
Ascii Record File

#ACQ INFORMATION
2  Detector Channels 
16  External MUX Channels 
1  Auxiliary Channels 
5000  Waveform (CCF) Frequency (Hz)
1  Waveforms Skipped 
30  Waveforms Averaged 
1  Cycles Averaged 
16  Acquisitions per Waveform 
10.0806  Updata Rate (Hz) 

#FILE INFORMATION
TRUE -- External MUX Channel results are PARSED.
FALSE -- AC DC and Phase are NOT grouped.
TRUE -- Companion Program Settings File CREATED.
FALSE -- AC data not excluded
FALSE -- DC data not excluded
FALSE -- Phase data not excluded
FALSE -- Auxillary Chn. data not excluded
Tab delimiters

#CALIBRATION STATE
TRUE -- Waveform Calibration Values APPLIED.


#AUX CALIBRATION VALUES
Val Type	aux-1	

Term	1.0000e+00	
Factor	0.0000e+00	


#WF CALIBRATION VALUES
A = Detector Channel
Val Type	A-AC1	A-AC2	A-AC3	A-AC4	A-AC5	A-AC6	A-AC7	A-AC8	A-AC9	A-AC10	A-AC11	A-AC12	A-AC13	A-AC14	A-AC15	A-AC16	A-DC1	A-DC2	A-DC3	A-DC4	A-DC5	A-DC6	A-DC7	A-DC8	A-DC9	A-DC10	A-DC11	A-DC12	A-DC13	A-DC14	A-DC15	A-DC16	A-Ph1	A-Ph2	A-Ph3	A-Ph4	A-Ph5	A-Ph6	A-Ph7	A-Ph8	A-Ph9	A-Ph10	A-Ph11	A-Ph12	A-Ph13	A-Ph14	A-Ph15	A-Ph16	

Term	0.00000e+00	0.00000e+00	0.00000e+00	0.00000e+00	0.00000e+00	0.00000e+00	0.00000e+00	0.00000e+00	0.00000e+00	0.00000e+00	0.00000e+00	0.00000e+00	0.00000e+00	0.00000e+00	0.00000e+00	0.00000e+00	0.00000e+00	0.00000e+00	0.00000e+00	0.00000e+00	0.00000e+00	0.00000e+00	0.00000e+00	0.00000e+00	0.00000e+00	0.00000e+00	0.00000e+00	0.00000e+00	0.00000e+00	0.00000e+00	0.00000e+00	0.00000e+00	0.00000e+00	0.00000e+00	0.00000e+00	0.00000e+00	0.00000e+00	0.00000e+00	0.00000e+00	0.00000e+00	0.00000e+00	0.00000e+00	0.00000e+00	0.00000e+00	0.00000e+00	0.00000e+00	0.00000e+00	0.00000e+00	
Factor	1.00000e+00	1.00000e+00	1.00000e+00	1.00000e+00	1.00000e+00	1.00000e+00	1.00000e+00	1.00000e+00	1.00000e+00	1.00000e+00	1.00000e+00	1.00000e+00	1.00000e+00	1.00000e+00	1.00000e+00	1.00000e+00	1.00000e+00	1.00000e+00	1.00000e+00	1.00000e+00	1.00000e+00	1.00000e+00	1.00000e+00	1.00000e+00	1.00000e+00	1.00000e+00	1.00000e+00	1.00000e+00	1.00000e+00	1.00000e+00	1.00000e+00	1.00000e+00	X	X	X	X	X	X	X	X	X	X	X	X	X	X	X	X	

B = Detector Channel
Val Type	B-AC1	B-AC2	B-AC3	B-AC4	B-AC5	B-AC6	B-AC7	B-AC8	B-AC9	B-AC10	B-AC11	B-AC12	B-AC13	B-AC14	B-AC15	B-AC16	B-DC1	B-DC2	B-DC3	B-DC4	B-DC5	B-DC6	B-DC7	B-DC8	B-DC9	B-DC10	B-DC11	B-DC12	B-DC13	B-DC14	B-DC15	B-DC16	B-Ph1	B-Ph2	B-Ph3	B-Ph4	B-Ph5	B-Ph6	B-Ph7	B-Ph8	B-Ph9	B-Ph10	B-Ph11	B-Ph12	B-Ph13	B-Ph14	B-Ph15	B-Ph16	

Term	0.00000e+00	0.00000e+00	0.00000e+00	0.00000e+00	0.00000e+00	0.00000e+00	0.00000e+00	0.00000e+00	0.00000e+00	0.00000e+00	0.00000e+00	0.00000e+00	0.00000e+00	0.00000e+00	0.00000e+00	0.00000e+00	0.00000e+00	0.00000e+00	0.00000e+00	0.00000e+00	0.00000e+00	0.00000e+00	0.00000e+00	0.00000e+00	0.00000e+00	0.00000e+00	0.00000e+00	0.00000e+00	0.00000e+00	0.00000e+00	0.00000e+00	0.00000e+00	-5.24022e+01	-1.64169e+02	-9.76990e+01	-1.80969e+02	-5.66720e+01	-9.77327e+01	-1.56073e+02	-1.62015e+02	-2.91745e+01	-6.44927e+01	-1.73276e+02	-1.70265e+02	-1.82009e+02	-1.76771e+02	-6.96488e+01	-1.50163e+02	
Factor	1.86859e-05	9.78118e-05	2.79070e-05	1.67683e-01	9.76611e-07	1.10387e-06	1.73110e-01	5.09591e-02	1.07639e-06	1.05178e-06	1.04153e-01	2.91335e-02	3.50756e-02	9.31146e-03	9.58455e-07	1.36155e-02	6.11716e-07	6.27859e-07	1.75053e-07	7.79073e-02	6.84918e-09	6.89061e-09	7.55109e-02	2.36384e-02	6.84905e-09	6.88618e-09	4.50172e-02	1.28399e-02	1.55609e-02	4.22386e-03	6.88738e-09	5.88561e-03	X	X	X	X	X	X	X	X	X	X	X	X	X	X	X	X	



#DISTANCE SETTINGS
A = Detector Channel
A-1	A-2	A-3	A-4	A-5	A-6	A-7	A-8	A-9	A-10	A-11	A-12	A-13	A-14	A-15	A-16	

2.5000e+00	3.0000e+00	2.5000e+00	3.0000e+00	2.0000e+00	3.0000e+00	1.5000e+00	3.0000e+00	3.0000e+00	3.0000e+00	3.0000e+00	3.0000e+00	3.0000e+00	3.0000e+00	1.5000e+00	3.0000e+00	

B = Detector Channel
B-1	B-2	B-3	B-4	B-5	B-6	B-7	B-8	B-9	B-10	B-11	B-12	B-13	B-14	B-15	B-16	

1.0000e+01	1.0000e+01	1.0000e+01	1.4400e+00	1.0000e+01	1.0000e+01	1.5100e+00	1.9400e+00	1.0000e+01	1.0000e+01	1.9900e+00	2.4900e+00	2.4100e+00	2.9000e+00	1.0000e+01	2.9800e+00	




#DATA BEGINS
time	group	step	mark	flag	A-AC1	A-AC2	A-AC3	A-AC4	A-AC5	A-AC6	A-AC7	A-AC8	A-AC9	A-AC10	A-AC11	A-AC12	A-AC13	A-AC14	A-AC15	A-AC16	A-DC1	A-DC2	A-DC3	A-DC4	A-DC5	A-DC6	A-DC7	A-DC8	A-DC9	A-DC10	A-DC11	A-DC12	A-DC13	A-DC14	A-DC15	A-DC16	A-Ph1	A-Ph2	A-Ph3	A-Ph4	A-Ph5	A-Ph6	A-Ph7	A-Ph8	A-Ph9	A-Ph10	A-Ph11	A-Ph12	A-Ph13	A-Ph14	A-Ph15	A-Ph16	B-AC1	B-AC2	B-AC3	B-AC4	B-AC5	B-AC6	B-AC7	B-AC8	B-AC9	B-AC10	B-AC11	B-AC12	B-AC13	B-AC14	B-AC15	B-AC16	B-DC1	B-DC2	B-DC3	B-DC4	B-DC5	B-DC6	B-DC7	B-DC8	B-DC9	B-DC10	B-DC11	B-DC12	B-DC13	B-DC14	B-DC15	B-DC16	B-Ph1	B-Ph2	B-Ph3	B-Ph4	B-Ph5	B-Ph6	B-Ph7	B-Ph8	B-Ph9	B-Ph10	B-Ph11	B-Ph12	B-Ph13	B-Ph14	B-Ph15	B-Ph16	aux-1	digaux	

3566.946	1	1	0	512	0.31327	0.12905	0.19059	0.23476	0.10596	0.11132	0.16497	0.20899	0.040308	0.091439	0.066392	0.22005	0.19267	0.066828	0.20274	0.20274	-2.5417	-2.4979	-2.5917	-2.7875	-2.4083	-2.9417	-2.7188	-2.4688	-2.8083	-2.6479	-2.7	-2.95	-2.5021	-2.975	-2.8104	-2.7438	72.438	374.839	366.928	125.589	408.789	181.583	405.291	373.729	189.317	424.914	100.107	67.424	351.324	409.515	375.425	104.548	0.00063985	0.00074659	0.00030771	544.98	6.9187e-06	1.1288e-05	763.59	208.72	7.968e-06	1.7805e-05	311.12	147.27	105.4	56.965	7.9519e-06	81.962	0.0012467	0.0013341	0.00040743	662.82	1.3533e-05	1.4783e-05	867.31	241.25	1.3411e-05	1.4899e-05	375.93	158.13	120.76	60.42	1.5091e-05	84.009	258.583	117.597	395.297	78.402	415.944	179.429	76.798	84.122	79.038	253.430	81.189	84.835	88.387	91.551	313.095	88.358	-8191	255	
3567.043	1	1	0	0	0.096118	0.020498	0.18076	0.30924	0.20408	0.11161	0.16627	0.22322	0.15632	0.15044	0.20444	0.13559	0.12507	0.16465	0.14827	0.14122	-2.6042	-2.6333	-2.675	-2.8896	-2.4729	-2.9542	-2.7458	-2.5417	-2.9271	-2.4958	-2.7104	-3.0646	-2.4208	-2.9146	-2.8229	-2.825	239.157	154.885	369.122	304.913	92.250	388.315	322.112	70.861	425.704	258.705	270.605	70.796	195.885	377.119	105.411	326.237	0.00084583	0.0015697	0.00018798	544.06	7.8319e-06	1.5882e-05	756.49	208.51	1.1714e-05	1.5319e-05	310.54	145.88	104.2	56.148	2.7222e-06	80.838	0.001167	0.0013332	0.00037113	647.48	1.2741e-05	1.4525e-05	847.8	235.64	1.2667e-05	1.4694e-05	365.34	155.25	119.31	60.108	1.4141e-05	82.695	238.515	90.893	400.951	78.006	246.474	161.919	76.519	84.288	202.858	210.787	81.604	85.122	88.178	91.834	419.396	88.486	-8191	255	
3567.163	1	1	0	0	0.077959	0.17519	0.26914	0.10029	0.11972	0.28161	0.10265	0.082136	0.11736	0.19989	0.17807	0.21739	0.034587	0.22702	0.079002	0.17049	-2.3917	-2.5729	-2.5312	-2.875	-2.3812	-2.7708	-2.8333	-2.6562	-2.9167	-2.6292	-2.7313	-3.075	-2.5938	-2.8833	-2.5521	-2.725	385.624	70.152	293.564	355.227	417.232	369.519	345.213	372.470	371.195	343.202	353.393	393.943	180.635	403.552	190.520	223.240	0.00069986	0.00046743	0.00012721	542.25	7.0698e-06	1.1143e-05	757.74	206.46	1.9978e-05	6.301e-06	310.04	144.41	103.12	55.714	1.0534e-05	80.205	0.0011736	0.0013657	0.00035241	641.51	1.2972e-05	1.4803e-05	835.94	233.43	1.3052e-05	1.4741e-05	359.01	153.2	119.57	59.623	1.3326e-05	81.569	242.577	70.965	384.323	77.952	226.947	241.784	76.759	84.483	226.928	231.201	81.447	85.253	88.387	91.541	148.756	88.434	-8191	255	
3567.259	1	1	0	0	0.077891	0.098245	0.14421	0.086086	0.23978	0.26821	0.21639	0.13021	0.23194	0.20435	0.016305	0.30719	0.30143	0.15065	0.046599	0.23471	-2.4396	-2.7729	-2.3792	-3.15	-2.6729	-2.6688	-2.8729	-2.4208	-2.7313	-2.7062	-2.5979	-3.0083	-2.5021	-2.9771	-2.9208	-2.6646	259.991	397.119	316.477	371.087	113.402	121.613	384.471	329.405	403.886	374.489	102.467	297.993	403.571	411.143	162.370	356.706	0.00075599	0.00095238	9.896e-05	542.68	1.4254e-05	5.4105e-06	757.9	205.74	1.7688e-05	1.1602e-05	308.88	145.04	103.24	55.677	5.6327e-06	80.229	0.001227	0.001341	0.00033837	637.83	1.3833e-05	1.4623e-05	833.52	231.47	1.3888e-05	1.4389e-05	356.27	152.78	121.15	59.113	1.2975e-05	81.425	230.585	369.136	303.253	78.459	247.544	366.012	76.691	84.666	275.035	353.493	81.266	85.031	88.276	91.641	178.228	88.490	-8191	255	
3567.354	1	1	0	0	0.1378	0.028938	0.29207	0.13321	0.19692	0.13705	0.23388	0.12887	0.24336	0.050958	0.21083	0.31093	0.13082	0.045855	0.11362	0.32544	-2.3042	-2.675	-2.4583	-3.1333	-2.4958	-2.5208	-3.0062	-2.5938	-2.85	-2.8458	-2.4583	-2.9437	-2.5917	-2.7812	-2.9292	-2.7333	98.947	84.590	416.392	327.114	311.804	98.725	363.105	124.300	413.722	257.568	358.685	376.566	358.573	308.767	385.695	331.743	0.00096572	0.0005778	6.1824e-05	543.98	9.8902e-06	1.0639e-05	764.51	207.32	1.5235e-05	1.2163e-05	311.25	146.37	103.01	55.827	4.9348e-06	80.672	0.0012793	0.0012794	0.00032857	639.69	1.4445e-05	1.4094e-05	833.55	233.26	1.4718e-05	1.4017e-05	356.78	154.41	123.2	59.117	1.2784e-05	82.371	247.069	321.947	420.309	78.475	249.197	292.721	76.773	84.564	248.804	358.581	80.938	84.918	88.378	91.744	134.228	88.282	-8191	255	
3567.427	1	1	0	0	0.045402	0.20482	0.30663	0.13431	0.06862	0.16935	0.28125	0.46269	0.22869	0.17037	0.20646	0.12452	0.096923	0.27258	0.21914	0.26334	-2.4313	-2.7687	-2.4021	-2.9458	-2.6688	-2.5042	-3.05	-2.7979	-2.6729	-2.8167	-2.6312	-3.0083	-2.6417	-2.7333	-2.8688	-2.7708	90.906	375.068	243.178	98.442	361.328	419.651	414.998	410.005	238.035	125.822	199.096	333.866	374.628	88.845	362.499	360.058	0.00097884	0.0010018	8.9675e-05	546.2	1.224e-05	1.2526e-05	757.57	207.37	4.5108e-06	3.5464e-06	309.96	145.78	103	55.99	5.3116e-06	80.871	0.0013286	0.0012399	0.00032332	646.51	1.4721e-05	1.3547e-05	828.96	236.16	1.4733e-05	1.3516e-05	355.38	155.87	123.31	59.076	1.2789e-05	83.348	230.728	294.485	414.634	78.094	178.069	67.731	76.726	84.630	178.267	153.722	81.010	85.160	88.501	91.627	84.064	88.548	-8191	255	
3567.546	1	1	0	0	0.35846	0.2504	0.14139	0.15921	0.37845	0.093687	0.13154	0.13749	0.18179	0.13346	0.11549	0.1106	0.16986	0.13401	0.16736	0.31479	-2.4	-2.8375	-2.1875	-2.9271	-2.6458	-2.5812	-3.075	-2.7438	-2.7875	-3.0771	-2.5542	-2.7458	-2.9375	-2.7938	-2.8729	-2.75	207.183	89.895	365.863	354.041	392.887	389.455	330.256	233.457	374.056	154.555	326.134	170.976	329.293	85.821	98.652	336.534	0.00045098	0.00077096	9.3558e-05	547.57	9.6668e-06	2.4789e-06	759.53	207.92	9.1312e-06	6.7829e-06	310.39	145.59	102.23	55.607	8.308e-06	80.738	0.0013309	0.0012281	0.00032266	657.6	1.4529e-05	1.3337e-05	826.78	239.38	1.4358e-05	1.3221e-05	354.32	156.82	121.62	58.662	1.2779e-05	83.901	240.447	297.700	264.043	78.493	128.168	269.308	76.758	84.650	377.946	332.660	81.076	84.990	87.699	91.451	232.423	88.443	-8191	255	
3567.642	1	1	0	0	0.073243	0.27667	0.052253	0.14479	0.3322	0.10052	0.1097	0.19592	0.07716	0.33538	0.058038	0.020289	0.071405	0.18369	0.29318	0.30519	-2.2375	-2.9021	-2.6458	-2.8125	-2.7562	-2.5812	-3.0333	-2.6417	-2.4792	-2.8396	-2.5917	-2.8	-2.85	-2.5125	-2.8958	-2.95	300.663	85.532	135.399	381.803	268.108	321.439	347.839	416.201	154.051	109.785	379.965	263.227	244.554	414.062	422.261	328.240	0.00053452	0.0010548	0.00038169	544.18	7.1244e-06	9.7503e-06	757.39	208.43	5.4657e-06	9.1674e-06	311.95	146.14	103.39	56.096	1.5628e-05	80.889	0.0012872	0.0012068	0.00033148	668.09	1.4077e-05	1.3129e-05	832.2	241.86	1.3858e-05	1.2843e-05	359.39	158.42	120.61	58.668	1.3344e-05	84.134	241.337	348.446	146.287	78.022	98.067	380.651	76.855	84.783	87.451	292.633	81.410	84.987	88.204	91.587	214.822	88.398	-8191	255	
3567.738	1	1	0	0	0.21497	0.21759	0.30836	0.23009	0.15539	0.20921	0.2935	0.30468	0.19294	0.18122	0.20779	0.20308	0.13234	0.16643	0.2361	0.24348	-2.2938	-2.9479	-2.4688	-2.7562	-2.8125	-2.5667	-2.9188	-2.8125	-2.4813	-2.9417	-2.4938	-2.8063	-2.9292	-2.6542	-2.8854	-2.7687	350.687	363.054	393.425	400.716	141.837	85.157	239.410	86.674	141.404	120.517	94.659	339.109	257.836	412.535	392.051	397.388	0.00056315	0.0011817	0.00047324	544.64	2.3191e-06	6.94e-06	762.26	207.56	9.7276e-06	1.2368e-05	312.1	146.02	103.61	55.822	1.8578e-05	80.219	0.0012284	0.0011595	0.00034464	666.63	1.3364e-05	1.2737e-05	841.24	241.06	1.3262e-05	1.2475e-05	362.84	157.42	119.19	58.257	1.3809e-05	83.387	228.069	420.445	161.680	78.249	324.819	316.643	76.668	84.521	392.820	152.740	81.245	85.023	88.377	91.506	225.983	88.306	-8191	255	
3567.835	1	1	0	0	0.085582	0.10239	0.1974	0.10264	0.1535	0.084756	0.32444	0.14075	0.30003	0.34197	0.27093	0.33877	0.18516	0.31352	0.15037	0.28551	-2.1104	-2.9542	-2.4188	-2.6042	-2.8917	-2.3646	-2.8875	-2.8104	-2.5604	-2.9125	-2.7479	-2.8958	-2.8729	-2.5104	-2.8771	-3.15	340.134	142.407	199.275	408.315	129.121	98.132	383.895	380.706	77.615	363.959	352.352	310.243	94.151	160.922	136.013	342.557	0.00055461	0.00092647	0.00033917	546.45	3.9234e-06	6.0562e-06	761.86	207.66	4.4707e-06	1.0083e-06	310.68	145.57	102.79	55.911	9.8794e-06	80.469	0.0011699	0.0011275	0.00035873	660.34	1.2778e-05	1.2488e-05	846.82	238.14	1.2878e-05	1.2395e-05	365.67	155.99	117.82	58.234	1.4378e-05	82.83	236.390	67.324	181.628	78.330	277.905	203.872	76.998	84.487	420.021	357.707	81.371	84.961	88.198	91.497	201.165	88.339	-8191	255	
3567.955	1	1	0	0	0.21005	0.19942	0.21671	0.23647	0.15056	0.10769	0.18209	0.077131	0.17492	0.11832	0.1436	0.21525	0.2115	0.32833	0.028069	0.12923	-2.1479	-2.7667	-2.5333	-2.7375	-2.9938	-2.4854	-2.8604	-2.9083	-2.3604	-2.7833	-2.5542	-2.7021	-2.7958	-2.4938	-2.5896	-2.9604	297.026	352.889	155.928	406.286	91.647	103.469	354.738	240.903	412.644	243.675	425.464	306.200	320.337	425.886	273.263	296.433	0.00050547	0.0013285	0.00045348	544.3	3.5489e-06	2.3843e-05	756.03	206.76	1.3439e-06	1.5228e-05	310.04	144.79	102.93	55.886	9.7727e-07	80.865	0.0011467	0.0011543	0.00036811	651.26	1.2519e-05	1.2914e-05	850.13	235.8	1.2423e-05	1.3008e-05	367.19	154.56	117.35	58.687	1.4656e-05	82.407	254.441	124.105	194.272	78.446	258.593	207.130	76.820	84.708	281.931	239.815	81.131	85.004	88.403	91.542	119.298	88.337	-8191	255	
3568.051	1	1	0	0	0.04172	0.40308	0.0070018	0.12027	0.077256	0.25499	0.37874	0.23274	0.25086	0.1567	0.17898	0.1791	0.12215	0.23104	0.23044	0.28031	-1.8208	-2.7354	-2.6437	-2.6583	-2.9729	-2.6	-2.8354	-2.7875	-2.5938	-2.8312	-2.7938	-2.7062	-2.8958	-2.7729	-2.7208	-2.9437	268.580	201.926	95.971	340.057	108.845	340.592	392.153	370.894	116.175	299.799	395.345	354.458	386.511	373.289	130.576	370.300	0.00047961	0.0019017	0.00015562	544.49	5.0922e-06	1.0466e-05	758	206.67	1.6888e-05	1.7653e-05	308.59	144.76	102.49	55.827	4.6612e-06	79.929	0.001136	0.0012276	0.00037207	647.75	1.2441e-05	1.3819e-05	848.98	234.67	1.2413e-05	1.3873e-05	364.09	153.88	116.67	58.947	1.3926e-05	81.548	241.720	69.168	420.609	78.376	265.948	227.613	76.675	84.719	332.951	252.443	81.528	85.092	88.137	91.635	98.943	88.372	-8191	255	
3568.123	1	1	0	0	0.24964	0.20431	0.09216	0.32405	0.20144	0.033116	0.12512	0.29419	0.22844	0.10601	0.17073	0.25297	0.17144	0.17709	0.17138	0.22942	-1.9083	-2.7958	-2.5583	-2.4375	-2.7896	-2.5271	-2.7417	-2.9688	-2.4271	-2.9667	-2.7562	-2.4125	-2.8354	-2.7396	-2.6271	-2.9708	380.262	389.684	391.974	73.139	220.912	261.279	377.904	399.007	244.004	260.797	95.788	206.557	359.855	237.514	375.795	362.669	0.00084908	0.0013309	0.0002018	546.6	7.1665e-06	9.9867e-06	762.86	206.29	1.0424e-05	1.6183e-05	309.2	145.25	102.38	55.658	4.5913e-06	80.079	0.0011001	0.0012663	0.00034903	641.77	1.2105e-05	1.4108e-05	840.77	232.01	1.233e-05	1.423e-05	359.7	153.01	117.09	59.214	1.3261e-05	81.344	227.989	143.738	328.762	78.237	160.356	214.990	76.610	84.640	200.198	209.801	81.230	85.081	88.346	91.527	382.129	88.367	-8191	255	
3568.244	1	1	0	0	0.084045	0.25154	0.12077	0.30397	0.10147	0.24357	0.28355	0.13375	0.13347	0.10297	0.065226	0.11812	0.10871	0.14018	0.17371	0.14026	-2.0604	-2.6917	-2.7417	-2.4938	-2.8875	-2.6396	-2.7229	-3.0312	-2.4875	-2.8083	-2.7979	-2.6562	-2.8063	-2.8146	-2.6021	-3.0896	240.838	367.854	243.794	317.880	153.622	235.437	317.344	351.771	206.202	333.859	403.587	139.944	410.650	282.933	252.388	351.053	0.00087303	0.0010632	9.8767e-05	545.1	1.0189e-05	2.5992e-06	765.11	207.11	1.6631e-05	1.938e-06	310.22	145.37	103.08	55.502	8.1634e-06	80.45	0.0011341	0.001296	0.00033085	636.35	1.2535e-05	1.4191e-05	833.36	231.25	1.2762e-05	1.414e-05	355.99	152.68	118.68	59.089	1.287e-05	81.283	239.855	97.735	110.354	77.993	231.913	306.064	76.649	84.986	271.700	161.650	81.672	85.004	88.304	91.755	239.969	88.431	-8191	255	
3568.338	1	1	0	0	0.184	0.33404	0.17678	0.1654	0.14608	0.16964	0.19057	0.24298	0.050322	0.22021	0.16009	0.26536	0.29768	0.26411	0.28065	0.13809	-2.1208	-2.7146	-2.6917	-2.4667	-2.8271	-2.6875	-2.5687	-3.0604	-2.6604	-2.7083	-2.975	-2.7	-2.875	-2.9583	-2.35	-3.1604	169.809	155.919	140.459	140.294	408.656	304.646	399.581	69.604	121.480	410.104	86.113	78.867	268.785	366.799	259.574	256.360	0.0010561	0.001033	0.00012659	545.76	7.5217e-06	2.0131e-06	756.93	207.13	1.7239e-05	4.1335e-06	308.44	145.09	103.09	55.368	6.3735e-06	80.249	0.0011998	0.0012885	0.00032465	635.37	1.3499e-05	1.403e-05	829.97	230.61	1.3625e-05	1.3932e-05	353.65	152.46	120.62	58.806	1.2797e-05	81.262	240.891	202.402	97.770	78.367	244.198	310.909	76.569	84.521	230.392	76.245	81.376	85.194	88.134	91.672	129.511	88.588	-8191	255	
3568.434	1	1	0	0	0.25977	0.1782	0.19303	0.21883	0.10888	0.16825	0.13669	0.24956	0.29449	0.21321	0.16508	0.17862	0.41215	0.11434	0.098744	0.074583	-2.1229	-2.4521	-2.7542	-2.5583	-2.8229	-2.8458	-2.5979	-2.925	-2.7354	-2.6667	-2.9083	-2.6583	-2.7562	-2.8292	-2.5167	-2.9875	197.512	82.890	219.024	105.623	188.164	320.298	92.641	400.976	357.710	203.678	86.423	415.928	388.972	339.419	424.071	131.775	0.00086644	0.00078482	8.2013e-05	545.12	1.6915e-05	5.9222e-06	757.01	207.05	5.6613e-06	3.52e-06	307.66	145.18	102.35	55.518	3.2075e-06	80.701	0.0012896	0.0012671	0.00032419	640.07	1.4457e-05	1.3733e-05	827.97	232.79	1.4435e-05	1.355e-05	352.2	153.43	121.95	58.589	1.2598e-05	82.14	232.143	132.683	124.653	77.862	233.709	367.114	76.626	84.771	238.940	119.710	81.229	85.057	88.365	91.713	207.041	88.719	-8191	255	
3568.532	1	1	0	0	0.19975	0.18627	0.22188	0.30187	0.078195	0.18838	0.35367	0.37137	0.17664	0.18197	0.13688	0.11847	0.19905	0.19287	0.11277	0.090085	-2.225	-2.3708	-2.8833	-2.5417	-2.8229	-2.8042	-2.5604	-2.8479	-2.7521	-2.6042	-2.875	-2.5625	-2.9292	-2.8937	-2.3458	-3.1208	143.372	132.910	129.376	293.101	68.116	258.172	337.222	382.672	137.692	263.492	351.597	373.012	401.076	404.385	222.507	337.782	0.00079747	0.00063398	0.00020755	544.75	1.345e-05	2.5993e-06	756.19	207.76	6.2983e-06	5.5729e-06	308.54	144.88	102.7	55.54	1.1923e-05	80.693	0.0013222	0.0012244	0.00031753	649.24	1.4637e-05	1.3338e-05	826.55	235.87	1.458e-05	1.3263e-05	352.37	155.54	121.95	58.486	1.2409e-05	83.034	249.270	88.058	420.303	78.602	157.543	228.277	76.715	84.863	100.668	278.214	81.302	85.058	88.370	91.863	233.860	88.510	-8191	255	
3568.651	1	1	0	0	0.022185	0.23225	0.056457	0.16271	0.17863	0.10469	0.11122	0.25957	0.07226	0.10992	0.37367	0.20293	0.21561	0.22968	0.097049	0.32065	-2.2417	-2.4625	-2.9062	-2.4375	-2.825	-2.6979	-2.5687	-2.7833	-2.7771	-2.5229	-2.9708	-2.7042	-2.6833	-2.9437	-2.3708	-2.8958	126.128	289.906	414.372	398.362	403.253	249.516	416.806	73.850	233.826	369.418	134.432	379.020	87.501	278.311	188.825	343.327	0.00051254	0.00013359	0.00031268	546.58	5.8541e-06	2.0598e-05	757.74	207	4.4167e-06	1.7022e-05	311.67	146.53	103.26	55.845	1.0432e-05	80.921	0.0012868	0.0011966	0.00031728	659.44	1.428e-05	1.3122e-05	827.83	239.1	1.4306e-05	1.321e-05	356.43	158.58	122.25	58.799	1.2926e-05	84.029	254.029	347.009	217.566	78.530	296.006	71.499	76.755	84.715	105.877	97.850	81.341	85.068	88.011	91.583	178.641	88.685	-8191	255	
