BOXY.EXE: ISS Imagent and Oximeter Data Acquisition Program Version 0.80
Ascii Record File

#ACQ INFORMATION
2  Detector Channels 
16  External MUX Channels 
1  Auxiliary Channels 
5000  Waveform (CCF) Frequency (Hz)
1  Waveforms Skipped 
30  Waveforms Averaged 
1  Cycles Averaged 
16  Acquisitions per Waveform 
10.0806  Updata Rate (Hz) 

#FILE INFORMATION
TRUE -- External MUX Channel results are PARSED.
FALSE -- AC DC and Phase are NOT grouped.
TRUE -- Companion Program Settings File CREATED.
FALSE -- AC data not excluded
FALSE -- DC data not excluded
FALSE -- Phase data not excluded
FALSE -- Auxillary Chn. data not excluded
Tab delimiters

#CALIBRATION STATE
TRUE -- Waveform Calibration Values APPLIED.


#AUX CALIBRATION VALUES
Val Type	aux-1	

Term	1.0000e+00	
Factor	0.0000e+00	


#WF CALIBRATION VALUES
A = Detector Channel
Val Type	A-AC1	A-AC2	A-AC3	A-AC4	A-AC5	A-AC6	A-AC7	A-AC8	A-AC9	A-AC10	A-AC11	A-AC12	A-AC13	A-AC14	A-AC15	A-AC16	A-DC1	A-DC2	A-DC3	A-DC4	A-DC5	A-DC6	A-DC7	A-DC8	A-DC9	A-DC10	A-DC11	A-DC12	A-DC13	A-DC14	A-DC15	A-DC16	A-Ph1	A-Ph2	A-Ph3	A-Ph4	A-Ph5	A-Ph6	A-Ph7	A-Ph8	A-Ph9	A-Ph10	A-Ph11	A-Ph12	A-Ph13	A-Ph14	A-Ph15	A-Ph16	

Term	0.00000e+00	0.00000e+00	0.00000e+00	0.00000e+00	0.00000e+00	0.00000e+00	0.00000e+00	0.00000e+00	0.00000e+00	0.00000e+00	0.00000e+00	0.00000e+00	0.00000e+00	0.00000e+00	0.00000e+00	0.00000e+00	0.00000e+00	0.00000e+00	0.00000e+00	0.00000e+00	0.00000e+00	0.00000e+00	0.00000e+00	0.00000e+00	0.00000e+00	0.00000e+00	0.00000e+00	0.00000e+00	0.00000e+00	0.00000e+00	0.00000e+00	0.00000e+00	0.00000e+00	0.00000e+00	0.00000e+00	0.00000e+00	0.00000e+00	0.00000e+00	0.00000e+00	0.00000e+00	0.00000e+00	0.00000e+00	0.00000e+00	0.00000e+00	0.00000e+00	0.00000e+00	0.00000e+00	0.00000e+00	
Factor	1.00000e+00	1.00000e+00	1.00000e+00	1.00000e+00	1.00000e+00	1.00000e+00	1.00000e+00	1.00000e+00	1.00000e+00	1.00000e+00	1.00000e+00	1.00000e+00	1.00000e+00	1.00000e+00	1.00000e+00	1.00000e+00	1.00000e+00	1.00000e+00	1.00000e+00	1.00000e+00	1.00000e+00	1.00000e+00	1.00000e+00	1.00000e+00	1.00000e+00	1.00000e+00	1.00000e+00	1.00000e+00	1.00000e+00	1.00000e+00	1.00000e+00	1.00000e+00	X	X	X	X	X	X	X	X	X	X	X	X	X	X	X	X	

B = Detector Channel
Val Type	B-AC1	B-AC2	B-AC3	B-AC4	B-AC5	B-AC6	B-AC7	B-AC8	B-AC9	B-AC10	B-AC11	B-AC12	B-AC13	B-AC14	B-AC15	B-AC16	B-DC1	B-DC2	B-DC3	B-DC4	B-DC5	B-DC6	B-DC7	B-DC8	B-DC9	B-DC10	B-DC11	B-DC12	B-DC13	B-DC14	B-DC15	B-DC16	B-Ph1	B-Ph2	B-Ph3	B-Ph4	B-Ph5	B-Ph6	B-Ph7	B-Ph8	B-Ph9	B-Ph10	B-Ph11	B-Ph12	B-Ph13	B-Ph14	B-Ph15	B-Ph16	

Term	0.00000e+00	0.00000e+00	0.00000e+00	0.00000e+00	0.00000e+00	0.00000e+00	0.00000e+00	0.00000e+00	0.00000e+00	0.00000e+00	0.00000e+00	0.00000e+00	0.00000e+00	0.00000e+00	0.00000e+00	0.00000e+00	0.00000e+00	0.00000e+00	0.00000e+00	0.00000e+00	0.00000e+00	0.00000e+00	0.00000e+00	0.00000e+00	0.00000e+00	0.00000e+00	0.00000e+00	0.00000e+00	0.00000e+00	0.00000e+00	0.00000e+00	0.00000e+00	-5.24022e+01	-1.64169e+02	-9.76990e+01	-1.80969e+02	-5.66720e+01	-9.77327e+01	-1.56073e+02	-1.62015e+02	-2.91745e+01	-6.44927e+01	-1.73276e+02	-1.70265e+02	-1.82009e+02	-1.76771e+02	-6.96488e+01	-1.50163e+02	
Factor	1.86859e-05	9.78118e-05	2.79070e-05	1.67683e-01	9.76611e-07	1.10387e-06	1.73110e-01	5.09591e-02	1.07639e-06	1.05178e-06	1.04153e-01	2.91335e-02	3.50756e-02	9.31146e-03	9.58455e-07	1.36155e-02	6.11716e-07	6.27859e-07	1.75053e-07	7.79073e-02	6.84918e-09	6.89061e-09	7.55109e-02	2.36384e-02	6.84905e-09	6.88618e-09	4.50172e-02	1.28399e-02	1.55609e-02	4.22386e-03	6.88738e-09	5.88561e-03	X	X	X	X	X	X	X	X	X	X	X	X	X	X	X	X	



#DISTANCE SETTINGS
A = Detector Channel
A-1	A-2	A-3	A-4	A-5	A-6	A-7	A-8	A-9	A-10	A-11	A-12	A-13	A-14	A-15	A-16	

2.5000e+00	3.0000e+00	2.5000e+00	3.0000e+00	2.0000e+00	3.0000e+00	1.5000e+00	3.0000e+00	3.0000e+00	3.0000e+00	3.0000e+00	3.0000e+00	3.0000e+00	3.0000e+00	1.5000e+00	3.0000e+00	

B = Detector Channel
B-1	B-2	B-3	B-4	B-5	B-6	B-7	B-8	B-9	B-10	B-11	B-12	B-13	B-14	B-15	B-16	

1.0000e+01	1.0000e+01	1.0000e+01	1.4400e+00	1.0000e+01	1.0000e+01	1.5100e+00	1.9400e+00	1.0000e+01	1.0000e+01	1.9900e+00	2.4900e+00	2.4100e+00	2.9000e+00	1.0000e+01	2.9800e+00	




#DATA BEGINS
time	group	step	mark	flag	A-AC1	A-AC2	A-AC3	A-AC4	A-AC5	A-AC6	A-AC7	A-AC8	A-AC9	A-AC10	A-AC11	A-AC12	A-AC13	A-AC14	A-AC15	A-AC16	A-DC1	A-DC2	A-DC3	A-DC4	A-DC5	A-DC6	A-DC7	A-DC8	A-DC9	A-DC10	A-DC11	A-DC12	A-DC13	A-DC14	A-DC15	A-DC16	A-Ph1	A-Ph2	A-Ph3	A-Ph4	A-Ph5	A-Ph6	A-Ph7	A-Ph8	A-Ph9	A-Ph10	A-Ph11	A-Ph12	A-Ph13	A-Ph14	A-Ph15	A-Ph16	B-AC1	B-AC2	B-AC3	B-AC4	B-AC5	B-AC6	B-AC7	B-AC8	B-AC9	B-AC10	B-AC11	B-AC12	B-AC13	B-AC14	B-AC15	B-AC16	B-DC1	B-DC2	B-DC3	B-DC4	B-DC5	B-DC6	B-DC7	B-DC8	B-DC9	B-DC10	B-DC11	B-DC12	B-DC13	B-DC14	B-DC15	B-DC16	B-Ph1	B-Ph2	B-Ph3	B-Ph4	B-Ph5	B-Ph6	B-Ph7	B-Ph8	B-Ph9	B-Ph10	B-Ph11	B-Ph12	B-Ph13	B-Ph14	B-Ph15	B-Ph16	aux-1	digaux	

3582.528	1	1	0	256	0.24449	0.15295	0.17263	0.47885	0.028402	0.25583	0.22141	0.3156	0.24188	0.20259	0.16807	0.14164	0.152	0.17352	0.27046	0.02584	-2.2042	-2.8542	-2.6146	-3.0062	-2.7854	-2.6437	-2.9562	-2.7562	-2.6521	-2.8417	-2.5062	-2.8771	-2.7625	-2.7583	-2.8583	-2.9854	414.831	115.407	106.596	368.674	167.021	392.051	369.263	300.158	183.412	93.308	268.560	90.540	75.715	342.185	137.020	377.870	0.00051673	0.00087593	0.00022969	546.52	1.7145e-05	2.0744e-05	748.09	214.09	3.0079e-05	1.6069e-05	308.95	131.66	94.457	50.681	3.5578e-05	71.49	0.0048082	0.0044626	0.0011828	1110.3	5.3479e-05	4.8803e-05	1199.5	383.78	5.2511e-05	4.8317e-05	579.01	220.15	200.89	76.183	4.6867e-05	110.13	237.131	324.364	252.849	78.521	386.194	303.048	76.926	85.351	80.869	415.730	82.043	85.929	90.187	92.808	232.686	89.261	-8191	255	
3582.649	1	1	0	0	0.29873	0.087047	0.045203	0.3615	0.18867	0.082352	0.27024	0.16013	0.18723	0.12154	0.17936	0.33271	0.28526	0.033152	0.13083	0.11485	-2.0833	-3.0208	-2.65	-2.8438	-2.6042	-2.4521	-3.0792	-2.7167	-2.6667	-3.0625	-2.6292	-2.8042	-2.9104	-2.7958	-2.8625	-2.8458	195.868	137.352	141.474	346.089	316.458	76.891	321.428	413.987	279.025	333.428	228.745	395.273	99.238	342.277	164.552	397.721	0.00042601	0.0017634	0.00095589	548.4	2.593e-05	2.0363e-05	756.06	212.06	4.566e-05	1.2189e-05	312.37	129.68	93.916	50.784	5.5178e-05	70.741	0.004538	0.0042906	0.0011968	1121.4	5.0119e-05	4.6862e-05	1212.3	386.61	5.0018e-05	4.7177e-05	594.99	221.59	196.62	75.69	5.0382e-05	111.02	229.232	236.101	181.257	78.174	401.546	336.600	76.988	84.919	419.882	348.310	81.698	86.071	89.822	92.602	197.867	89.145	-8191	255	
3582.720	1	1	0	0	0.036647	0.042801	0.061196	0.080819	0.33978	0.24435	0.20246	0.054939	0.1528	0.27798	0.17287	0.083837	0.10781	0.017695	0.1	0.16927	-2.2354	-2.825	-2.2917	-2.7042	-2.7687	-2.4813	-2.9062	-2.8458	-2.5646	-2.9479	-2.6813	-2.9021	-2.8458	-2.6	-2.8417	-2.8729	426.568	423.665	78.492	356.437	124.889	328.821	424.011	363.230	321.947	324.773	135.301	404.818	148.945	133.581	326.215	395.369	0.00041873	0.0011372	0.0011499	540.72	1.8846e-05	3.6395e-06	746.81	212.2	1.9954e-05	1.0511e-05	308.39	128.52	93.578	50.913	3.5327e-05	70.529	0.0044328	0.0042591	0.0012934	1122.8	4.899e-05	4.6192e-05	1250.8	382.76	4.8462e-05	4.6441e-05	616.46	218.11	193.89	75.412	5.3765e-05	109.84	226.114	363.143	183.142	78.539	385.327	343.234	77.287	85.034	271.433	72.599	81.973	86.002	89.514	92.988	196.701	88.644	-8191	255	
3582.816	1	1	0	0	0.13877	0.30142	0.20601	0.2133	0.16293	0.087949	0.1004	0.094385	0.27105	0.11433	0.30932	0.041348	0.25706	0.14545	0.13378	0.46466	-2.2417	-2.8771	-2.5542	-2.8438	-2.95	-2.6021	-2.9021	-2.9125	-2.3667	-3.0604	-2.6646	-2.6583	-2.9938	-2.5438	-2.8417	-3.0229	295.542	352.650	133.109	232.300	311.592	324.144	127.678	411.057	270.232	422.672	410.767	236.742	386.088	411.437	73.988	352.785	0.00053766	0.0016024	0.0012516	541.06	1.8439e-05	2.2772e-05	748.47	210.64	1.3326e-05	2.1322e-05	309.48	128.26	93.358	51.244	1.9476e-05	69.842	0.0044291	0.004384	0.0014352	1137.1	5.1561e-05	5.0762e-05	1341.9	395.38	5.3188e-05	5.3008e-05	681.08	227.87	206.31	80.771	6.3964e-05	114.24	255.468	101.115	186.280	78.489	347.397	137.391	76.924	84.513	142.634	259.287	81.765	85.851	89.548	92.678	196.011	89.009	-8191	255	
3582.935	1	1	0	0	0.21813	0.10884	0.1929	0.31386	0.14274	0.22045	0.062619	0.21815	0.1794	0.19732	0.098266	0.23016	0.31401	0.24609	0.038579	0.21788	-2.175	-2.8521	-2.6792	-2.5438	-2.9021	-2.6542	-2.8729	-2.8104	-2.6854	-3.0042	-2.7708	-2.65	-2.7896	-2.9208	-2.7562	-3.0812	123.543	232.493	128.868	369.478	424.180	142.785	319.580	382.322	270.829	345.466	353.887	319.647	421.322	386.825	323.273	338.468	8.8697e-05	0.0037938	0.00079114	542.9	2.5391e-05	5.9589e-05	748.79	209.34	1.5149e-05	5.5912e-05	303.27	128.23	93.928	51.134	2.8872e-05	70.184	0.0048878	0.0051613	0.0016547	1173.9	5.4818e-05	5.7424e-05	1397.6	395.8	5.3815e-05	5.7643e-05	687.31	222.66	202.13	82.353	6.2025e-05	110.79	114.671	108.475	310.413	78.292	416.580	194.861	76.342	84.524	91.390	217.335	81.611	85.733	89.962	93.078	402.581	89.326	-8191	255	
3583.032	1	1	0	0	0.057401	0.14938	0.11591	0.22873	0.12552	0.11062	0.12678	0.075734	0.053302	0.18465	0.28723	0.24182	0.15877	0.16755	0.17251	0.17632	-2.0563	-3.0062	-2.8229	-2.5583	-3.0125	-2.7375	-2.6979	-2.7396	-2.5563	-2.9021	-2.8854	-2.6854	-3.0333	-2.8854	-2.7375	-3.0708	372.961	260.663	109.753	336.815	261.225	388.523	115.404	315.831	282.014	236.249	324.453	397.075	83.056	410.676	95.098	183.238	0.00044077	0.0059564	0.00040822	542.19	2.263e-05	5.4775e-05	740.89	210.04	6.6466e-06	3.5678e-05	300.5	127.51	93.235	51.032	1.1671e-05	69.673	0.0046376	0.0052886	0.0015466	1120	5.0889e-05	5.7946e-05	1334.7	378.5	5.0296e-05	5.8112e-05	651.25	214.78	196.22	82.863	5.7652e-05	107.71	261.185	132.554	294.735	78.387	245.883	172.297	76.723	84.563	195.588	231.098	81.302	86.211	89.968	93.226	401.944	89.044	-8191	255	
3583.128	1	1	0	0	0.20245	0.092012	0.10156	0.26591	0.12897	0.054206	0.11543	0.049321	0.17008	0.099253	0.12324	0.11742	0.21158	0.30634	0.073796	0.26505	-1.9625	-2.8104	-2.8542	-2.6437	-3.0396	-2.7042	-2.7833	-2.9458	-2.6063	-2.8792	-2.7479	-2.5396	-3.0208	-2.8563	-2.5875	-2.9854	373.169	425.441	102.296	397.358	84.715	264.232	390.309	178.055	233.088	369.373	412.921	135.921	404.435	389.229	383.778	320.241	0.00078392	0.0025062	0.0010693	541.5	2.6982e-05	3.2367e-05	744.81	210.55	4.2088e-05	2.0973e-05	300.77	126.99	95.12	50.392	1.6747e-05	69.842	0.0045702	0.0054357	0.001456	1098.6	5.1308e-05	5.9973e-05	1302.6	372.31	5.1155e-05	5.9291e-05	626.73	209.85	198.1	82.518	5.3249e-05	104.91	242.586	95.773	341.916	78.065	220.286	193.349	76.839	84.718	257.154	252.384	81.656	86.156	90.031	93.128	388.097	89.162	-8191	255	
3583.224	1	1	0	0	0.13505	0.11675	0.019544	0.17007	0.22156	0.13426	0.11202	0.1802	0.099184	0.23853	0.25874	0.072947	0.49381	0.36803	0.068035	0.10591	-2.0917	-2.6917	-2.7854	-2.4875	-2.7958	-2.9625	-2.7667	-3.1917	-2.7604	-2.7542	-2.8333	-2.5896	-3.0271	-2.9875	-2.5042	-2.9604	211.189	259.937	255.152	285.391	364.862	392.285	243.458	121.556	370.827	245.435	371.409	82.621	377.818	417.967	347.658	388.269	0.0015763	0.0013503	0.00073965	545.09	5.4303e-05	1.5308e-05	742.21	209.09	5.2897e-05	2.8977e-05	299.42	127.74	94.211	49.952	3.1642e-05	69.86	0.0046058	0.0052845	0.0013336	1056.6	5.1909e-05	5.7585e-05	1249.9	361.11	5.2765e-05	5.7094e-05	604.1	205.3	202.67	80.572	4.9991e-05	102.58	211.382	255.924	317.542	78.522	239.438	67.137	76.861	85.092	254.875	67.590	81.412	85.843	89.918	93.175	407.262	89.385	-8191	255	
3583.320	1	1	0	0	0.15741	0.18865	0.0081997	0.17612	0.032888	0.17215	0.067084	0.019288	0.21818	0.084033	0.037212	0.2067	0.28944	0.25503	0.063553	0.26622	-2.3563	-2.5021	-2.8875	-2.475	-2.7667	-2.9125	-2.7083	-3.0125	-2.6021	-2.6229	-2.9042	-2.5833	-2.5938	-2.8271	-2.5542	-3.0833	101.263	362.025	397.032	79.715	74.175	411.502	328.833	366.894	393.356	274.870	318.665	406.186	67.321	415.852	96.252	385.176	0.001027	0.0042903	0.00035889	543.04	3.3164e-05	3.2026e-05	739.13	209.41	1.8909e-05	2.2885e-05	299.65	127.32	93.424	49.642	1.4733e-05	69.544	0.0047391	0.0049061	0.0012291	1018	5.1927e-05	5.2127e-05	1199.4	349.9	5.2215e-05	5.1116e-05	572.02	198.55	198.11	76.115	4.5084e-05	99.786	243.104	280.653	363.558	78.742	249.615	358.281	76.976	85.217	253.279	362.667	81.656	86.187	89.690	93.156	410.843	89.576	-8191	255	
3583.416	1	1	0	0	0.10094	0.18391	0.24932	0.096507	0.14633	0.065483	0.1396	0.16637	0.36131	0.22547	0.19365	0.16105	0.17315	0.092508	0.2677	0.23201	-2.1167	-2.7646	-2.8063	-2.4708	-2.8646	-2.8979	-2.6063	-3.0812	-2.5187	-2.5833	-3.1	-2.4688	-2.7542	-3.0208	-2.4146	-2.9167	308.618	352.838	260.756	156.341	200.230	271.706	294.576	130.798	277.924	253.904	420.192	304.293	108.183	98.397	240.688	392.536	0.0010741	0.0036475	0.00035923	552.12	1.9963e-05	3.7098e-05	743.08	210.95	4.6603e-06	2.4978e-05	300.31	127.61	92.278	49.586	1.7711e-05	68.996	0.0045719	0.0043666	0.0011215	1000.8	5.044e-05	4.6588e-05	1151	344.65	4.9576e-05	4.51e-05	543.51	196.53	192.31	72.882	4.1503e-05	99.741	251.745	289.153	362.115	78.409	240.182	341.149	77.035	85.254	263.209	71.668	81.495	86.319	90.013	93.576	379.029	89.825	-8191	255	
3583.512	1	1	0	0	0.21125	0.035883	0.054063	0.19583	0.27162	0.070936	0.064074	0.20455	0.39304	0.11118	0.21025	0.25541	0.32406	0.24578	0.1031	0.22041	-2.2771	-2.5854	-3.0812	-2.6479	-2.8146	-2.9604	-2.6146	-3.0479	-2.9271	-2.5771	-2.9437	-2.6792	-2.6146	-2.9854	-2.3979	-2.8438	419.634	364.119	267.636	377.153	135.346	252.906	334.910	328.389	427.360	127.631	78.579	423.140	426.018	183.737	281.115	309.858	0.00037362	0.001052	0.00013717	551.02	1.1225e-05	7.6814e-06	739.48	213.36	1.328e-05	8.3173e-06	302.42	128.13	91.652	49.8	1.6048e-05	69.695	0.0043788	0.0040184	0.0010522	1016.2	4.8373e-05	4.3891e-05	1131.9	352.73	4.7856e-05	4.3091e-05	536.26	201.72	188.27	71.96	4.1013e-05	102.24	255.266	324.417	331.186	78.896	355.381	91.107	76.921	85.667	412.348	198.963	81.983	86.730	90.042	93.772	239.923	89.824	-8191	255	
3583.608	1	1	0	0	0.33938	0.30342	0.15243	0.15717	0.13713	0.092007	0.20041	0.17715	0.22696	0.15712	0.19605	0.13595	0.021109	0.34166	0.27163	0.31649	-2.4042	-2.4875	-2.9479	-2.7771	-2.5917	-2.9229	-2.5979	-2.9792	-2.8333	-2.6	-3.0771	-2.725	-2.6542	-3.1208	-2.5854	-3.0563	283.715	72.581	266.290	394.152	412.899	211.401	378.292	314.044	322.931	109.281	383.401	137.787	399.869	382.123	302.147	371.797	0.00020484	0.0017909	0.00046386	548.71	3.5134e-05	3.0107e-05	743.71	212.04	1.3414e-05	1.9966e-05	303.12	127.67	91.801	49.786	1.8064e-05	69.61	0.004208	0.0039138	0.0010522	1048.9	4.6556e-05	4.3024e-05	1138.2	360.71	4.5897e-05	4.2202e-05	541.81	205.99	183.74	71.437	4.2387e-05	104.16	203.949	255.111	121.455	78.543	378.202	339.418	76.869	85.531	69.662	384.170	81.899	86.573	89.770	93.403	232.559	89.697	-8191	255	
3583.727	1	1	0	0	0.28231	0.1193	0.16038	0.09114	0.062659	0.093539	0.18593	0.18018	0.13454	0.065344	0.13053	0.28233	0.082255	0.14879	0.079018	0.027239	-2.4333	-2.3021	-2.9062	-2.7604	-2.5667	-3	-2.6625	-2.9938	-2.9062	-2.6813	-2.8625	-2.8625	-2.5521	-3.0396	-2.7625	-2.8479	417.583	150.510	307.794	277.515	125.996	362.586	408.351	377.432	102.327	395.491	244.702	322.664	370.953	288.520	395.121	292.702	0.00047329	0.00068425	0.00092753	542.17	3.766e-05	4.5925e-06	746.01	209.62	2.043e-05	1.8247e-05	305.13	126.54	91.443	49.72	4.2243e-05	69.292	0.0040303	0.0038469	0.001103	1063.7	4.4678e-05	4.2271e-05	1168.2	364.83	4.4518e-05	4.1817e-05	561.33	207.06	181.12	70.916	4.5544e-05	103.8	272.968	336.619	182.108	78.696	401.942	121.108	77.466	85.191	406.804	390.672	82.052	86.126	89.799	93.608	201.581	89.406	-8191	255	
3583.823	1	1	0	0	0.19887	0.065668	0.15411	0.28119	0.18093	0.10733	0.18031	0.044967	0.088083	0.084017	0.23786	0.14346	0.12119	0.29443	0.080202	0.099026	-2.4688	-2.5771	-2.7125	-2.775	-2.6833	-3.1188	-2.6021	-2.7729	-2.7729	-2.55	-2.9667	-2.9521	-2.6521	-3.1646	-2.5312	-2.7188	278.785	405.160	254.475	409.300	424.992	164.864	397.050	94.390	133.792	420.627	330.054	395.648	348.121	371.652	166.826	104.338	0.00058356	0.0010578	0.0011166	540.42	1.0592e-05	1.7128e-05	749.43	207.27	1.5678e-05	3.1785e-06	303.03	125.39	90.797	49.533	1.6322e-05	68.719	0.0039267	0.0037807	0.0011812	1054.9	4.38e-05	4.1762e-05	1206.3	359.68	4.385e-05	4.2101e-05	582.58	203.63	178.84	70.88	4.8422e-05	101.66	193.576	244.545	157.672	78.388	385.456	238.832	76.807	85.085	76.112	164.886	81.656	86.093	90.315	93.695	240.261	89.560	-8191	255	
3583.920	1	1	0	0	0.10108	0.070273	0.10402	0.2507	0.031846	0.224	0.25905	0.36289	0.24277	0.057553	0.21495	0.29824	0.15327	0.32244	0.25976	0.13988	-2.4604	-2.6229	-2.8187	-2.8375	-2.6688	-3.0625	-2.6937	-2.7333	-3.0646	-2.5604	-2.7562	-3.0604	-2.5792	-3.0479	-2.8083	-2.7271	417.169	72.340	186.009	416.441	382.982	93.668	301.924	384.377	301.111	386.002	410.465	388.702	84.016	371.089	378.113	110.812	0.0003704	0.00090235	0.00091768	539.41	1.1063e-05	9.4998e-06	747.79	207.81	1.3049e-05	2.4487e-05	300.84	125.64	91.066	49.888	6.6436e-06	68.698	0.0038372	0.0038072	0.0012389	1027.8	4.2408e-05	4.2465e-05	1224.9	351.59	4.2654e-05	4.3159e-05	594.79	200.18	177.36	72.412	5.0196e-05	100.49	224.296	132.709	217.361	78.213	103.748	131.002	76.704	84.845	321.457	184.955	82.275	86.267	89.638	93.709	318.980	89.277	-8191	255	
3584.016	1	1	0	0	0.23638	0.052124	0.10086	0.14918	0.13087	0.089501	0.15792	0.25222	0.20379	0.15572	0.15241	0.19258	0.29171	0.18058	0.20243	0.2201	-2.5333	-2.6333	-2.7583	-2.9417	-2.3771	-2.825	-2.9271	-2.7729	-2.9792	-2.5812	-2.7417	-3.0354	-2.6354	-2.8792	-2.6104	-2.6708	140.937	424.777	314.195	146.962	394.972	95.453	367.878	72.188	349.811	393.285	72.615	412.155	426.655	385.066	372.580	388.088	0.00045266	0.0050325	8.5194e-05	543.82	1.0018e-05	3.8248e-05	741.82	208.43	1.9448e-05	3.0997e-05	298.08	126.68	91.618	49.639	1.4316e-05	69.245	0.0037992	0.0040659	0.0012687	1012.2	4.1617e-05	4.5009e-05	1227	344.67	4.1393e-05	4.5603e-05	587.1	195.84	173.78	73.732	4.8505e-05	98.961	241.579	109.503	406.451	78.715	352.930	192.497	76.609	85.115	350.570	210.091	81.621	86.452	90.028	93.575	413.734	89.704	-8191	255	
3584.112	1	1	0	0	0.042245	0.10723	0.28321	0.038968	0.24401	0.21693	0.15672	0.1026	0.13195	0.12842	0.25175	0.25506	0.11576	0.19148	0.084763	0.17847	-2.3792	-2.5479	-2.6854	-2.7479	-2.4188	-2.7562	-2.9562	-2.7208	-2.9188	-2.6271	-2.6604	-3.0583	-2.5521	-2.9646	-2.9583	-2.7708	313.914	144.168	82.270	112.968	379.382	139.471	115.545	406.399	377.926	259.542	152.460	82.288	376.734	103.419	178.787	356.022	0.00061272	0.0039266	9.1932e-05	541.92	1.9364e-05	3.6102e-05	742.98	206.44	2.6955e-05	3.2055e-05	301.09	123.86	91.918	49.941	2.4428e-05	68.789	0.0036937	0.0043176	0.001228	992.23	4.1403e-05	4.7903e-05	1206.1	340.35	4.1345e-05	4.8272e-05	572.41	193.25	174.7	75.29	4.6355e-05	97.989	244.300	91.510	301.038	78.571	202.399	206.314	76.600	85.313	246.962	233.817	81.440	86.196	90.310	93.571	396.879	89.484	-8191	255	
3584.208	1	1	0	0	0.22578	0.037535	0.25554	0.17898	0.10973	0.065419	0.13407	0.12124	0.20725	0.19595	0.1391	0.15916	0.23294	0.23786	0.21178	0.3045	-2.5792	-2.6958	-2.7188	-2.9313	-2.5583	-2.8396	-2.9	-2.5083	-3.05	-2.5917	-2.6604	-2.9958	-2.6521	-2.8292	-2.9271	-2.6813	122.006	308.776	107.555	380.794	254.114	361.203	397.106	357.760	294.780	258.337	369.580	395.053	112.442	97.443	365.617	296.927	0.0013883	0.0032542	0.00042101	538.04	2.563e-05	2.4491e-05	738.37	207.17	4.8605e-05	1.2368e-05	296.55	124.71	92.556	49.315	5.0565e-06	68.462	0.0037635	0.0044852	0.0011677	977.11	4.2561e-05	4.9247e-05	1176.9	335.64	4.2688e-05	4.893e-05	555.44	190.22	178.54	75.073	4.3453e-05	96.121	236.045	86.169	347.162	78.443	232.959	186.949	76.646	85.162	281.214	365.043	82.090	86.109	89.733	93.622	193.940	89.582	-8191	255	
