BOXY.EXE: ISS Imagent and Oximeter Data Acquisition Program Version 0.80
Ascii Record File

#ACQ INFORMATION
2  Detector Channels 
16  External MUX Channels 
1  Auxiliary Channels 
5000  Waveform (CCF) Frequency (Hz)
1  Waveforms Skipped 
30  Waveforms Averaged 
1  Cycles Averaged 
16  Acquisitions per Waveform 
10.0806  Updata Rate (Hz) 

#FILE INFORMATION
TRUE -- External MUX Channel results are PARSED.
FALSE -- AC DC and Phase are NOT grouped.
TRUE -- Companion Program Settings File CREATED.
FALSE -- AC data not excluded
FALSE -- DC data not excluded
FALSE -- Phase data not excluded
FALSE -- Auxillary Chn. data not excluded
Tab delimiters

#CALIBRATION STATE
TRUE -- Waveform Calibration Values APPLIED.


#AUX CALIBRATION VALUES
Val Type	aux-1	

Term	1.0000e+00	
Factor	0.0000e+00	


#WF CALIBRATION VALUES
A = Detector Channel
Val Type	A-AC1	A-AC2	A-AC3	A-AC4	A-AC5	A-AC6	A-AC7	A-AC8	A-AC9	A-AC10	A-AC11	A-AC12	A-AC13	A-AC14	A-AC15	A-AC16	A-DC1	A-DC2	A-DC3	A-DC4	A-DC5	A-DC6	A-DC7	A-DC8	A-DC9	A-DC10	A-DC11	A-DC12	A-DC13	A-DC14	A-DC15	A-DC16	A-Ph1	A-Ph2	A-Ph3	A-Ph4	A-Ph5	A-Ph6	A-Ph7	A-Ph8	A-Ph9	A-Ph10	A-Ph11	A-Ph12	A-Ph13	A-Ph14	A-Ph15	A-Ph16	

Term	0.00000e+00	0.00000e+00	0.00000e+00	0.00000e+00	0.00000e+00	0.00000e+00	0.00000e+00	0.00000e+00	0.00000e+00	0.00000e+00	0.00000e+00	0.00000e+00	0.00000e+00	0.00000e+00	0.00000e+00	0.00000e+00	0.00000e+00	0.00000e+00	0.00000e+00	0.00000e+00	0.00000e+00	0.00000e+00	0.00000e+00	0.00000e+00	0.00000e+00	0.00000e+00	0.00000e+00	0.00000e+00	0.00000e+00	0.00000e+00	0.00000e+00	0.00000e+00	0.00000e+00	0.00000e+00	0.00000e+00	0.00000e+00	0.00000e+00	0.00000e+00	0.00000e+00	0.00000e+00	0.00000e+00	0.00000e+00	0.00000e+00	0.00000e+00	0.00000e+00	0.00000e+00	0.00000e+00	0.00000e+00	
Factor	1.00000e+00	1.00000e+00	1.00000e+00	1.00000e+00	1.00000e+00	1.00000e+00	1.00000e+00	1.00000e+00	1.00000e+00	1.00000e+00	1.00000e+00	1.00000e+00	1.00000e+00	1.00000e+00	1.00000e+00	1.00000e+00	1.00000e+00	1.00000e+00	1.00000e+00	1.00000e+00	1.00000e+00	1.00000e+00	1.00000e+00	1.00000e+00	1.00000e+00	1.00000e+00	1.00000e+00	1.00000e+00	1.00000e+00	1.00000e+00	1.00000e+00	1.00000e+00	X	X	X	X	X	X	X	X	X	X	X	X	X	X	X	X	

B = Detector Channel
Val Type	B-AC1	B-AC2	B-AC3	B-AC4	B-AC5	B-AC6	B-AC7	B-AC8	B-AC9	B-AC10	B-AC11	B-AC12	B-AC13	B-AC14	B-AC15	B-AC16	B-DC1	B-DC2	B-DC3	B-DC4	B-DC5	B-DC6	B-DC7	B-DC8	B-DC9	B-DC10	B-DC11	B-DC12	B-DC13	B-DC14	B-DC15	B-DC16	B-Ph1	B-Ph2	B-Ph3	B-Ph4	B-Ph5	B-Ph6	B-Ph7	B-Ph8	B-Ph9	B-Ph10	B-Ph11	B-Ph12	B-Ph13	B-Ph14	B-Ph15	B-Ph16	

Term	0.00000e+00	0.00000e+00	0.00000e+00	0.00000e+00	0.00000e+00	0.00000e+00	0.00000e+00	0.00000e+00	0.00000e+00	0.00000e+00	0.00000e+00	0.00000e+00	0.00000e+00	0.00000e+00	0.00000e+00	0.00000e+00	0.00000e+00	0.00000e+00	0.00000e+00	0.00000e+00	0.00000e+00	0.00000e+00	0.00000e+00	0.00000e+00	0.00000e+00	0.00000e+00	0.00000e+00	0.00000e+00	0.00000e+00	0.00000e+00	0.00000e+00	0.00000e+00	5.94720e+01	-1.33281e+02	-1.24008e+02	-1.83669e+02	-7.49398e+01	-7.46865e+01	-1.55903e+02	-1.62015e+02	-6.56920e+01	-5.76036e+01	-1.71186e+02	-1.71014e+02	-1.82886e+02	-1.77178e+02	-6.18822e+01	-1.49311e+02	
Factor	6.16829e-05	1.64324e-04	4.66421e-05	1.74362e-01	2.06590e-06	1.82496e-06	1.63678e-01	5.30398e-02	3.37277e-06	1.77242e-06	9.18026e-02	2.93873e-02	3.59135e-02	9.27610e-03	2.08424e-06	1.33759e-02	6.85272e-06	8.02413e-06	2.24270e-06	9.05141e-02	8.55606e-08	8.89427e-08	7.96729e-02	2.75538e-02	8.49966e-08	8.88765e-08	4.61873e-02	1.47366e-02	1.84319e-02	4.86892e-03	8.63507e-08	6.78635e-03	X	X	X	X	X	X	X	X	X	X	X	X	X	X	X	X	



#DISTANCE SETTINGS
A = Detector Channel
A-1	A-2	A-3	A-4	A-5	A-6	A-7	A-8	A-9	A-10	A-11	A-12	A-13	A-14	A-15	A-16	

2.5000e+00	3.0000e+00	2.5000e+00	3.0000e+00	2.0000e+00	3.0000e+00	1.5000e+00	3.0000e+00	3.0000e+00	3.0000e+00	3.0000e+00	3.0000e+00	3.0000e+00	3.0000e+00	1.5000e+00	3.0000e+00	

B = Detector Channel
B-1	B-2	B-3	B-4	B-5	B-6	B-7	B-8	B-9	B-10	B-11	B-12	B-13	B-14	B-15	B-16	

1.0000e+01	1.0000e+01	1.0000e+01	1.4400e+00	1.0000e+01	1.0000e+01	1.5100e+00	1.9400e+00	1.0000e+01	1.0000e+01	1.9900e+00	2.4900e+00	2.4100e+00	2.9000e+00	1.0000e+01	2.9800e+00	




#DATA BEGINS
time	group	step	mark	flag	A-AC1	A-AC2	A-AC3	A-AC4	A-AC5	A-AC6	A-AC7	A-AC8	A-AC9	A-AC10	A-AC11	A-AC12	A-AC13	A-AC14	A-AC15	A-AC16	A-DC1	A-DC2	A-DC3	A-DC4	A-DC5	A-DC6	A-DC7	A-DC8	A-DC9	A-DC10	A-DC11	A-DC12	A-DC13	A-DC14	A-DC15	A-DC16	A-Ph1	A-Ph2	A-Ph3	A-Ph4	A-Ph5	A-Ph6	A-Ph7	A-Ph8	A-Ph9	A-Ph10	A-Ph11	A-Ph12	A-Ph13	A-Ph14	A-Ph15	A-Ph16	B-AC1	B-AC2	B-AC3	B-AC4	B-AC5	B-AC6	B-AC7	B-AC8	B-AC9	B-AC10	B-AC11	B-AC12	B-AC13	B-AC14	B-AC15	B-AC16	B-DC1	B-DC2	B-DC3	B-DC4	B-DC5	B-DC6	B-DC7	B-DC8	B-DC9	B-DC10	B-DC11	B-DC12	B-DC13	B-DC14	B-DC15	B-DC16	B-Ph1	B-Ph2	B-Ph3	B-Ph4	B-Ph5	B-Ph6	B-Ph7	B-Ph8	B-Ph9	B-Ph10	B-Ph11	B-Ph12	B-Ph13	B-Ph14	B-Ph15	B-Ph16	aux-1	digaux	

964.899	1	1	0	256	0.098886	0.095949	0.21349	0.33573	0.043301	0.26612	0.32054	0.33153	0.25245	0.12843	0.32478	0.39139	0.29988	0.047222	0.14981	0.28616	-1.3333	-0.95833	-1.8146	-1.2375	-1.4667	-1.9125	-1.2437	-1.6958	-1.6604	-0.91875	-1.675	-1.4229	-1.2417	-1.9125	-0.93333	-1.7208	238.355	367.301	123.783	438.880	157.640	203.167	422.879	352.849	376.126	206.431	409.486	401.425	85.289	211.392	218.747	396.765	0.0016225	0.00042621	0.00019014	1387	1.3456e-05	3.693e-06	1389	372.96	2.0363e-05	6.2844e-06	424.43	142.78	124.83	42.053	9.6654e-06	52.123	0.00094084	0.00093933	0.00026035	1422.6	1.0058e-05	1.0259e-05	1422.9	383.54	9.5956e-06	1.0036e-05	438.1	147.56	128.32	43.874	9.452e-06	54.408	357.941	129.300	187.024	96.506	209.489	228.277	96.130	101.229	225.233	267.697	100.750	105.327	105.659	109.866	247.591	109.161	-8191	255	
964.995	1	1	0	0	0.18575	0.14718	0.19487	0.10591	0.21885	0.15147	0.15951	0.13912	0.26555	0.14405	0.15948	0.21214	0.23549	0.19292	0.18122	0.11412	-1.2604	-0.97083	-1.6688	-1.5792	-1.1	-1.7771	-1.5229	-1.5458	-1.8	-1.0875	-1.7896	-1.6187	-1.2396	-1.9937	-1.1313	-1.4708	394.220	105.915	151.239	399.711	380.219	221.441	415.821	90.800	267.602	129.370	435.706	108.692	322.954	391.156	94.927	100.397	0.0015685	0.00028887	0.0001289	1381	9.3025e-06	8.3567e-06	1383.9	371.06	1.0592e-05	2.6379e-06	422.01	143.19	124.41	41.933	4.4799e-06	52.341	0.0008671	0.00086868	0.00024171	1416.9	9.3561e-06	9.4333e-06	1415.3	381.6	9.0691e-06	9.3646e-06	436.05	147.15	127.99	43.8	9.2559e-06	54.404	356.107	155.377	169.685	96.320	206.679	243.504	96.354	101.258	250.609	228.535	100.730	105.069	105.534	110.168	253.086	109.047	-8191	255	
965.091	1	1	0	0	0.18474	0.20877	0.26653	0.17225	0.11547	0.16213	0.19155	0.29249	0.16587	0.10157	0.19979	0.13864	0.035521	0.12683	0.12552	0.20152	-1.2542	-1.0812	-1.5	-1.7875	-1.0812	-1.7854	-1.5146	-1.3292	-1.8604	-1.0375	-1.6521	-1.8854	-1.1875	-1.7563	-1.4604	-1.3083	372.086	360.603	402.140	436.386	402.491	179.605	305.727	400.683	261.896	289.964	313.594	421.946	219.329	102.563	256.271	367.861	0.0016965	0.00048227	0.00011088	1371	9.3397e-06	8.1754e-06	1381.5	370.59	1.7695e-05	1.6324e-06	423.47	143.14	123.91	42.092	1.0252e-05	52.204	0.00086154	0.00085138	0.00023119	1411.1	9.2546e-06	9.3442e-06	1414	381.59	8.95e-06	9.2967e-06	436.3	147.01	127.72	43.787	8.9263e-06	54.286	359.984	193.254	185.298	96.358	236.775	220.939	96.219	101.257	267.493	204.849	100.405	105.110	105.983	110.109	226.487	109.257	-8191	255	
965.188	1	1	0	0	0.2774	0.093417	0.32221	0.45019	0.23483	0.19431	0.23477	0.27714	0.12159	0.30245	0.14843	0.22647	0.16988	0.06733	0.25514	0.23549	-1.2458	-1.0646	-1.6354	-1.7479	-0.97917	-1.7083	-1.5958	-1.4125	-1.7563	-1.1333	-1.6542	-1.9104	-0.93125	-1.8583	-1.5292	-1.1646	121.487	395.379	297.452	87.405	354.150	428.491	385.627	434.725	306.602	105.144	269.138	416.502	425.088	218.741	385.421	333.112	0.0017695	0.00045063	0.00016047	1370.2	4.0269e-06	5.453e-06	1374.4	370.49	1.4087e-05	4.9615e-06	420.55	142.15	124.31	42.079	6.6464e-06	51.742	0.00084975	0.00082272	0.00022416	1408.6	8.8218e-06	8.983e-06	1408.6	380.5	8.6767e-06	8.9943e-06	434.16	146.44	127.66	43.794	8.9432e-06	54.081	359.983	122.849	183.718	96.560	232.824	205.238	96.155	101.421	237.497	244.178	100.512	105.390	105.609	110.083	213.790	109.322	-8191	255	
965.282	1	1	0	0	0.04339	0.21542	0.034202	0.37553	0.16358	0.20216	0.063444	0.33595	0.31035	0.15536	0.26235	0.253	0.22469	0.10321	0.22803	0.22541	-1.5021	-1.2021	-1.3813	-1.9854	-0.91667	-1.7437	-2.0062	-1.0958	-1.7479	-1.3563	-1.4125	-1.9354	-1.0917	-1.6833	-1.6021	-1.125	126.574	152.698	161.791	429.597	182.878	103.921	405.325	321.446	412.327	290.256	321.958	400.003	126.939	111.520	325.270	361.374	0.0018074	0.0006084	0.00016037	1370.3	7.8241e-06	7.4738e-06	1372	369.19	1.3511e-05	6.1948e-06	418.71	141.32	123.94	42.101	7.2902e-06	52.024	0.0008347	0.00081368	0.00022784	1407.1	8.9628e-06	8.963e-06	1404.6	379.77	8.9023e-06	9.0087e-06	433.17	146.25	127.23	43.731	8.9573e-06	54.156	361.989	133.577	175.601	96.597	227.245	245.055	96.309	101.419	223.652	220.220	101.029	105.454	106.060	110.726	250.605	109.460	-8191	255	
965.378	1	1	0	0	0.11773	0.2352	0.25711	0.045947	0.32325	0.14397	0.062921	0.2182	0.11554	0.16154	0.26002	0.29516	0.15038	0.20786	0.12932	0.24682	-1.3667	-1.3083	-1.25	-1.8937	-1.1083	-1.4375	-1.7854	-1.2792	-1.6938	-1.3104	-1.3479	-1.9438	-1.2229	-1.7208	-1.7083	-1.0167	169.634	107.938	246.613	372.273	137.417	425.690	350.103	402.873	304.202	380.100	372.925	381.146	397.401	420.648	441.850	421.861	0.0017608	0.0003124	0.00013396	1368	1.232e-05	7.035e-06	1373	368.26	1.0349e-05	2.8029e-06	419.67	142.63	123.33	41.929	8.0684e-06	51.821	0.00084855	0.00081005	0.00022645	1405.9	8.925e-06	9.1754e-06	1405.1	378.99	8.8913e-06	9.135e-06	433.16	146.29	127	43.63	8.8423e-06	54.036	357.020	154.452	149.529	96.940	222.102	240.086	96.764	101.453	232.391	228.535	101.268	105.659	106.206	110.815	240.996	109.828	-8191	255	
965.476	1	1	0	0	0.23674	0.24115	0.15363	0.23419	0.12141	0.25561	0.41609	0.22708	0.24684	0.063097	0.21349	0.15743	0.25045	0.11616	0.18894	0.19527	-1.2792	-1.2812	-1.075	-2.1042	-1.0479	-1.5583	-1.9521	-1.3208	-1.7875	-1.4062	-1.1146	-2.0187	-1.1229	-1.5729	-1.7917	-1.1375	373.826	235.349	225.678	410.381	253.776	95.077	415.123	370.577	159.539	368.829	341.606	86.081	402.336	164.737	304.001	416.495	0.0017204	0.00066469	0.00017538	1368.7	5.716e-06	7.0353e-06	1376.8	368.54	1.6459e-05	5.1413e-06	419.16	142.26	123.63	41.858	6.5112e-06	51.73	0.00084281	0.00082028	0.00023003	1404.3	9.0072e-06	9.1055e-06	1406.3	379.09	9.1113e-06	9.1167e-06	433.14	146.09	127.29	43.586	9.1104e-06	54.001	361.168	141.763	200.032	97.190	224.056	224.279	96.959	101.731	229.954	257.300	101.115	105.818	106.146	110.426	201.651	109.573	-8191	255	
965.595	1	1	0	0	0.19073	0.048471	0.13682	0.24603	0.093147	0.079229	0.09826	0.14596	0.20468	0.32044	0.058886	0.15538	0.28563	0.1757	0.16457	0.017289	-1.0333	-1.6562	-0.93958	-1.9542	-1.2917	-1.3021	-2.0604	-1.25	-1.5021	-1.6271	-1.1187	-2.2042	-1.3979	-1.3729	-1.9312	-1.4125	301.996	310.240	362.493	428.161	281.834	188.853	443.473	316.969	359.195	116.687	118.461	438.208	162.369	427.952	427.445	384.367	0.001611	0.00040911	0.00017483	1365.8	1.1999e-05	7.5661e-06	1369.3	369.24	1.8662e-05	6.7286e-06	417.97	141.8	122.9	41.725	9.5549e-06	51.751	0.00086074	0.00083727	0.00023144	1404.8	9.0878e-06	9.2437e-06	1403.6	378.66	8.9887e-06	9.1234e-06	433.47	145.81	126.83	43.519	9.2199e-06	53.988	360.710	177.606	170.672	96.977	208.507	255.288	96.740	102.003	238.066	236.542	101.291	105.930	106.310	111.099	254.799	109.867	-8191	255	
965.691	1	1	0	0	0.12861	0.19209	0.066316	0.17528	0.074922	0.17635	0.23847	0.42967	0.053997	0.056984	0.043331	0.21252	0.17383	0.32616	0.11981	0.085377	-0.9875	-1.5667	-1.0396	-1.9792	-1.475	-1.2854	-2.0646	-1.2188	-1.525	-1.9083	-1.3667	-1.6625	-1.3771	-1.15	-1.6833	-1.4708	176.614	147.379	300.524	388.413	159.507	223.817	342.811	409.724	380.085	149.955	204.748	405.017	144.198	379.055	240.819	413.756	0.0016272	0.00030315	0.00024728	1363.8	7.3614e-06	2.7551e-06	1364.4	368.93	1.4651e-05	5.8532e-06	418.05	141.1	123.41	41.526	1.5095e-05	51.671	0.0008478	0.00084743	0.00023976	1402.6	9.2058e-06	9.3104e-06	1400.6	378.82	9.2158e-06	9.2215e-06	432.28	145.6	126.78	43.418	9.2665e-06	53.892	358.472	175.132	209.825	97.204	258.121	254.303	96.806	101.906	202.300	180.305	101.112	105.883	106.309	110.714	261.652	109.951	-8191	255	
965.787	1	1	0	0	0.15306	0.19275	0.3378	0.31178	0.17248	0.069031	0.092145	0.42973	0.16546	0.26927	0.25896	0.10941	0.13212	0.14507	0.20997	0.25766	-1.0792	-1.8646	-1.1979	-1.9792	-1.4375	-1.0958	-2.1771	-1.3771	-1.3896	-1.7042	-1.2354	-1.8458	-1.6	-1.2354	-1.8583	-1.55	178.637	396.019	416.519	425.283	328.292	293.029	350.838	427.323	130.259	367.346	93.227	332.607	318.968	395.007	188.158	421.913	0.0016972	0.00088702	0.00011946	1363.2	6.0952e-06	4.2687e-06	1367.1	366.69	1.7194e-05	5.2114e-06	419.2	142.43	123.44	41.632	8.3523e-06	51.729	0.00085529	0.00084375	0.00023834	1400.3	9.3714e-06	9.4303e-06	1400.7	378.33	9.4707e-06	9.5774e-06	433.42	146.05	126.95	43.463	9.6617e-06	53.904	359.237	163.652	211.507	97.229	232.069	200.608	96.831	101.670	271.242	235.378	100.983	106.004	106.288	110.751	243.940	109.399	-8191	255	
965.883	1	1	0	0	0.26911	0.21296	0.1494	0.15884	0.0654	0.13215	0.10775	0.31973	0.26822	0.18346	0.12763	0.11866	0.084014	0.18064	0.040833	0.065868	-0.7875	-1.8292	-1.1583	-1.4667	-1.7125	-1.1417	-1.9083	-1.4208	-1.1083	-1.8604	-1.3188	-1.8417	-1.6646	-1.0917	-1.85	-1.5271	252.575	277.350	127.952	399.688	380.779	278.452	386.429	387.014	426.423	431.882	114.798	374.791	333.171	406.980	292.159	131.632	0.0016769	0.00094642	0.000208	1367.2	6.4453e-06	7.1935e-06	1367.1	369.3	1.6717e-05	4.8524e-06	417.13	141.56	123.71	41.535	6.573e-06	51.55	0.00087603	0.00087119	0.00024205	1402.4	9.466e-06	9.3001e-06	1402.2	378.67	9.1837e-06	9.268e-06	431.93	146.02	126.87	43.461	9.2163e-06	53.818	358.684	165.387	184.017	96.991	224.517	229.858	96.994	101.943	221.608	180.904	101.363	105.967	106.535	110.754	257.738	109.675	-8191	255	
965.979	1	1	0	0	0.013267	0.1938	0.10607	0.16909	0.11017	0.067915	0.24896	0.11183	0.17518	0.25845	0.36765	0.093381	0.2776	0.15303	0.39683	0.11823	-0.80208	-1.9271	-1.2292	-1.5396	-1.7208	-1.0354	-2.2104	-1.6375	-1.0333	-1.8708	-1.2354	-1.4521	-1.8833	-1.225	-1.6313	-1.7062	424.124	255.684	406.330	411.528	364.510	265.008	400.382	387.209	296.624	133.666	428.257	319.166	85.495	115.595	340.128	315.477	0.0017156	0.00055772	0.00010586	1362	9.4586e-06	3.8342e-06	1367.5	366.72	1.5164e-05	1.5938e-06	419.82	141.67	122.69	41.765	5.1039e-06	51.548	0.00084781	0.00083396	0.00023142	1399.4	9.1505e-06	9.319e-06	1399.5	378.06	9.0914e-06	9.3548e-06	432.96	145.9	126.71	43.438	9.1618e-06	53.865	359.927	182.176	167.615	97.296	250.270	246.461	96.923	101.882	236.145	223.688	101.081	105.964	106.081	111.025	246.430	109.676	-8191	255	
966.076	1	1	0	0	0.28052	0.26483	0.092588	0.16541	0.265	0.060458	0.026799	0.27372	0.18444	0.20111	0.29751	0.22181	0.16858	0.030274	0.22875	0.014512	-0.60417	-1.9062	-1.2479	-1.3646	-1.8563	-1.1479	-1.8167	-1.9583	-1.1458	-1.8708	-1.3813	-1.2938	-2.1333	-1.1458	-1.7708	-1.8042	228.712	143.843	419.702	129.931	229.604	331.803	349.214	426.045	213.298	132.515	330.637	368.212	373.232	142.762	307.587	206.515	0.001784	0.00080743	0.00016078	1364.5	1.5803e-06	5.7654e-06	1367.6	366.87	1.2436e-05	7.685e-06	418.14	142.13	123.13	41.463	1.0424e-05	51.737	0.0008616	0.00083837	0.00023786	1397.9	9.1033e-06	9.2651e-06	1400.4	377.83	9.2398e-06	9.2395e-06	431.37	145.99	126.73	43.42	9.146e-06	53.858	356.685	174.229	161.201	97.320	212.577	209.777	96.999	101.880	233.246	221.177	100.929	105.544	105.917	110.455	253.174	109.610	-8191	255	
966.196	1	1	0	0	0.17089	0.15152	0.26363	0.18842	0.29457	0.014636	0.025307	0.28456	0.23385	0.14359	0.33967	0.13527	0.19857	0.34567	0.13011	0.13771	-0.68333	-1.8937	-1.3354	-1.4104	-1.8396	-1.0125	-1.7042	-1.9875	-0.95625	-1.7479	-1.6042	-1.2604	-1.9667	-1.1646	-1.2667	-1.9208	400.297	393.592	404.897	360.912	411.882	358.595	376.094	101.814	429.822	148.559	99.165	96.808	86.128	364.174	411.053	425.876	0.0017758	0.00067703	0.00013062	1358.6	1.0614e-05	4.4902e-06	1367.3	366.61	1.6461e-05	5.1488e-06	417.66	141.98	123.7	41.529	1.0439e-05	51.67	0.00085399	0.00083416	0.00023522	1398.3	9.2309e-06	9.2638e-06	1401	378.13	9.2487e-06	9.3398e-06	431.85	145.89	126.84	43.419	9.1947e-06	53.827	356.812	178.672	188.156	97.026	246.004	193.256	96.630	101.753	247.623	274.094	101.132	105.774	106.371	110.929	248.487	109.632	-8191	255	
966.291	1	1	0	0	0.17825	0.10699	0.16452	0.27889	0.16971	0.3095	0.45934	0.50834	0.19225	0.13197	0.07668	0.086398	0.18404	0.0682	0.24731	0.23846	-0.76667	-1.65	-1.5875	-1.2792	-1.7896	-1.1208	-1.6729	-2.0375	-1.1521	-1.6542	-1.8271	-1.1333	-1.9396	-1.3896	-1.2729	-1.8563	193.936	203.280	350.747	419.773	265.184	175.929	399.616	407.094	310.926	151.090	167.951	307.913	197.995	349.313	243.423	87.241	0.0016773	0.00067031	0.00013409	1358.6	7.117e-06	5.9465e-06	1370.8	367.83	9.7672e-06	5.7195e-06	418.19	141.76	122.55	41.777	1.0235e-05	51.713	0.00087719	0.00085173	0.00023764	1397.7	9.2496e-06	9.4192e-06	1400.8	378.53	9.2882e-06	9.2415e-06	432.84	145.8	126.63	43.513	9.3171e-06	53.929	359.558	155.079	180.377	97.205	245.761	254.169	96.855	101.640	251.960	225.430	100.937	105.619	106.216	110.789	246.136	109.623	-8191	255	
966.387	1	1	0	0	0.363	0.14352	0.10442	0.097582	0.21207	0.1227	0.34874	0.23735	0.13264	0.078844	0.033048	0.33408	0.11571	0.19471	0.21221	0.23148	-0.7375	-1.5833	-1.4417	-1.2979	-1.7458	-1.3042	-1.4021	-1.8833	-1.2333	-1.6625	-1.7687	-1.1521	-1.9688	-1.6063	-1.2437	-1.8729	164.119	212.531	229.238	117.399	214.168	134.990	362.580	415.406	405.838	398.098	233.352	410.859	392.596	378.669	352.120	364.923	0.0017319	0.00050275	0.00016843	1360.1	1.025e-05	8.4466e-06	1365.8	367.96	2.16e-05	5.6093e-06	419.56	141.56	123.48	41.576	9.8372e-06	51.969	0.0008689	0.00084655	0.00024152	1398.5	9.2584e-06	9.4513e-06	1399.6	378.24	9.4012e-06	9.2235e-06	432.77	145.79	126.94	43.506	9.4811e-06	54.021	357.808	159.558	146.386	96.924	226.273	230.990	96.757	101.829	215.711	201.374	101.164	105.694	106.101	110.773	254.103	109.431	-8191	255	
966.458	1	1	0	0	0.14689	0.02018	0.19733	0.24259	0.3761	0.011665	0.11629	0.1428	0.26827	0.2572	0.19092	0.068439	0.26588	0.18839	0.23305	0.29293	-0.625	-1.5187	-1.6063	-1.3937	-1.6313	-1.2479	-1.3917	-1.9771	-1.1104	-1.3958	-1.8896	-1.1562	-1.6958	-1.4958	-1.15	-1.925	440.277	105.299	208.078	413.320	344.625	386.386	306.648	346.818	441.368	241.070	441.196	137.079	111.142	380.310	197.207	372.920	0.001625	0.00046442	0.0001622	1357.9	1.1761e-05	4.994e-06	1366.5	367.89	2.4595e-05	4.0938e-06	418.06	141.64	122.96	41.823	9.9849e-06	51.681	0.00087947	0.00085308	0.00023645	1396.5	9.2737e-06	9.3488e-06	1400.3	378.3	9.1687e-06	9.1952e-06	432.01	145.85	126.91	43.529	9.1598e-06	53.935	360.673	119.688	167.374	97.101	226.179	241.832	96.771	101.968	245.220	256.842	100.904	105.473	106.316	110.476	238.051	109.356	-8191	255	
966.579	1	1	0	0	0.1795	0.11683	0.23064	0.24856	0.23398	0.11182	0.59625	0.17658	0.24952	0.35374	0.36166	0.20681	0.19425	0.39599	0.11354	0.047421	-0.78125	-1.2917	-1.8021	-1.1542	-1.5729	-1.6313	-1.275	-2.0458	-1.1833	-1.2	-2.1979	-1.2458	-1.7729	-1.8229	-0.96875	-1.8104	268.411	93.654	187.910	365.162	214.640	120.073	393.945	342.394	195.542	114.797	365.029	110.520	408.219	393.214	275.416	173.989	0.0015897	0.00055901	0.00013583	1360.9	9.1464e-06	5.4482e-06	1368.2	369.14	1.9889e-05	7.326e-06	417.87	141.59	123.08	41.595	7.7219e-06	51.605	0.00085983	0.00085004	0.00023154	1397.4	9.2423e-06	9.0975e-06	1399.2	378.04	8.9951e-06	9.2028e-06	431.82	145.67	126.51	43.471	9.1579e-06	53.822	360.238	144.940	124.485	96.672	231.724	220.367	96.416	101.596	229.562	216.674	101.009	105.727	106.281	110.717	224.072	109.668	-8191	255	
