BOXY.EXE: ISS Imagent and Oximeter Data Acquisition Program Version 0.80
Ascii Record File

#ACQ INFORMATION
2  Detector Channels 
16  External MUX Channels 
1  Auxiliary Channels 
5000  Waveform (CCF) Frequency (Hz)
1  Waveforms Skipped 
30  Waveforms Averaged 
1  Cycles Averaged 
16  Acquisitions per Waveform 
10.0806  Updata Rate (Hz) 

#FILE INFORMATION
TRUE -- External MUX Channel results are PARSED.
FALSE -- AC DC and Phase are NOT grouped.
TRUE -- Companion Program Settings File CREATED.
FALSE -- AC data not excluded
FALSE -- DC data not excluded
FALSE -- Phase data not excluded
FALSE -- Auxillary Chn. data not excluded
Tab delimiters

#CALIBRATION STATE
TRUE -- Waveform Calibration Values APPLIED.


#AUX CALIBRATION VALUES
Val Type	aux-1	

Term	1.0000e+00	
Factor	0.0000e+00	


#WF CALIBRATION VALUES
A = Detector Channel
Val Type	A-AC1	A-AC2	A-AC3	A-AC4	A-AC5	A-AC6	A-AC7	A-AC8	A-AC9	A-AC10	A-AC11	A-AC12	A-AC13	A-AC14	A-AC15	A-AC16	A-DC1	A-DC2	A-DC3	A-DC4	A-DC5	A-DC6	A-DC7	A-DC8	A-DC9	A-DC10	A-DC11	A-DC12	A-DC13	A-DC14	A-DC15	A-DC16	A-Ph1	A-Ph2	A-Ph3	A-Ph4	A-Ph5	A-Ph6	A-Ph7	A-Ph8	A-Ph9	A-Ph10	A-Ph11	A-Ph12	A-Ph13	A-Ph14	A-Ph15	A-Ph16	

Term	0.00000e+00	0.00000e+00	0.00000e+00	0.00000e+00	0.00000e+00	0.00000e+00	0.00000e+00	0.00000e+00	0.00000e+00	0.00000e+00	0.00000e+00	0.00000e+00	0.00000e+00	0.00000e+00	0.00000e+00	0.00000e+00	0.00000e+00	0.00000e+00	0.00000e+00	0.00000e+00	0.00000e+00	0.00000e+00	0.00000e+00	0.00000e+00	0.00000e+00	0.00000e+00	0.00000e+00	0.00000e+00	0.00000e+00	0.00000e+00	0.00000e+00	0.00000e+00	0.00000e+00	0.00000e+00	0.00000e+00	0.00000e+00	0.00000e+00	0.00000e+00	0.00000e+00	0.00000e+00	0.00000e+00	0.00000e+00	0.00000e+00	0.00000e+00	0.00000e+00	0.00000e+00	0.00000e+00	0.00000e+00	
Factor	1.00000e+00	1.00000e+00	1.00000e+00	1.00000e+00	1.00000e+00	1.00000e+00	1.00000e+00	1.00000e+00	1.00000e+00	1.00000e+00	1.00000e+00	1.00000e+00	1.00000e+00	1.00000e+00	1.00000e+00	1.00000e+00	1.00000e+00	1.00000e+00	1.00000e+00	1.00000e+00	1.00000e+00	1.00000e+00	1.00000e+00	1.00000e+00	1.00000e+00	1.00000e+00	1.00000e+00	1.00000e+00	1.00000e+00	1.00000e+00	1.00000e+00	1.00000e+00	X	X	X	X	X	X	X	X	X	X	X	X	X	X	X	X	

B = Detector Channel
Val Type	B-AC1	B-AC2	B-AC3	B-AC4	B-AC5	B-AC6	B-AC7	B-AC8	B-AC9	B-AC10	B-AC11	B-AC12	B-AC13	B-AC14	B-AC15	B-AC16	B-DC1	B-DC2	B-DC3	B-DC4	B-DC5	B-DC6	B-DC7	B-DC8	B-DC9	B-DC10	B-DC11	B-DC12	B-DC13	B-DC14	B-DC15	B-DC16	B-Ph1	B-Ph2	B-Ph3	B-Ph4	B-Ph5	B-Ph6	B-Ph7	B-Ph8	B-Ph9	B-Ph10	B-Ph11	B-Ph12	B-Ph13	B-Ph14	B-Ph15	B-Ph16	

Term	0.00000e+00	0.00000e+00	0.00000e+00	0.00000e+00	0.00000e+00	0.00000e+00	0.00000e+00	0.00000e+00	0.00000e+00	0.00000e+00	0.00000e+00	0.00000e+00	0.00000e+00	0.00000e+00	0.00000e+00	0.00000e+00	0.00000e+00	0.00000e+00	0.00000e+00	0.00000e+00	0.00000e+00	0.00000e+00	0.00000e+00	0.00000e+00	0.00000e+00	0.00000e+00	0.00000e+00	0.00000e+00	0.00000e+00	0.00000e+00	0.00000e+00	0.00000e+00	5.94720e+01	-1.33281e+02	-1.24008e+02	-1.83669e+02	-7.49398e+01	-7.46865e+01	-1.55903e+02	-1.62015e+02	-6.56920e+01	-5.76036e+01	-1.71186e+02	-1.71014e+02	-1.82886e+02	-1.77178e+02	-6.18822e+01	-1.49311e+02	
Factor	6.16829e-05	1.64324e-04	4.66421e-05	1.74362e-01	2.06590e-06	1.82496e-06	1.63678e-01	5.30398e-02	3.37277e-06	1.77242e-06	9.18026e-02	2.93873e-02	3.59135e-02	9.27610e-03	2.08424e-06	1.33759e-02	6.85272e-06	8.02413e-06	2.24270e-06	9.05141e-02	8.55606e-08	8.89427e-08	7.96729e-02	2.75538e-02	8.49966e-08	8.88765e-08	4.61873e-02	1.47366e-02	1.84319e-02	4.86892e-03	8.63507e-08	6.78635e-03	X	X	X	X	X	X	X	X	X	X	X	X	X	X	X	X	



#DISTANCE SETTINGS
A = Detector Channel
A-1	A-2	A-3	A-4	A-5	A-6	A-7	A-8	A-9	A-10	A-11	A-12	A-13	A-14	A-15	A-16	

2.5000e+00	3.0000e+00	2.5000e+00	3.0000e+00	2.0000e+00	3.0000e+00	1.5000e+00	3.0000e+00	3.0000e+00	3.0000e+00	3.0000e+00	3.0000e+00	3.0000e+00	3.0000e+00	1.5000e+00	3.0000e+00	

B = Detector Channel
B-1	B-2	B-3	B-4	B-5	B-6	B-7	B-8	B-9	B-10	B-11	B-12	B-13	B-14	B-15	B-16	

1.0000e+01	1.0000e+01	1.0000e+01	1.4400e+00	1.0000e+01	1.0000e+01	1.5100e+00	1.9400e+00	1.0000e+01	1.0000e+01	1.9900e+00	2.4900e+00	2.4100e+00	2.9000e+00	1.0000e+01	2.9800e+00	




#DATA BEGINS
time	group	step	mark	flag	A-AC1	A-AC2	A-AC3	A-AC4	A-AC5	A-AC6	A-AC7	A-AC8	A-AC9	A-AC10	A-AC11	A-AC12	A-AC13	A-AC14	A-AC15	A-AC16	A-DC1	A-DC2	A-DC3	A-DC4	A-DC5	A-DC6	A-DC7	A-DC8	A-DC9	A-DC10	A-DC11	A-DC12	A-DC13	A-DC14	A-DC15	A-DC16	A-Ph1	A-Ph2	A-Ph3	A-Ph4	A-Ph5	A-Ph6	A-Ph7	A-Ph8	A-Ph9	A-Ph10	A-Ph11	A-Ph12	A-Ph13	A-Ph14	A-Ph15	A-Ph16	B-AC1	B-AC2	B-AC3	B-AC4	B-AC5	B-AC6	B-AC7	B-AC8	B-AC9	B-AC10	B-AC11	B-AC12	B-AC13	B-AC14	B-AC15	B-AC16	B-DC1	B-DC2	B-DC3	B-DC4	B-DC5	B-DC6	B-DC7	B-DC8	B-DC9	B-DC10	B-DC11	B-DC12	B-DC13	B-DC14	B-DC15	B-DC16	B-Ph1	B-Ph2	B-Ph3	B-Ph4	B-Ph5	B-Ph6	B-Ph7	B-Ph8	B-Ph9	B-Ph10	B-Ph11	B-Ph12	B-Ph13	B-Ph14	B-Ph15	B-Ph16	aux-1	digaux	

949.414	1	1	0	256	0.028444	0.1947	0.13752	0.1079	0.12875	0.12078	0.20503	0.27139	0.040561	0.11817	0.086316	0.33516	0.06317	0.18144	0.16578	0.097438	-1.4521	-1.1021	-1.275	-1.7812	-0.87917	-1.7646	-1.5583	-1.1792	-1.7292	-1.1167	-1.5625	-1.7458	-1.1229	-1.5208	-1.5667	-1.2188	127.709	116.629	319.926	339.932	419.103	223.842	369.055	114.500	201.714	207.969	203.502	150.137	154.300	425.873	204.205	208.907	0.00085941	5.2167e-05	4.3168e-05	1041.1	3.8601e-06	8.5926e-07	1142	224.33	5.2809e-06	3.0341e-06	283.1	80.391	62.47	18.03	5.264e-06	25.225	0.0004377	0.00044444	0.00012474	1036.7	4.9377e-06	5.0014e-06	1135.8	224.25	4.8034e-06	5.0054e-06	284.29	80.678	62.89	18.528	5.0306e-06	26.001	362.532	197.133	132.974	98.929	240.971	283.082	98.981	106.534	282.658	316.767	106.363	113.510	113.523	120.366	281.276	119.405	-8191	255	
949.510	1	1	0	0	0.15786	0.11168	0.1908	0.16053	0.23993	0.092728	0.16635	0.082759	0.23757	0.085818	0.071616	0.06029	0.010297	0.15694	0.13807	0.13425	-1.3125	-1.2375	-1.5063	-1.8625	-0.975	-1.4896	-1.8292	-1.3521	-1.7417	-1.4333	-1.4417	-1.8479	-1.0042	-1.3646	-1.6812	-1.0667	419.825	118.262	302.908	174.578	328.226	393.160	373.684	126.526	153.032	374.678	93.057	343.317	133.244	425.484	438.003	180.058	0.00090183	0.00052306	9.5017e-05	1040.4	3.6678e-06	3.7085e-06	1147.1	223.77	7.0169e-06	3.0747e-06	283.14	80.196	62.654	18.117	7.3374e-06	25.429	0.00045184	0.00044659	0.00012689	1034.4	4.852e-06	4.807e-06	1136.7	224.13	4.6212e-06	4.7088e-06	285.05	80.487	62.817	18.552	4.4233e-06	26.028	370.954	147.736	234.423	99.021	264.830	240.105	98.910	107.040	249.349	263.755	106.584	113.638	113.311	121.144	220.935	120.340	-8191	255	
949.606	1	1	0	0	0.1481	0.12832	0.28026	0.093684	0.29238	0.17896	0.19	0.21043	0.24129	0.30733	0.15778	0.11016	0.18892	0.13368	0.4026	0.13905	-1.4021	-1.2125	-0.975	-2.0146	-1.2083	-1.2062	-1.8708	-1.1938	-1.8917	-1.5063	-1.3062	-1.8354	-1.3417	-1.4188	-1.6542	-1.0562	217.250	118.612	318.920	123.598	425.490	139.255	388.084	393.632	92.504	123.723	349.442	446.345	222.159	102.308	288.219	168.118	0.00077286	0.00030579	3.2345e-05	1038.2	6.5296e-06	4.8273e-06	1144	224.77	9.4921e-06	3.8964e-06	284.27	80.102	61.997	18.033	5.3275e-06	25.278	0.00040979	0.0004107	0.0001149	1033	4.5367e-06	4.3185e-06	1131.8	223.78	4.2817e-06	4.4123e-06	284.31	80.401	62.681	18.544	4.2044e-06	25.949	359.412	159.826	158.914	99.044	232.179	244.445	98.925	107.004	216.325	293.227	106.405	113.621	113.520	120.483	240.115	119.925	-8191	255	
949.702	1	1	0	0	0.22493	0.12533	0.18562	0.17317	0.12178	0.33776	0.24465	0.091948	0.16702	0.10464	0.17146	0.16628	0.095997	0.23714	0.024387	0.20364	-1.3167	-1.3875	-0.93958	-1.9646	-1.0938	-1.4208	-1.9021	-1.1792	-1.5354	-1.4042	-1.2417	-1.8813	-1.1542	-1.5521	-1.8625	-1.2292	283.252	381.104	120.739	427.593	160.920	306.227	426.375	353.847	174.881	416.728	396.665	397.306	282.371	415.844	402.265	121.771	0.00090069	9.5056e-05	8.9501e-05	1040.1	6.2957e-06	2.9224e-06	1143	221.96	9.5809e-06	2.4846e-06	283.25	79.738	62.433	17.885	7.2062e-06	25.261	0.00040714	0.00039845	0.0001092	1032.8	4.334e-06	4.3263e-06	1132.6	222.86	4.1572e-06	4.1476e-06	284.4	80.178	62.704	18.494	4.2693e-06	25.948	361.723	156.370	215.828	98.947	233.316	217.009	99.206	106.587	282.119	256.065	105.921	113.417	113.505	120.935	262.581	119.689	-8191	255	
949.821	1	1	0	0	0.17658	0.082252	0.15778	0.13703	0.11914	0.14448	0.27602	0.18537	0.016023	0.21619	0.082868	0.12918	0.20675	0.062168	0.068269	0.17255	-1.0354	-1.6708	-1.1208	-1.8125	-1.3687	-1.2313	-2.0042	-1.1521	-1.4813	-1.6792	-1.2708	-1.7563	-1.4021	-1.2521	-1.9479	-1.1583	162.119	91.786	325.093	430.616	96.812	338.754	447.603	418.044	158.147	137.505	190.827	388.346	402.958	319.709	414.475	378.196	0.00086858	0.00011557	0.00010013	1042.7	1.0236e-05	6.0562e-06	1146.2	223.64	6.5307e-06	4.1425e-06	283.41	79.942	62.345	18.219	6.469e-06	25.219	0.00039871	0.00039847	0.00010967	1034.7	4.4326e-06	4.5524e-06	1135.8	223.53	4.5385e-06	4.5173e-06	284.29	80.445	62.752	18.584	4.401e-06	26.007	363.446	143.144	176.436	99.046	236.494	208.116	99.212	106.825	276.982	260.995	106.262	113.240	113.572	120.683	231.910	120.191	-8191	255	
949.917	1	1	0	0	0.071409	0.1534	0.11124	0.25732	0.20762	0.091464	0.2372	0.032747	0.13714	0.16987	0.067433	0.046052	0.28788	0.11559	0.033814	0.091113	-0.97708	-1.7042	-0.99583	-1.7958	-1.3979	-1.15	-2.1646	-1.3125	-1.4438	-1.6812	-1.0354	-1.7625	-1.7875	-1.0104	-1.7042	-1.2271	373.630	222.948	380.924	404.584	277.907	272.708	399.959	228.962	312.936	408.612	297.615	211.493	183.835	199.534	284.488	220.903	0.00088624	0.0005897	0.00010584	1036.3	5.2609e-06	3.6258e-06	1143.2	223.47	9.7248e-06	3.5871e-06	281.09	79.851	62.639	17.979	4.3635e-06	25.417	0.00042328	0.00042324	0.00011685	1032.6	4.5146e-06	4.5107e-06	1135	223.53	4.5824e-06	4.5721e-06	284.07	80.392	62.792	18.508	4.4794e-06	26.058	365.569	141.577	199.581	99.340	179.075	202.565	99.296	106.776	266.463	248.612	106.245	113.485	113.557	120.731	260.399	120.057	-8191	255	
949.991	1	1	0	0	0.075043	0.15848	0.057587	0.43331	0.22659	0.069118	0.034385	0.1629	0.037982	0.27325	0.19577	0.057553	0.093415	0.26711	0.033871	0.060351	-1.0417	-1.8167	-0.89792	-1.625	-1.6458	-1.1812	-2.1354	-1.4062	-1.2687	-1.7896	-1.2208	-1.8292	-1.5625	-1.075	-1.9	-1.4333	295.081	283.846	404.015	416.029	244.092	381.031	378.763	102.725	261.995	404.805	197.706	333.880	310.329	108.936	168.864	380.682	0.00077466	0.00020717	5.158e-05	1035.1	4.5778e-06	2.295e-06	1134.7	223.98	6.6602e-06	1.1347e-06	283.4	79.729	62.232	18.203	1.644e-06	25.275	0.00042196	0.00041732	0.00011406	1031.8	4.6092e-06	4.6789e-06	1128.6	223.71	4.6104e-06	4.4785e-06	284.04	80.34	62.791	18.566	4.4388e-06	25.985	368.659	121.179	154.580	99.101	229.423	217.992	98.793	106.742	265.381	218.499	106.391	113.066	113.942	120.658	219.612	119.662	-8191	255	
950.109	1	1	0	0	0.12426	0.09897	0.27749	0.10114	0.2232	0.22464	0.15582	0.20872	0.30756	0.23712	0.19731	0.39646	0.21012	0.37229	0.14641	0.24026	-0.65625	-1.8979	-0.97708	-1.6875	-1.6417	-1.0479	-1.7521	-1.5021	-1.225	-1.8917	-1.3542	-1.2646	-1.9292	-1.0667	-1.8	-1.4417	425.982	323.460	94.670	378.945	217.266	112.732	399.427	434.108	207.258	255.447	425.036	92.431	159.072	108.942	314.372	102.740	0.00087483	0.00045201	0.00013239	1033.2	7.2593e-06	4.6573e-06	1134.3	223.38	8.4279e-06	2.099e-06	281.28	79.897	62.573	18.161	6.005e-06	25.324	0.0004256	0.00041545	0.00011505	1027.9	4.5786e-06	4.5896e-06	1126.7	223.71	4.432e-06	4.4516e-06	283.45	80.431	62.877	18.565	4.3299e-06	26.001	364.646	146.606	213.545	99.428	251.827	234.639	99.248	106.988	227.844	270.677	106.150	113.271	113.397	121.038	217.812	119.887	-8191	255	
950.206	1	1	0	0	0.16427	0.16072	0.30299	0.095697	0.26531	0.0059537	0.17101	0.054749	0.094703	0.22058	0.023879	0.20719	0.21577	0.20872	0.21407	0.18066	-0.84375	-1.7833	-1.2208	-1.5312	-1.9688	-0.95208	-1.9375	-1.6458	-1.2271	-1.7479	-1.25	-1.3417	-1.8333	-1.2104	-1.6896	-1.6	228.358	356.875	322.275	133.949	97.462	147.733	417.484	382.000	166.270	229.640	104.028	443.007	187.660	170.326	443.845	185.269	0.00088178	0.0003397	3.6757e-05	1028.7	2.3305e-06	2.8565e-06	1136.4	223.12	7.8232e-06	3.4482e-06	282.87	80.254	62.945	17.955	8.1558e-07	25.41	0.0004132	0.00040147	0.00011046	1026.9	4.3713e-06	4.3037e-06	1127.9	223.22	4.3166e-06	4.2813e-06	283.75	80.496	62.926	18.508	4.2778e-06	26.052	363.331	186.833	181.109	99.374	232.589	261.097	99.158	106.379	234.155	270.391	106.437	113.348	114.036	121.043	133.621	119.800	-8191	255	
950.302	1	1	0	0	0.17821	0.33925	0.11955	0.013713	0.17157	0.2359	0.22037	0.091518	0.21906	0.1247	0.32729	0.099459	0.079881	0.18362	0.19976	0.16294	-0.7	-1.6771	-1.3521	-1.3271	-1.6562	-1.0458	-1.9042	-1.7771	-1.0646	-1.6479	-1.4458	-1.1313	-1.825	-1.1646	-1.525	-1.8625	163.371	158.507	173.788	253.874	325.671	172.465	424.669	262.211	303.140	251.571	428.294	293.562	372.454	332.058	205.314	145.582	0.00086264	0.00047862	0.00013263	1030.7	5.6136e-06	1.5406e-06	1135.9	223.66	8.1361e-06	6.8064e-06	283.75	80.502	62.583	18.107	3.0721e-06	25.462	0.00039577	0.00038334	0.00010492	1024.7	4.2486e-06	4.257e-06	1124.8	223.31	4.2943e-06	4.2348e-06	283.99	80.656	62.878	18.528	4.0171e-06	26.005	360.427	155.191	182.101	99.305	245.663	378.426	99.286	106.746	263.420	262.883	106.112	113.037	113.855	120.383	203.800	119.833	-8191	255	
950.422	1	1	0	0	0.2356	0.30608	0.27741	0.20499	0.11597	0.10931	0.56189	0.17825	0.10667	0.2223	0.25974	0.10054	0.28757	0.04719	0.1907	0.10926	-0.7125	-1.7521	-1.4458	-1.225	-1.7021	-1.1667	-1.5833	-1.8875	-0.95625	-1.7396	-1.4521	-1.1562	-1.9375	-1.15	-1.475	-1.9146	319.044	440.786	107.436	416.264	135.026	318.570	409.820	402.323	154.382	322.826	189.472	91.912	304.763	319.863	259.106	336.986	0.00091243	0.00074675	0.00015324	1032.6	4.2222e-06	4.0551e-06	1140.7	224.18	6.257e-06	4.8866e-06	282.89	80.169	62.248	18.142	2.8244e-06	25.381	0.00039286	0.00038688	0.00010572	1025.2	4.164e-06	4.1243e-06	1125.5	223.42	4.0678e-06	4.1885e-06	283.63	80.371	62.832	18.531	4.1191e-06	26.043	359.849	197.506	176.622	99.053	243.968	205.565	99.174	106.695	261.147	248.875	106.170	113.485	113.629	120.430	247.163	119.792	-8191	255	
950.518	1	1	0	0	0.08109	0.07874	0.1932	0.12703	0.21596	0.24602	0.18843	0.51265	0.10127	0.24792	0.2545	0.32521	0.053886	0.14653	0.24693	0.25807	-0.66458	-1.6146	-1.75	-1.15	-1.8021	-1.1354	-1.2979	-1.8438	-0.98542	-1.6021	-1.6271	-1.2458	-1.9333	-1.5417	-1.2313	-1.8604	122.985	103.862	224.600	437.836	445.557	363.926	430.534	439.652	391.423	423.080	351.982	415.175	192.997	418.255	112.297	205.810	0.00081195	0.00023539	4.9826e-05	1035.3	3.5916e-06	4.6065e-06	1134.4	224.46	1.2691e-05	4.3151e-07	282.86	80.015	63.573	18.036	3.5799e-06	25.452	0.00038548	0.00038031	0.00010608	1026.1	4.1194e-06	4.2024e-06	1125.9	223.66	4.1753e-06	4.0907e-06	283.47	80.38	63.086	18.52	4.2028e-06	26.035	356.284	204.751	184.601	99.264	300.995	249.734	99.072	106.660	222.713	329.365	106.186	113.435	114.058	120.682	273.457	119.823	-8191	255	
950.590	1	1	0	0	0.19521	0.064139	0.18431	0.1075	0.079653	0.057898	0.058331	0.18241	0.13117	0.21009	0.021881	0.18214	0.10074	0.2671	0.21984	0.10446	-0.68542	-1.5812	-1.7042	-1.1896	-1.7875	-1.3604	-1.325	-2.0521	-1.2542	-1.4958	-1.7812	-1.0396	-1.7792	-1.4792	-0.93958	-1.7938	127.731	384.484	253.064	88.684	112.062	162.175	100.973	423.109	279.707	208.098	399.679	414.126	395.637	441.827	421.339	431.532	0.00086025	0.00046858	5.5799e-05	1033.5	7.155e-06	3.6352e-06	1132.9	224.38	6.7744e-06	3.9879e-06	280.8	80.296	62.594	18.12	4.8976e-06	25.499	0.00039493	0.00037772	0.00010587	1025.3	4.185e-06	4.1169e-06	1124.4	224.12	4.0593e-06	4.0539e-06	283.1	80.501	62.855	18.511	4.147e-06	26.123	364.348	197.966	169.230	98.988	245.112	250.846	99.292	106.503	206.296	228.118	106.214	113.491	113.784	120.668	189.026	120.089	-8191	255	
950.711	1	1	0	0	0.016587	0.17717	0.23016	0.052285	0.20158	0.10575	0.056828	0.11575	0.15999	0.12976	0.11633	0.029277	0.23721	0.27649	0.14648	0.22462	-0.8625	-1.3854	-1.7958	-1.2583	-1.7125	-1.5042	-1.1437	-1.8958	-1.1938	-1.4062	-1.7667	-1.0854	-1.5542	-1.725	-1.1875	-2.0062	236.758	420.232	279.658	268.894	427.117	151.194	345.065	255.020	340.176	109.879	426.096	165.265	280.983	377.161	129.747	425.202	0.00085559	0.00050433	0.00010023	1027.7	5.2193e-06	3.2731e-06	1123.2	223.71	1.3349e-05	4.9909e-06	282.67	80.35	62.561	17.983	5.1625e-06	25.375	0.00039831	0.00037715	0.00010158	1020.2	4.2465e-06	4.1714e-06	1119.7	223.61	4.2647e-06	4.3859e-06	283.54	80.49	63.019	18.539	4.4057e-06	26.1	366.617	157.116	160.051	99.324	245.418	248.712	99.162	106.502	236.183	276.606	105.949	113.131	113.886	120.995	253.273	120.073	-8191	255	
950.805	1	1	0	0	0.15204	0.29472	0.052506	0.093682	0.079589	0.11606	0.22002	0.39708	0.05699	0.16619	0.16155	0.10462	0.18056	0.15655	0.13849	0.48179	-0.91875	-1.1521	-1.9813	-1.2208	-1.6063	-1.7437	-1.1125	-1.8354	-1.2854	-1.1812	-1.7917	-1.3333	-1.5042	-1.7271	-1.1604	-1.5979	261.382	384.403	282.405	434.957	294.396	380.691	382.085	372.463	373.456	274.650	297.527	154.087	283.197	352.269	106.053	310.423	0.00093527	0.00029728	0.00010872	1029.3	3.0839e-06	2.9582e-06	1135	224.47	1.5206e-05	2.8376e-06	282.64	79.816	62.948	18.139	1.8494e-06	25.348	0.00042744	0.00041928	0.00011585	1022.5	4.6046e-06	4.5548e-06	1123.6	223.96	4.357e-06	4.4403e-06	283.64	80.447	63.103	18.619	4.1614e-06	26.084	359.035	162.622	234.014	98.928	249.496	282.263	98.903	106.888	214.066	238.291	106.061	113.055	113.628	120.800	233.516	119.882	-8191	255	
950.901	1	1	0	0	0.29919	0.13071	0.16659	0.1532	0.13201	0.15923	0.068202	0.16355	0.2033	0.14084	0.30787	0.27321	0.12334	0.22428	0.097552	0.34368	-0.97083	-0.925	-1.8312	-1.3646	-1.5958	-1.7083	-1.1292	-1.625	-1.7062	-1.1125	-1.9125	-1.2458	-1.3354	-1.9146	-1.0812	-1.6896	285.229	430.111	275.815	409.571	268.758	350.216	270.461	362.078	396.121	191.604	298.383	425.212	319.292	167.288	222.311	90.642	0.0009891	0.0004389	5.8846e-05	1031.5	7.1412e-06	9.8392e-07	1129.9	223.81	1.0628e-05	2.3542e-06	282.56	80.306	62.766	18.031	4.6355e-06	25.446	0.00038856	0.00036448	9.8361e-05	1022	3.865e-06	3.8379e-06	1120.5	223.11	3.8845e-06	3.8985e-06	282.86	80.396	62.975	18.526	3.8289e-06	26.112	363.035	155.908	149.889	99.052	208.458	226.302	99.213	107.014	243.676	277.065	106.281	113.280	113.597	120.925	223.040	119.756	-8191	255	
950.997	1	1	0	0	0.17995	0.1941	0.08067	0.052732	0.14976	0.24179	0.12668	0.3239	0.1095	0.079954	0.31653	0.019412	0.23333	0.1315	0.016365	0.22285	-1.1292	-0.96667	-1.8042	-1.6292	-1.3687	-1.8979	-1.2021	-1.5812	-1.5979	-1.0708	-1.8771	-1.2083	-1.1313	-1.9646	-1.0854	-1.2479	320.417	247.124	430.170	157.395	420.475	120.617	302.740	355.880	188.509	445.791	397.596	154.058	191.856	245.792	420.768	155.732	0.00077228	0.00021787	0.00011992	1020.1	6.5104e-06	1.5282e-06	1126.3	223.75	7.8905e-06	1.3093e-06	281.36	80.227	62.279	18.189	3.1437e-06	25.452	0.0003813	0.00036797	0.00010214	1016.8	4.1322e-06	4.1484e-06	1115.7	222.75	3.9711e-06	4.1291e-06	282.37	80.513	62.772	18.615	4.1394e-06	26.076	357.941	163.433	189.668	99.098	225.400	262.595	99.148	107.081	255.853	222.330	106.412	113.191	113.987	120.522	293.941	120.026	-8191	255	
951.118	1	1	0	0	0.15416	0.21645	0.16093	0.3506	0.10204	0.039018	0.16621	0.28873	0.21262	0.030797	0.26043	0.05589	0.093001	0.23879	0.17856	0.28614	-1.3042	-1.0542	-1.8021	-1.575	-1.2854	-2.0021	-1.3333	-1.4688	-1.7667	-1.0438	-1.8292	-1.6229	-1.0771	-1.7854	-1.1187	-1.4208	329.606	298.301	110.316	416.419	271.128	423.569	109.216	418.828	214.689	330.448	354.736	309.277	429.499	147.205	171.863	215.614	0.00086617	0.00020326	4.3317e-05	1025.2	3.4419e-06	4.7169e-06	1131.6	222.71	7.7284e-06	1.5057e-06	281.3	80.191	62.561	18.243	4.8671e-06	25.456	0.00038949	0.00036799	0.00010163	1019.7	4.0413e-06	3.8686e-06	1118.4	222.64	3.8881e-06	3.9339e-06	282.04	80.511	62.801	18.626	3.9948e-06	26.136	362.845	192.449	179.052	98.899	234.835	245.407	98.883	106.813	262.864	318.723	106.302	113.196	113.181	120.721	226.205	120.007	-8191	255	
