BOXY.EXE: ISS Imagent and Oximeter Data Acquisition Program Version 0.80
Ascii Record File

#ACQ INFORMATION
2  Detector Channels 
16  External MUX Channels 
1  Auxiliary Channels 
5000  Waveform (CCF) Frequency (Hz)
1  Waveforms Skipped 
30  Waveforms Averaged 
1  Cycles Averaged 
16  Acquisitions per Waveform 
10.0806  Updata Rate (Hz) 

#FILE INFORMATION
TRUE -- External MUX Channel results are PARSED.
FALSE -- AC DC and Phase are NOT grouped.
TRUE -- Companion Program Settings File CREATED.
FALSE -- AC data not excluded
FALSE -- DC data not excluded
FALSE -- Phase data not excluded
FALSE -- Auxillary Chn. data not excluded
Tab delimiters

#CALIBRATION STATE
TRUE -- Waveform Calibration Values APPLIED.


#AUX CALIBRATION VALUES
Val Type	aux-1	

Term	1.0000e+00	
Factor	0.0000e+00	


#WF CALIBRATION VALUES
A = Detector Channel
Val Type	A-AC1	A-AC2	A-AC3	A-AC4	A-AC5	A-AC6	A-AC7	A-AC8	A-AC9	A-AC10	A-AC11	A-AC12	A-AC13	A-AC14	A-AC15	A-AC16	A-DC1	A-DC2	A-DC3	A-DC4	A-DC5	A-DC6	A-DC7	A-DC8	A-DC9	A-DC10	A-DC11	A-DC12	A-DC13	A-DC14	A-DC15	A-DC16	A-Ph1	A-Ph2	A-Ph3	A-Ph4	A-Ph5	A-Ph6	A-Ph7	A-Ph8	A-Ph9	A-Ph10	A-Ph11	A-Ph12	A-Ph13	A-Ph14	A-Ph15	A-Ph16	

Term	0.00000e+00	0.00000e+00	0.00000e+00	0.00000e+00	0.00000e+00	0.00000e+00	0.00000e+00	0.00000e+00	0.00000e+00	0.00000e+00	0.00000e+00	0.00000e+00	0.00000e+00	0.00000e+00	0.00000e+00	0.00000e+00	0.00000e+00	0.00000e+00	0.00000e+00	0.00000e+00	0.00000e+00	0.00000e+00	0.00000e+00	0.00000e+00	0.00000e+00	0.00000e+00	0.00000e+00	0.00000e+00	0.00000e+00	0.00000e+00	0.00000e+00	0.00000e+00	0.00000e+00	0.00000e+00	0.00000e+00	0.00000e+00	0.00000e+00	0.00000e+00	0.00000e+00	0.00000e+00	0.00000e+00	0.00000e+00	0.00000e+00	0.00000e+00	0.00000e+00	0.00000e+00	0.00000e+00	0.00000e+00	
Factor	1.00000e+00	1.00000e+00	1.00000e+00	1.00000e+00	1.00000e+00	1.00000e+00	1.00000e+00	1.00000e+00	1.00000e+00	1.00000e+00	1.00000e+00	1.00000e+00	1.00000e+00	1.00000e+00	1.00000e+00	1.00000e+00	1.00000e+00	1.00000e+00	1.00000e+00	1.00000e+00	1.00000e+00	1.00000e+00	1.00000e+00	1.00000e+00	1.00000e+00	1.00000e+00	1.00000e+00	1.00000e+00	1.00000e+00	1.00000e+00	1.00000e+00	1.00000e+00	X	X	X	X	X	X	X	X	X	X	X	X	X	X	X	X	

B = Detector Channel
Val Type	B-AC1	B-AC2	B-AC3	B-AC4	B-AC5	B-AC6	B-AC7	B-AC8	B-AC9	B-AC10	B-AC11	B-AC12	B-AC13	B-AC14	B-AC15	B-AC16	B-DC1	B-DC2	B-DC3	B-DC4	B-DC5	B-DC6	B-DC7	B-DC8	B-DC9	B-DC10	B-DC11	B-DC12	B-DC13	B-DC14	B-DC15	B-DC16	B-Ph1	B-Ph2	B-Ph3	B-Ph4	B-Ph5	B-Ph6	B-Ph7	B-Ph8	B-Ph9	B-Ph10	B-Ph11	B-Ph12	B-Ph13	B-Ph14	B-Ph15	B-Ph16	

Term	0.00000e+00	0.00000e+00	0.00000e+00	0.00000e+00	0.00000e+00	0.00000e+00	0.00000e+00	0.00000e+00	0.00000e+00	0.00000e+00	0.00000e+00	0.00000e+00	0.00000e+00	0.00000e+00	0.00000e+00	0.00000e+00	0.00000e+00	0.00000e+00	0.00000e+00	0.00000e+00	0.00000e+00	0.00000e+00	0.00000e+00	0.00000e+00	0.00000e+00	0.00000e+00	0.00000e+00	0.00000e+00	0.00000e+00	0.00000e+00	0.00000e+00	0.00000e+00	-1.93096e+02	-1.31651e+02	-1.26893e+02	-1.81391e+02	-8.12550e+01	-6.54229e+01	-1.56795e+02	-1.62015e+02	-8.71340e+01	-6.29356e+01	-1.74004e+02	-1.71240e+02	-1.79095e+02	-1.76490e+02	-7.82813e+01	-1.49299e+02	
Factor	3.61994e-05	1.37445e-04	4.05246e-05	1.50909e-01	1.47821e-06	1.56133e-06	1.51247e-01	4.83322e-02	1.61963e-06	1.49477e-06	8.33551e-02	2.69328e-02	2.70377e-02	8.24457e-03	1.53392e-06	1.18361e-02	1.83736e-05	3.60318e-05	1.01782e-05	8.04857e-02	3.42701e-07	4.15052e-07	7.58372e-02	2.58983e-02	3.41234e-07	4.10228e-07	4.32733e-02	1.39519e-02	1.46541e-02	4.46483e-03	3.66053e-07	6.20000e-03	X	X	X	X	X	X	X	X	X	X	X	X	X	X	X	X	



#DISTANCE SETTINGS
A = Detector Channel
A-1	A-2	A-3	A-4	A-5	A-6	A-7	A-8	A-9	A-10	A-11	A-12	A-13	A-14	A-15	A-16	

2.5000e+00	3.0000e+00	2.5000e+00	3.0000e+00	2.0000e+00	3.0000e+00	1.5000e+00	3.0000e+00	3.0000e+00	3.0000e+00	3.0000e+00	3.0000e+00	3.0000e+00	3.0000e+00	1.5000e+00	3.0000e+00	

B = Detector Channel
B-1	B-2	B-3	B-4	B-5	B-6	B-7	B-8	B-9	B-10	B-11	B-12	B-13	B-14	B-15	B-16	

1.0000e+01	1.0000e+01	1.0000e+01	1.4400e+00	1.0000e+01	1.0000e+01	1.5100e+00	1.9400e+00	1.0000e+01	1.0000e+01	1.9900e+00	2.4900e+00	2.4100e+00	2.9000e+00	1.0000e+01	2.9800e+00	




#DATA BEGINS
time	group	step	mark	flag	A-AC1	A-AC2	A-AC3	A-AC4	A-AC5	A-AC6	A-AC7	A-AC8	A-AC9	A-AC10	A-AC11	A-AC12	A-AC13	A-AC14	A-AC15	A-AC16	A-DC1	A-DC2	A-DC3	A-DC4	A-DC5	A-DC6	A-DC7	A-DC8	A-DC9	A-DC10	A-DC11	A-DC12	A-DC13	A-DC14	A-DC15	A-DC16	A-Ph1	A-Ph2	A-Ph3	A-Ph4	A-Ph5	A-Ph6	A-Ph7	A-Ph8	A-Ph9	A-Ph10	A-Ph11	A-Ph12	A-Ph13	A-Ph14	A-Ph15	A-Ph16	B-AC1	B-AC2	B-AC3	B-AC4	B-AC5	B-AC6	B-AC7	B-AC8	B-AC9	B-AC10	B-AC11	B-AC12	B-AC13	B-AC14	B-AC15	B-AC16	B-DC1	B-DC2	B-DC3	B-DC4	B-DC5	B-DC6	B-DC7	B-DC8	B-DC9	B-DC10	B-DC11	B-DC12	B-DC13	B-DC14	B-DC15	B-DC16	B-Ph1	B-Ph2	B-Ph3	B-Ph4	B-Ph5	B-Ph6	B-Ph7	B-Ph8	B-Ph9	B-Ph10	B-Ph11	B-Ph12	B-Ph13	B-Ph14	B-Ph15	B-Ph16	aux-1	digaux	

2609.926	1	1	0	256	0.21326	0.11965	0.037927	0.20181	0.23069	0.048696	0.26635	0.21422	0.038475	0.12888	0.14305	0.086341	0.075173	0.23051	0.16269	0.095212	-2.5104	-2.5604	-2.1813	-3.1771	-2.4333	-2.7208	-3.1104	-2.1896	-2.8937	-2.4813	-2.4938	-3.1583	-2.5271	-2.5458	-3.0958	-2.2396	302.677	119.796	164.735	96.175	410.726	293.794	85.699	385.979	423.379	334.811	274.202	325.837	383.843	127.224	382.570	297.220	0.0011263	0.00065446	0.00022848	1477.8	7.6758e-06	5.2399e-06	1467.4	410.64	7.85e-06	8.0909e-06	464.03	151.04	132.32	44.818	6.9466e-06	55.251	0.00199	0.0030195	0.00085545	1513.4	3.0256e-05	3.477e-05	1505.2	421	2.9793e-05	3.4416e-05	479.16	155.7	135.94	46.656	3.1015e-05	57.553	107.150	186.729	187.229	98.195	242.349	269.655	97.819	102.792	231.502	256.102	102.278	106.659	106.696	111.527	208.306	110.415	-8191	255	
2610.023	1	1	0	0	0.19558	0.22784	0.070675	0.27543	0.15535	0.23163	0.37689	0.2801	0.16196	0.19144	0.1813	0.069763	0.13085	0.28303	0.073295	0.1798	-2.5396	-2.7229	-1.9604	-3.1521	-2.2875	-2.5417	-3.2146	-2.2562	-2.6792	-2.8292	-2.3396	-3.2	-2.5375	-2.5667	-3.1271	-2.3187	158.329	439.858	286.231	404.881	236.497	390.609	384.093	389.555	219.953	323.030	354.667	110.383	395.972	399.375	345.358	129.105	0.0012159	0.00036803	0.00016037	1478.4	5.4756e-06	7.1258e-06	1471.3	409.67	1.0475e-05	5.7587e-06	464.76	151.99	131.92	44.799	4.8708e-06	54.763	0.0019818	0.0030625	0.00086748	1513.1	3.0114e-05	3.4485e-05	1507	420.72	2.9293e-05	3.4368e-05	479.53	155.7	135.99	46.626	3.0487e-05	57.481	104.472	147.673	147.036	98.114	218.460	232.319	98.047	102.699	229.421	258.041	101.827	106.414	106.605	111.509	225.990	110.517	-8191	255	
2610.119	1	1	0	0	0.13353	0.18207	0.31387	0.054093	0.39666	0.056423	0.21607	0.39433	0.13726	0.24347	0.2856	0.31982	0.13316	0.18955	0.14157	0.29847	-2.4917	-2.875	-2.0479	-3.0312	-2.8083	-2.3042	-3.225	-2.3646	-2.675	-2.8917	-2.4104	-3.1625	-2.8312	-2.3771	-3.0396	-2.3833	330.318	173.695	116.954	134.474	207.230	139.603	119.342	405.547	97.400	444.507	134.851	407.006	270.438	385.219	340.655	355.502	0.0012251	0.00049414	0.00026275	1478.8	6.9739e-06	6.1045e-06	1470.4	409.52	1.0167e-05	4.4933e-06	464.13	151.22	132.16	44.829	8.7959e-06	55.062	0.0019985	0.0030677	0.00084952	1513.1	2.9995e-05	3.4561e-05	1504.6	420.05	2.9871e-05	3.3476e-05	479.69	155.66	135.95	46.657	3.0191e-05	57.442	106.988	152.963	162.967	98.134	215.902	239.578	97.980	102.568	217.309	252.855	101.981	106.387	107.063	111.463	227.805	110.664	-8191	255	
2610.215	1	1	0	0	0.11957	0.094246	0.22291	0.31205	0.044511	0.2716	0.12073	0.15086	0.21017	0.2948	0.30521	0.24916	0.4271	0.14707	0.10277	0.34246	-2.1667	-3.0312	-1.9896	-3.1604	-2.6562	-2.1979	-3.2021	-2.6333	-2.5625	-2.9208	-2.3812	-2.9833	-2.7604	-2.3187	-3.0292	-2.5771	92.493	135.469	348.562	92.455	149.008	209.965	414.925	369.837	325.913	94.049	402.953	375.524	85.076	129.578	323.577	441.006	0.0011939	0.00030012	0.00028931	1470.9	7.886e-06	3.8127e-06	1471.4	406.98	1.1993e-05	6.5246e-06	467.23	151.23	132.17	44.666	6.6695e-06	55.238	0.0019787	0.0029277	0.00083094	1508.7	2.892e-05	3.3585e-05	1504.4	419.55	2.864e-05	3.1605e-05	479.33	155.72	135.93	46.542	3.0199e-05	57.425	109.245	210.050	182.330	98.072	204.946	230.448	97.805	102.518	213.875	236.025	101.977	106.359	106.875	111.641	221.339	110.773	-8191	255	
2610.309	1	1	0	0	0.093874	0.18023	0.053403	0.075957	0.10611	0.31222	0.043187	0.24166	0.068649	0.17388	0.3494	0.27667	0.21272	0.23731	0.089755	0.14528	-1.9167	-3.175	-2.2021	-2.9979	-2.7042	-2.2438	-3.1792	-2.6188	-2.3292	-3.0917	-2.3458	-2.7146	-3.075	-2.3292	-2.9271	-2.4313	371.614	216.090	293.192	302.925	114.816	258.474	436.468	95.802	397.163	186.653	414.230	351.545	404.376	88.816	289.346	147.477	0.00119	0.00064274	0.00016476	1475.4	5.0815e-06	5.6265e-06	1473.8	409.03	8.2183e-06	5.7753e-06	464.17	151.35	131.84	44.807	6.5875e-06	54.905	0.0019607	0.0028883	0.00083641	1511.7	2.9019e-05	3.3787e-05	1504.7	420.01	2.8502e-05	3.2688e-05	478.29	155.87	135.86	46.524	3.0832e-05	57.281	101.633	175.936	145.898	98.222	241.201	257.286	97.922	102.676	208.331	252.517	101.938	106.707	107.026	111.724	217.565	110.556	-8191	255	
2610.405	1	1	0	0	0.087636	0.11103	0.068143	0.23293	0.26088	0.1387	0.26055	0.21676	0.14143	0.033925	0.271	0.26885	0.14991	0.059826	0.044502	0.279	-1.8167	-3.0604	-2.275	-2.8625	-2.8063	-2.1875	-3.1729	-2.6479	-2.2167	-3.2396	-2.3854	-2.6292	-3.0146	-2.1708	-2.8292	-2.8167	374.429	180.865	98.773	401.791	177.442	392.903	89.456	341.996	130.780	230.187	428.072	367.545	145.612	104.659	148.992	412.609	0.0012667	0.0005918	0.00019874	1471	7.7417e-06	1.9756e-06	1465.6	409.3	7.2017e-06	5.3977e-06	464.59	151.48	132.06	44.637	5.3591e-06	55.321	0.0019582	0.002925	0.0008581	1509.2	2.8882e-05	3.3464e-05	1503.2	420.44	3.0194e-05	3.3794e-05	479.52	155.67	135.91	46.548	3.0901e-05	57.556	107.274	213.035	173.265	98.034	238.091	257.806	98.040	102.500	222.470	248.639	101.863	106.269	106.991	111.569	232.320	110.571	-8191	255	
2610.526	1	1	0	0	0.27607	0.17951	0.26	0.24743	0.084492	0.17801	0.24213	0.23023	0.10752	0.17072	0.14367	0.11251	0.25588	0.16919	0.14134	0.060124	-2.05	-3	-2.3354	-2.7729	-3.0083	-2.1854	-3.2042	-2.9771	-2.2812	-3.075	-2.6583	-2.5083	-3.1708	-2.2125	-2.8063	-2.9021	133.839	134.333	89.158	95.673	251.260	356.390	396.895	380.053	209.439	431.719	337.738	329.261	107.565	180.252	331.449	436.547	0.0011932	0.00046072	0.0001765	1470.7	8.5662e-06	3.5582e-06	1472.7	408.12	1.244e-05	5.0274e-06	463.73	151.4	132.46	44.82	8.8009e-06	55.057	0.0019684	0.003034	0.00085719	1509.5	2.8915e-05	3.432e-05	1506.5	419.77	2.88e-05	3.3995e-05	478.98	155.71	136.03	46.55	3.1013e-05	57.335	102.321	156.557	183.422	98.139	208.781	253.560	97.978	102.677	211.631	237.937	102.023	106.488	106.895	111.485	208.916	110.450	-8191	255	
2610.622	1	1	0	0	0.16291	0.25492	0.30017	0.37419	0.048644	0.016054	0.22043	0.14346	0.21234	0.16629	0.17563	0.10986	0.10391	0.24992	0.096392	0.10831	-1.6833	-3.0979	-2.3771	-2.6042	-3.0271	-2.3229	-2.9604	-3.0125	-2.1271	-3.1	-2.6458	-2.4646	-3.0167	-2.4479	-2.7771	-2.9083	441.179	180.908	398.333	414.279	394.441	427.647	385.523	422.595	207.150	149.573	88.232	374.326	111.193	355.441	95.316	262.225	0.0012095	0.00045916	0.00017311	1471.1	7.8208e-06	6.1116e-06	1471.1	408.91	9.9969e-06	5.3527e-06	465.48	152.18	131.53	44.875	8.898e-06	55.277	0.0019528	0.00293	0.00083845	1508.1	2.9121e-05	3.5357e-05	1504.2	419.74	2.9953e-05	3.4099e-05	479.73	155.86	135.85	46.599	3.1519e-05	57.466	106.064	171.990	186.151	98.068	219.421	248.565	97.932	102.535	237.165	250.345	101.956	106.504	106.766	111.700	247.494	110.790	-8191	255	
2610.718	1	1	0	0	0.3288	0.19923	0.28009	0.20138	0.047341	0.12241	0.33277	0.16197	0.18978	0.23744	0.18242	0.041736	0.12278	0.19576	0.14771	0.072223	-1.7792	-2.9125	-2.6167	-2.4646	-3.1	-2.3958	-2.6979	-3.1875	-2.275	-2.8812	-2.8958	-2.2104	-3.0583	-2.6437	-2.5896	-3.3104	137.911	367.891	158.700	410.822	402.698	226.869	389.503	339.431	177.787	265.440	92.152	139.396	113.251	419.935	260.507	302.024	0.0012191	0.00036947	0.00017321	1469.8	6.6518e-06	6.9315e-06	1467.9	408.96	5.6192e-06	5.9742e-06	465.37	151.71	132.17	44.579	5.9026e-06	54.867	0.0019925	0.0029903	0.00085495	1508.7	2.9318e-05	3.4349e-05	1502.7	420.24	2.9759e-05	3.4275e-05	479.17	155.69	135.94	46.587	3.1047e-05	57.374	106.484	161.494	184.171	98.470	222.099	224.773	97.978	102.587	212.581	227.020	101.892	106.698	107.246	111.714	235.193	110.584	-8191	255	
2610.815	1	1	0	0	0.21197	0.15653	0.28196	0.23995	0.047447	0.3059	0.249	0.34341	0.12302	0.21403	0.024276	0.21195	0.02829	0.15549	0.3356	0.13661	-1.8479	-2.8604	-2.9208	-2.4417	-3.0542	-2.5417	-2.6625	-3.1896	-2.2687	-2.95	-3.1521	-2.4167	-3.05	-2.4479	-2.4833	-3.125	160.857	298.169	271.986	347.733	438.538	101.746	345.557	416.435	103.938	371.754	436.884	412.082	231.323	427.942	342.665	257.695	0.0013128	0.00037394	0.00015569	1478.3	7.2981e-06	7.3806e-06	1468.5	408.41	8.2698e-06	5.6656e-06	464.79	150.39	132.03	44.774	5.9878e-06	55.152	0.0019762	0.0030874	0.00082509	1510.6	2.9444e-05	3.4289e-05	1503.7	419.89	2.9435e-05	3.4227e-05	478.96	155.26	135.93	46.574	3.1103e-05	57.433	106.121	198.269	162.349	98.336	217.436	228.710	97.895	102.568	241.394	258.456	102.138	106.541	106.826	111.802	225.158	110.977	-8191	255	
2610.911	1	1	0	0	0.31212	0.1667	0.11753	0.034353	0.20569	0.18206	0.12177	0.26177	0.17986	0.28393	0.075212	0.10925	0.073188	0.070933	0.30809	0.083943	-1.9604	-2.7667	-3.0583	-2.3979	-2.9271	-2.725	-2.4125	-3.2292	-2.3708	-2.5938	-3.0875	-2.3063	-3.0417	-2.825	-2.2146	-3.4708	151.737	170.486	101.287	357.570	389.910	337.212	443.776	400.789	219.656	195.499	118.613	126.543	409.548	410.551	409.693	352.544	0.0011663	0.00060348	0.00020485	1471.8	7.821e-06	2.5992e-06	1469.3	409.47	9.093e-06	5.5819e-06	464.58	151.25	131.32	44.648	4.4189e-06	55.186	0.001958	0.0030782	0.00084358	1507.9	2.9751e-05	3.458e-05	1504.4	420.09	2.9787e-05	3.4832e-05	479.36	155.6	135.74	46.488	3.0954e-05	57.446	107.677	164.411	166.594	98.129	208.448	250.269	97.982	102.594	232.190	268.690	102.120	106.570	107.056	111.342	271.472	110.652	-8191	255	
2611.007	1	1	0	0	0.23732	0.2702	0.12494	0.23693	0.031986	0.08603	0.24819	0.16703	0.22582	0.31188	0.075828	0.060897	0.50709	0.14352	0.24261	0.23215	-2.2167	-2.6104	-2.9583	-2.3875	-2.9125	-2.8333	-2.5479	-3.4583	-2.3646	-2.5187	-3.2375	-2.3312	-2.8688	-2.9979	-2.0938	-3.3583	163.530	206.650	141.096	431.506	95.242	389.226	344.209	99.599	442.496	288.692	355.014	407.129	434.801	294.457	396.904	423.652	0.0013265	0.00064346	0.00019802	1470.8	4.7153e-06	3.8889e-06	1471.5	408.73	1.1273e-05	4.4262e-06	464.11	151.02	132.11	44.576	9.5508e-06	54.912	0.0020275	0.0030517	0.00084689	1508.1	2.9648e-05	3.4481e-05	1502	420.34	3.0081e-05	3.5097e-05	479.52	155.47	135.87	46.512	3.124e-05	57.489	107.363	180.260	174.744	98.077	211.107	253.250	97.960	102.576	192.979	205.208	101.993	106.320	107.221	111.535	220.628	110.686	-8191	255	
2611.103	1	1	0	0	0.18841	0.3129	0.32005	0.36296	0.028252	0.18028	0.35062	0.30428	0.11017	0.27237	0.2783	0.31847	0.025828	0.25255	0.16548	0.15303	-2.1792	-2.4354	-3.1625	-2.5479	-2.6896	-2.8708	-2.6188	-3.0833	-2.7771	-2.5333	-3.3187	-2.5625	-2.7562	-3.0021	-2.1458	-3.0604	333.290	333.577	356.647	440.611	86.508	215.007	389.173	403.422	299.250	106.133	428.086	387.735	253.206	418.270	95.062	313.030	0.0012435	0.00088558	0.00017812	1473.2	4.3329e-06	6.5786e-06	1469.4	410.34	5.7794e-06	5.8297e-06	464.58	150.78	132.61	44.634	7.7023e-06	54.851	0.0019985	0.0030257	0.00083843	1510.8	2.9577e-05	3.4206e-05	1503.4	420.6	2.9447e-05	3.4252e-05	479.15	155.57	136.11	46.491	3.1095e-05	57.409	106.282	180.590	154.436	98.134	180.033	241.397	98.093	102.809	222.127	247.758	102.053	106.451	106.875	111.864	202.782	110.838	-8191	255	
2611.197	1	1	0	0	0.14935	0.1122	0.17851	0.242	0.20496	0.14392	0.32212	0.14426	0.088344	0.24216	0.081285	0.12143	0.056372	0.27944	0.16126	0.18896	-2.5042	-2.2104	-3.1271	-2.3896	-2.7167	-3.0583	-2.3958	-3.0563	-2.7917	-2.2167	-3.2042	-2.6063	-2.5208	-3.2708	-2.4229	-2.9667	284.508	299.463	412.696	86.855	240.299	416.780	421.145	106.981	243.341	281.950	366.451	435.710	124.446	125.208	163.715	320.545	0.0011981	0.00033109	0.00025932	1473.8	9.1768e-06	5.9924e-06	1465.5	408.36	7.8496e-06	5.9362e-06	464.15	150.75	132.09	44.793	6.373e-06	55.155	0.0019902	0.0030367	0.00086502	1510.7	2.9959e-05	3.4745e-05	1503	420.25	2.9793e-05	3.428e-05	478.92	155.46	136.27	46.576	3.1403e-05	57.485	107.161	149.592	184.083	98.208	212.535	249.700	97.945	102.855	217.240	234.235	102.145	106.382	107.106	111.529	226.427	110.969	-8191	255	
2611.318	1	1	0	0	0.25815	0.3118	0.2811	0.07572	0.20883	0.090975	0.37494	0.25219	0.16865	0.3001	0.14432	0.19544	0.31767	0.092214	0.18176	0.243	-2.4062	-2.2021	-3.1292	-2.9479	-2.4917	-2.9083	-2.4833	-2.9521	-2.9583	-2.2708	-3.2458	-2.6917	-2.4062	-3.2125	-2.4625	-2.8292	241.707	258.314	171.132	374.320	290.160	157.385	419.011	86.623	431.295	395.629	217.001	372.530	406.785	90.219	251.820	377.209	0.0011506	0.00039545	0.00019362	1472.4	9.5221e-06	6.552e-06	1469	410.41	7.8391e-06	2.4536e-06	464.2	151.7	132.12	44.581	8.5144e-06	55.064	0.0020183	0.0029922	0.00086033	1510	2.9717e-05	3.4149e-05	1505.4	420.76	3.0277e-05	3.4331e-05	479.33	155.68	136.17	46.527	3.145e-05	57.464	106.146	142.493	195.874	98.136	215.101	234.838	98.161	102.858	227.121	267.489	102.130	106.614	107.240	111.714	219.940	110.503	-8191	255	
2611.414	1	1	0	0	0.20398	0.12071	0.10318	0.52123	0.12923	0.14377	0.30525	0.24912	0.21564	0.079529	0.24865	0.14277	0.23301	0.18874	0.13843	0.19562	-2.5729	-2.1042	-3.0292	-2.7875	-2.3583	-3.2208	-2.4958	-2.9437	-3.1729	-2.2229	-3.1167	-2.775	-2.4	-3.2146	-2.3479	-2.6458	426.634	348.515	409.043	415.502	351.516	304.607	386.717	436.350	335.224	365.152	101.327	399.370	355.388	427.529	211.412	399.983	0.0012071	0.00040409	0.00010093	1471.9	5.6848e-06	7.7077e-06	1465.9	409.22	8.8741e-06	6.856e-06	464.43	151.3	131.79	44.584	6.6001e-06	55.046	0.0019863	0.0030331	0.00084829	1509.7	2.9505e-05	3.4708e-05	1505.1	420.12	2.9776e-05	3.4512e-05	479.4	155.75	135.91	46.508	3.184e-05	57.515	105.951	165.977	189.715	98.234	199.653	202.757	98.108	102.746	234.618	248.157	102.117	106.275	107.048	111.713	237.491	110.986	-8191	255	
2611.488	1	1	0	0	0.167	0.21922	0.076602	0.28805	0.034035	0.24043	0.12274	0.37223	0.18342	0.09963	0.12453	0.10553	0.054174	0.27702	0.044692	0.17598	-2.5438	-2.2771	-2.9167	-2.9562	-2.2042	-3.1729	-2.7062	-2.7146	-3.1854	-2.3021	-3.0667	-3.0354	-2.3417	-3.0708	-2.4813	-2.55	374.440	245.881	169.392	413.299	186.185	331.363	377.590	409.463	159.962	399.706	111.067	409.972	402.119	94.776	85.655	357.207	0.001206	0.0004857	0.00016012	1478.8	7.2343e-06	5.8264e-06	1473.6	409.4	9.0886e-06	4.2774e-06	465.47	151.22	131.86	44.616	5.2331e-06	55.292	0.0019972	0.0030921	0.00086852	1512	3.0635e-05	3.51e-05	1505	420.61	3.0356e-05	3.4892e-05	479.94	155.51	135.88	46.608	3.2033e-05	57.42	111.202	163.088	180.920	98.155	207.156	228.035	98.214	102.641	206.972	286.145	102.177	106.493	106.705	111.446	220.170	110.885	-8191	255	
2611.606	1	1	0	0	0.1289	0.21276	0.20694	0.24228	0.056217	0.288	0.10962	0.28434	0.16475	0.080961	0.15234	0.30699	0.37018	0.11814	0.34069	0.28845	-2.8146	-2.225	-2.7104	-3.275	-2.1854	-3.0521	-2.9375	-2.4208	-3.1562	-2.2583	-2.85	-2.9688	-2.1646	-2.9583	-2.6833	-2.3854	418.234	307.805	276.794	86.247	314.622	404.653	312.468	373.241	138.459	316.684	112.610	127.132	399.665	141.069	270.083	349.407	0.0011791	0.00054485	0.00016547	1477.8	9.5795e-06	3.7928e-06	1468.9	409.16	1.3021e-05	4.3752e-06	465.94	151.57	131.68	44.602	4.5435e-06	55.196	0.0020106	0.00312	0.00087456	1512.2	3.0405e-05	3.5534e-05	1503	420.52	2.9554e-05	3.5125e-05	480.59	155.69	135.72	46.603	3.2901e-05	57.522	110.529	188.642	154.385	98.233	231.499	236.301	97.829	102.572	206.154	218.065	102.093	106.659	106.879	111.474	258.115	110.682	-8191	255	
