BOXY.EXE: ISS Imagent and Oximeter Data Acquisition Program Version 0.80
Ascii Record File

#ACQ INFORMATION
2  Detector Channels 
16  External MUX Channels 
1  Auxiliary Channels 
5000  Waveform (CCF) Frequency (Hz)
1  Waveforms Skipped 
30  Waveforms Averaged 
1  Cycles Averaged 
16  Acquisitions per Waveform 
10.0806  Updata Rate (Hz) 

#FILE INFORMATION
TRUE -- External MUX Channel results are PARSED.
FALSE -- AC DC and Phase are NOT grouped.
TRUE -- Companion Program Settings File CREATED.
FALSE -- AC data not excluded
FALSE -- DC data not excluded
FALSE -- Phase data not excluded
FALSE -- Auxillary Chn. data not excluded
Tab delimiters

#CALIBRATION STATE
TRUE -- Waveform Calibration Values APPLIED.


#AUX CALIBRATION VALUES
Val Type	aux-1	

Term	1.0000e+00	
Factor	0.0000e+00	


#WF CALIBRATION VALUES
A = Detector Channel
Val Type	A-AC1	A-AC2	A-AC3	A-AC4	A-AC5	A-AC6	A-AC7	A-AC8	A-AC9	A-AC10	A-AC11	A-AC12	A-AC13	A-AC14	A-AC15	A-AC16	A-DC1	A-DC2	A-DC3	A-DC4	A-DC5	A-DC6	A-DC7	A-DC8	A-DC9	A-DC10	A-DC11	A-DC12	A-DC13	A-DC14	A-DC15	A-DC16	A-Ph1	A-Ph2	A-Ph3	A-Ph4	A-Ph5	A-Ph6	A-Ph7	A-Ph8	A-Ph9	A-Ph10	A-Ph11	A-Ph12	A-Ph13	A-Ph14	A-Ph15	A-Ph16	

Term	0.00000e+00	0.00000e+00	0.00000e+00	0.00000e+00	0.00000e+00	0.00000e+00	0.00000e+00	0.00000e+00	0.00000e+00	0.00000e+00	0.00000e+00	0.00000e+00	0.00000e+00	0.00000e+00	0.00000e+00	0.00000e+00	0.00000e+00	0.00000e+00	0.00000e+00	0.00000e+00	0.00000e+00	0.00000e+00	0.00000e+00	0.00000e+00	0.00000e+00	0.00000e+00	0.00000e+00	0.00000e+00	0.00000e+00	0.00000e+00	0.00000e+00	0.00000e+00	0.00000e+00	0.00000e+00	0.00000e+00	0.00000e+00	0.00000e+00	0.00000e+00	0.00000e+00	0.00000e+00	0.00000e+00	0.00000e+00	0.00000e+00	0.00000e+00	0.00000e+00	0.00000e+00	0.00000e+00	0.00000e+00	
Factor	1.00000e+00	1.00000e+00	1.00000e+00	1.00000e+00	1.00000e+00	1.00000e+00	1.00000e+00	1.00000e+00	1.00000e+00	1.00000e+00	1.00000e+00	1.00000e+00	1.00000e+00	1.00000e+00	1.00000e+00	1.00000e+00	1.00000e+00	1.00000e+00	1.00000e+00	1.00000e+00	1.00000e+00	1.00000e+00	1.00000e+00	1.00000e+00	1.00000e+00	1.00000e+00	1.00000e+00	1.00000e+00	1.00000e+00	1.00000e+00	1.00000e+00	1.00000e+00	X	X	X	X	X	X	X	X	X	X	X	X	X	X	X	X	

B = Detector Channel
Val Type	B-AC1	B-AC2	B-AC3	B-AC4	B-AC5	B-AC6	B-AC7	B-AC8	B-AC9	B-AC10	B-AC11	B-AC12	B-AC13	B-AC14	B-AC15	B-AC16	B-DC1	B-DC2	B-DC3	B-DC4	B-DC5	B-DC6	B-DC7	B-DC8	B-DC9	B-DC10	B-DC11	B-DC12	B-DC13	B-DC14	B-DC15	B-DC16	B-Ph1	B-Ph2	B-Ph3	B-Ph4	B-Ph5	B-Ph6	B-Ph7	B-Ph8	B-Ph9	B-Ph10	B-Ph11	B-Ph12	B-Ph13	B-Ph14	B-Ph15	B-Ph16	

Term	0.00000e+00	0.00000e+00	0.00000e+00	0.00000e+00	0.00000e+00	0.00000e+00	0.00000e+00	0.00000e+00	0.00000e+00	0.00000e+00	0.00000e+00	0.00000e+00	0.00000e+00	0.00000e+00	0.00000e+00	0.00000e+00	0.00000e+00	0.00000e+00	0.00000e+00	0.00000e+00	0.00000e+00	0.00000e+00	0.00000e+00	0.00000e+00	0.00000e+00	0.00000e+00	0.00000e+00	0.00000e+00	0.00000e+00	0.00000e+00	0.00000e+00	0.00000e+00	-2.04106e+02	-1.47295e+02	-1.31471e+02	-1.83006e+02	-1.05308e+02	-9.56335e+01	-1.57489e+02	-1.62015e+02	-1.04563e+02	-3.96514e+01	-1.72066e+02	-1.71987e+02	-1.87133e+02	-1.76833e+02	-7.95936e+01	-1.54913e+02	
Factor	7.03256e-05	1.41041e-04	4.05673e-05	1.70326e-01	1.62816e-06	1.33254e-06	1.95207e-01	5.96007e-02	1.84989e-06	1.49910e-06	1.05898e-01	4.16366e-02	9.64820e-02	1.05399e-02	1.79118e-06	2.58797e-02	1.57653e-06	1.61043e-06	4.48186e-07	8.61403e-02	1.75392e-08	1.76000e-08	9.27146e-02	3.00841e-02	1.75714e-08	1.76740e-08	5.11745e-02	1.99295e-02	4.41448e-02	5.29322e-03	1.75939e-08	1.20619e-02	X	X	X	X	X	X	X	X	X	X	X	X	X	X	X	X	



#DISTANCE SETTINGS
A = Detector Channel
A-1	A-2	A-3	A-4	A-5	A-6	A-7	A-8	A-9	A-10	A-11	A-12	A-13	A-14	A-15	A-16	

2.5000e+00	3.0000e+00	2.5000e+00	3.0000e+00	2.0000e+00	3.0000e+00	1.5000e+00	3.0000e+00	3.0000e+00	3.0000e+00	3.0000e+00	3.0000e+00	3.0000e+00	3.0000e+00	1.5000e+00	3.0000e+00	

B = Detector Channel
B-1	B-2	B-3	B-4	B-5	B-6	B-7	B-8	B-9	B-10	B-11	B-12	B-13	B-14	B-15	B-16	

1.0000e+01	1.0000e+01	1.0000e+01	1.4400e+00	1.0000e+01	1.0000e+01	1.5100e+00	1.9400e+00	1.0000e+01	1.0000e+01	1.9900e+00	2.4900e+00	2.4100e+00	2.9000e+00	1.0000e+01	2.9800e+00	




#DATA BEGINS
time	group	step	mark	flag	A-AC1	A-AC2	A-AC3	A-AC4	A-AC5	A-AC6	A-AC7	A-AC8	A-AC9	A-AC10	A-AC11	A-AC12	A-AC13	A-AC14	A-AC15	A-AC16	A-DC1	A-DC2	A-DC3	A-DC4	A-DC5	A-DC6	A-DC7	A-DC8	A-DC9	A-DC10	A-DC11	A-DC12	A-DC13	A-DC14	A-DC15	A-DC16	A-Ph1	A-Ph2	A-Ph3	A-Ph4	A-Ph5	A-Ph6	A-Ph7	A-Ph8	A-Ph9	A-Ph10	A-Ph11	A-Ph12	A-Ph13	A-Ph14	A-Ph15	A-Ph16	B-AC1	B-AC2	B-AC3	B-AC4	B-AC5	B-AC6	B-AC7	B-AC8	B-AC9	B-AC10	B-AC11	B-AC12	B-AC13	B-AC14	B-AC15	B-AC16	B-DC1	B-DC2	B-DC3	B-DC4	B-DC5	B-DC6	B-DC7	B-DC8	B-DC9	B-DC10	B-DC11	B-DC12	B-DC13	B-DC14	B-DC15	B-DC16	B-Ph1	B-Ph2	B-Ph3	B-Ph4	B-Ph5	B-Ph6	B-Ph7	B-Ph8	B-Ph9	B-Ph10	B-Ph11	B-Ph12	B-Ph13	B-Ph14	B-Ph15	B-Ph16	aux-1	digaux	

1239.780	1	1	0	256	0.034954	0.33629	0.29281	0.20267	0.11814	0.18979	0.393	0.15466	0.041154	0.12519	0.35159	0.17121	0.13751	0.18993	0.17947	0.165	-1.9896	-2.0292	-2.4104	-2.5896	-1.9896	-2.1833	-2.3396	-2.3292	-2.5958	-2.2354	-2.4083	-2.2667	-2.1729	-2.2562	-2.0604	-2.1729	262.235	296.555	290.967	410.124	145.640	405.093	332.612	382.008	328.496	409.707	93.871	216.916	380.520	307.899	163.175	294.046	0.0018682	0.001475	0.00020533	806.79	1.3089e-05	1.6906e-05	1107.7	246.77	7.0978e-06	6.1161e-06	399.2	122.23	67.327	19.846	2.775e-05	50.499	0.0070129	0.0071039	0.0019599	1166.1	7.5069e-05	7.4995e-05	1490.4	372.5	7.5633e-05	7.6448e-05	606.76	202.5	245.38	41.637	7.2671e-05	96.629	85.868	150.297	209.842	78.453	89.760	137.473	78.332	83.206	377.830	201.518	82.283	87.600	88.901	92.633	240.926	91.716	-8191	255	
1239.901	1	1	0	0	0.037114	0.14189	0.15716	0.041664	0.16291	0.056432	0.083063	0.34096	0.13142	0.18799	0.27686	0.34421	0.094827	0.37756	0.12627	0.088752	-2.3271	-2.1667	-2.2562	-2.6083	-1.975	-2.4458	-2.3812	-2.2438	-2.3833	-2.125	-2.5187	-2.6958	-2.1604	-2.3417	-2.3625	-2.1208	407.580	74.233	268.024	330.165	233.201	291.419	347.194	348.414	381.885	231.739	392.185	345.188	379.412	411.784	261.920	323.405	0.0011882	0.0012502	0.00051647	796.56	1.8916e-05	1.3629e-06	1100.1	245.42	6.1109e-06	1.0742e-05	397.03	122.84	67.452	21.111	2.8042e-05	51.951	0.0063664	0.0064184	0.0017886	1130.1	7.1727e-05	7.4068e-05	1491.7	379.99	8.4784e-05	8.9211e-05	656.35	226.92	303.45	50.67	0.00010091	119.39	80.724	395.136	189.879	78.044	124.261	338.838	78.139	83.062	130.581	231.094	82.623	87.714	87.330	91.265	238.228	89.985	-8191	255	
1239.995	1	1	0	0	0.22867	0.30413	0.073472	0.26487	0.26767	0.15807	0.16625	0.090396	0.039107	0.12998	0.17174	0.079213	0.33781	0.28115	0.087818	0.26126	-2.2167	-2.2417	-2.0417	-2.5333	-2.0375	-2.55	-2.5292	-1.9958	-2.4521	-2.1521	-2.2375	-2.6292	-2.2042	-2.3854	-2.3667	-2.075	267.754	96.616	174.609	62.919	122.182	386.664	377.260	254.297	275.697	251.280	73.367	75.781	71.837	412.444	353.935	351.293	0.0023242	0.0010196	0.00041649	783.91	1.4881e-05	1.545e-05	1088.9	241.08	1.3523e-05	1.1702e-05	385.86	117.17	64.34	19.682	1.4283e-05	50.338	0.009173	0.0093714	0.0026249	1280.7	0.00010323	0.00010375	1615.6	411.93	0.000101	0.00010047	663.97	225.22	301.99	49.03	9.9079e-05	115.75	397.066	162.008	265.386	76.184	171.769	268.624	76.088	80.650	268.702	421.850	80.253	85.262	86.526	90.546	109.408	89.536	-8191	255	
1240.093	1	1	0	0	0.08753	0.25442	0.29303	0.30885	0.15689	0.12015	0.17155	0.082318	0.07084	0.19938	0.10564	0.19891	0.11013	0.057015	0.12239	0.1571	-2.0792	-2.2396	-2.025	-2.5563	-2.1604	-2.2583	-2.7	-2.0062	-2.3375	-2.1667	-2.2521	-2.8729	-2.0979	-2.4271	-2.4896	-1.9646	246.087	330.079	378.651	142.121	274.950	148.482	415.783	368.701	87.055	64.708	246.659	323.324	176.784	222.531	72.306	202.086	0.00098751	0.0015267	0.00033881	767.71	4.0027e-06	1.1536e-05	1058.7	235.23	5.3489e-06	2.6624e-05	384.48	122.07	64.391	22.191	5.4771e-05	56.38	0.008918	0.0090722	0.0025044	1235	9.4061e-05	9.2223e-05	1522.1	380.22	8.4905e-05	8.3442e-05	613.19	206.79	250.66	44.703	7.466e-05	103.69	88.125	414.484	99.606	75.932	149.898	64.797	75.878	80.602	248.891	272.195	80.533	84.754	85.166	91.057	248.291	89.572	-8191	255	
1240.188	1	1	0	0	0.15467	0.072508	0.038536	0.18014	0.38425	0.26147	0.23578	0.52565	0.18242	0.15966	0.053294	0.11021	0.12511	0.22843	0.053032	0.20385	-1.9375	-2.1208	-2.0396	-2.6292	-2.2229	-2.2625	-2.5917	-2.025	-2.4771	-2.3417	-2.0958	-2.5625	-2.0792	-2.1771	-2.4938	-2.0396	191.150	399.549	418.869	337.973	75.585	220.518	376.287	374.128	376.492	333.873	191.299	387.481	301.371	386.276	213.073	336.008	0.00093444	0.0012775	0.0003141	745.66	1.117e-05	2.144e-05	1032.9	233.93	2.4967e-05	1.8443e-05	388.51	128.38	68.271	24.633	1.7253e-05	60.389	0.0065232	0.0066268	0.0018435	1086.7	7.1684e-05	7.2567e-05	1401.8	355.71	7.5413e-05	7.8092e-05	609.74	215.93	268.58	49.931	8.6458e-05	117.35	125.557	314.258	116.861	76.205	194.242	142.320	76.020	80.781	101.442	279.724	80.435	85.668	86.599	90.001	260.956	89.016	-8191	255	
1240.284	1	1	0	0	0.098254	0.13445	0.26237	0.19567	0.11244	0.20743	0.21041	0.14234	0.30847	0.12925	0.081645	0.18219	0.038702	0.19503	0.12243	0.23456	-1.7167	-2.15	-1.9833	-2.6562	-2.2729	-2.2438	-2.5521	-2.0958	-2.1729	-2.2313	-2.2104	-2.8063	-2.35	-2.1979	-2.4021	-2.0354	194.380	394.590	289.946	406.143	79.426	355.606	370.849	402.344	297.777	181.812	348.870	144.253	168.215	93.486	331.929	337.847	0.0018785	0.00023427	0.00059055	734.7	1.5347e-05	1.504e-05	1021.9	231.34	1.6727e-05	9.4852e-06	377.67	121.55	65.473	22.335	3.6639e-05	53.451	0.0079356	0.0081528	0.0022838	1168.6	9.084e-05	9.235e-05	1498.5	387.61	9.4211e-05	9.5127e-05	644.44	223.83	289.86	49.333	9.0226e-05	111.1	78.880	181.707	74.773	76.052	106.517	214.421	76.664	81.860	181.417	148.093	81.344	87.440	87.143	92.847	363.543	91.758	-8191	255	
1240.380	1	1	0	0	0.025293	0.15074	0.09319	0.091004	0.25185	0.2974	0.22406	0.045432	0.044405	0.17333	0.26183	0.20882	0.095434	0.12448	0.24283	0.34047	-1.8604	-2.2562	-2.0771	-2.6354	-2.3187	-2.3167	-2.7125	-2.1583	-1.9854	-2.3542	-2.1083	-2.6208	-2.5958	-2.1292	-2.7062	-2.2	121.893	149.979	184.732	329.567	130.541	341.577	320.074	338.910	376.439	224.055	339.395	215.492	274.392	146.126	142.230	349.571	0.0017397	0.001517	0.00018535	741.17	1.1459e-05	8.6752e-06	1011.2	219.1	2.0564e-05	1.1425e-05	349.34	104.27	57.166	17.219	1.7437e-05	43.264	0.0078239	0.0078283	0.0021474	1134.8	8.212e-05	8.1929e-05	1421.1	349.16	7.7478e-05	7.6165e-05	551.5	179.88	219.13	36.46	6.2719e-05	82.789	102.422	206.815	240.575	78.634	349.206	274.306	78.108	83.290	136.138	300.595	82.551	87.604	89.329	92.877	387.957	92.068	-8191	255	
1240.501	1	1	0	0	0.17713	0.26332	0.14962	0.11748	0.11544	0.14552	0.42823	0.23914	0.096647	0.10182	0.32748	0.18774	0.047809	0.19889	0.071004	0.20671	-1.7917	-2.1917	-2.0292	-2.5917	-2.4188	-2.1229	-2.7417	-2.1896	-2.4354	-2.4042	-2.0229	-2.2562	-2.4042	-2.0062	-2.4708	-2.3312	349.582	112.509	324.738	420.410	281.752	324.967	380.306	338.784	266.856	92.879	208.929	369.765	336.699	404.885	115.195	94.453	0.0015968	0.0011383	0.00029969	741.53	1.7681e-05	8.7325e-06	1006.5	218.04	1.7029e-05	1.2258e-05	348.16	104.76	56.593	17.831	2.0603e-05	45.658	0.0053751	0.0053969	0.0014765	1012.5	5.7112e-05	5.6774e-05	1288.9	308.83	5.5532e-05	5.526e-05	496.09	161.29	183.7	33.509	5.3278e-05	79.88	136.238	231.508	161.117	77.113	80.937	166.880	75.732	80.430	163.846	374.235	80.208	85.632	85.651	90.905	123.796	88.891	-8191	255	
1240.597	1	1	0	0	0.11486	0.26756	0.058909	0.16254	0.29879	0.061937	0.10972	0.2073	0.29957	0.14107	0.10678	0.21389	0.21782	0.04627	0.24598	0.20922	-1.5667	-2.5146	-2.0146	-2.4437	-2.5792	-2.1312	-2.5125	-2.2938	-2.0833	-2.4313	-2.2146	-2.1875	-2.2792	-2.0687	-2.2354	-2.3583	108.573	299.592	154.388	393.217	140.071	93.590	340.898	372.449	359.629	272.675	312.532	290.244	103.256	200.163	99.919	84.366	0.0014099	0.0004714	7.6062e-05	742.16	5.7702e-06	6.5994e-06	1023.3	221.32	8.6438e-06	7.7574e-06	370.01	114.05	60.032	21.033	5.6526e-06	54.079	0.0047776	0.0047884	0.0013099	972.28	4.7782e-05	4.5729e-05	1231.3	287.38	3.9199e-05	3.7855e-05	463.83	149.36	140.1	30.874	3.4116e-05	74.305	420.530	365.351	169.312	75.796	206.116	232.672	75.449	80.548	193.777	331.109	79.927	85.001	85.766	90.329	202.883	89.302	-8191	255	
1240.693	1	1	0	0	0.27796	0.13952	0.15091	0.40986	0.1337	0.10379	0.1166	0.12822	0.12918	0.027645	0.22169	0.05436	0.33638	0.070339	0.19046	0.095315	-1.5792	-2.4708	-2.1042	-2.4854	-2.3729	-2.0208	-2.4646	-2.4458	-2.0604	-2.4833	-2.3583	-2.4542	-2.3521	-1.9729	-2.3979	-2.4	254.810	369.315	347.582	169.519	345.530	390.643	220.406	357.692	82.738	115.595	383.394	420.890	72.507	314.405	175.795	377.724	0.0013202	0.0012847	0.00025439	737.35	2.0341e-05	1.2263e-05	1038.2	229.78	3.4297e-06	1.2667e-05	389.38	125.77	65.592	25.41	7.132e-06	62.256	0.0030161	0.0030477	0.00083871	888.85	3.2674e-05	3.3006e-05	1192.6	283.42	3.4441e-05	3.551e-05	482.53	163.27	153.77	36.681	4.0211e-05	86.876	403.615	356.493	209.266	76.196	161.514	167.068	75.643	80.654	136.229	206.951	79.853	84.901	86.160	90.160	399.816	88.750	-8191	255	
1240.789	1	1	0	0	0.29388	0.12246	0.036691	0.089152	0.040195	0.12981	0.23322	0.1416	0.32	0.27541	0.20434	0.35518	0.1243	0.070515	0.08284	0.044234	-1.6313	-2.4167	-2.2583	-2.2146	-2.3312	-1.9896	-2.4125	-2.425	-2.1083	-2.3167	-2.1542	-2.0729	-2.5062	-2.1958	-2.4208	-2.4854	92.173	419.590	124.659	392.405	386.453	183.993	362.472	361.380	413.382	247.296	341.480	73.929	401.840	420.369	315.204	141.178	0.00098148	0.00024568	0.00023449	729.89	1.0851e-05	3.2352e-06	1024	231.91	2.1613e-05	7.7689e-06	390.71	129.08	67.613	26.747	3.2606e-05	64.496	0.0037316	0.003782	0.0010471	920.05	4.0493e-05	4.052e-05	1219.5	297.4	4.1568e-05	4.2758e-05	506.32	174.56	174.34	40.059	4.7224e-05	93.151	87.353	76.810	416.570	75.741	249.548	363.912	75.618	80.251	255.860	149.747	80.051	85.229	86.386	90.177	244.170	88.900	-8191	255	
1240.885	1	1	0	0	0.16615	0.30558	0.22523	0.12161	0.18268	0.088078	0.1516	0.067843	0.40478	0.22108	0.42233	0.23476	0.33846	0.18757	0.12979	0.20838	-1.5875	-2.4125	-1.9146	-2.3	-2.7875	-2.0646	-2.2875	-2.3833	-1.9792	-2.6396	-2.2208	-2.0375	-2.5062	-1.9729	-2.3208	-2.5333	191.669	302.999	322.499	221.983	315.699	219.115	390.276	414.919	223.154	105.882	401.099	70.543	395.320	387.865	182.900	342.736	0.0011016	0.00055262	0.0004103	740.81	2.7423e-05	8.5467e-06	1040.7	235.19	2.7119e-05	6.9087e-06	389.61	125.36	66.351	24.501	9.4501e-06	59.405	0.0042624	0.0043006	0.0011857	954.23	4.5155e-05	4.4758e-05	1252.4	304.58	4.3712e-05	4.3862e-05	505.53	169.74	168.63	37.455	4.5461e-05	87.516	419.321	149.013	109.080	78.879	146.876	91.811	78.868	83.505	131.999	68.887	81.073	85.933	85.880	89.779	119.567	89.218	-8191	255	
1240.980	1	1	0	0	0.10875	0.29848	0.13603	0.20071	0.20513	0.17223	0.25745	0.17627	0.1475	0.075534	0.26794	0.32201	0.10748	0.19861	0.28084	0.25438	-1.6187	-2.4146	-2.1188	-2.1354	-2.7542	-2.0771	-2.4313	-2.5979	-2.0625	-2.3375	-2.3521	-2.0521	-2.4688	-2.1937	-1.9292	-2.3917	285.718	389.940	342.314	379.405	407.166	175.938	413.143	414.076	389.397	382.444	180.502	324.091	307.395	83.794	356.429	345.228	0.0005135	0.00096178	6.4987e-05	752.54	9.8803e-06	1.3821e-05	1038.7	230.08	1.6774e-05	6.5678e-06	381.45	120.41	64.476	23.73	1.0624e-05	56.981	0.0042554	0.0044247	0.0012655	988.91	5.2016e-05	5.3382e-05	1305.1	320.63	5.5651e-05	5.6825e-05	536.77	180.53	200.83	40.631	5.9705e-05	95.639	87.874	207.207	237.135	77.229	424.736	110.637	78.594	83.411	382.599	347.779	82.854	88.048	87.955	92.526	226.563	88.348	-8191	255	
1241.076	1	1	0	0	0.073926	0.14974	0.10068	0.22589	0.12582	0.060304	0.16166	0.28528	0.15876	0.067651	0.1037	0.043267	0.20362	0.12564	0.072047	0.35471	-1.55	-2.2292	-2.1667	-2.1521	-2.325	-1.9792	-2.3042	-2.4979	-2.1417	-2.3812	-2.35	-1.9917	-2.6583	-1.9229	-2.1625	-2.6167	160.870	77.740	74.848	105.553	192.765	197.409	398.163	81.515	115.662	102.358	246.029	203.599	379.333	421.369	259.852	135.796	0.001173	0.00083131	0.0006448	740.45	1.1826e-05	1.3218e-05	1020.2	230	7.4244e-06	1.4496e-05	377.07	120.5	63.242	23.725	7.991e-06	57.818	0.0055141	0.0057016	0.001589	1036.4	6.1529e-05	6.1621e-05	1325.6	328.35	6.0241e-05	6.088e-05	544.73	185.64	211.84	42.305	6.46e-05	99.672	63.244	342.938	212.704	75.713	397.705	374.008	75.868	80.514	152.808	346.854	80.450	85.130	84.721	90.128	87.486	89.222	-8191	255	
1241.174	1	1	0	0	0.030601	0.23229	0.32549	0.15135	0.16223	0.19491	0.18961	0.067052	0.11028	0.19402	0.27964	0.039778	0.13447	0.023899	0.16111	0.14083	-1.8083	-2.1	-2.4	-2.2146	-2.4292	-2.1771	-2.3229	-2.5479	-2.2979	-2.2667	-2.4313	-2.15	-2.7188	-2.4583	-2.0938	-2.7396	243.848	270.438	353.029	363.624	194.370	298.865	407.042	322.741	196.831	301.633	401.378	307.894	88.528	258.462	164.468	78.329	0.0013633	0.00071	0.00052925	731.79	1.8531e-05	1.5589e-05	1002.7	225.82	2.3659e-05	1.0473e-05	370.9	117.7	63.191	22.987	1.9027e-05	56.272	0.0060819	0.0063352	0.0017987	1077.1	7.3831e-05	7.572e-05	1393.7	354.29	7.8843e-05	8.0067e-05	591.29	203.03	252.02	46.241	7.8374e-05	107.48	90.945	285.293	118.896	76.845	96.508	211.036	78.600	83.206	348.316	240.485	82.641	87.458	88.439	92.293	387.700	91.636	-8191	255	
1241.293	1	1	0	0	0.22815	0.051085	0.11315	0.096629	0.26083	0.39499	0.37472	0.082997	0.31339	0.2247	0.20266	0.092598	0.18985	0.26488	0.10421	0.24123	-1.825	-2.2042	-2.4042	-2.0875	-2.3042	-2.0979	-2.2208	-2.5708	-2.0375	-2.2125	-2.5208	-2.0354	-2.4375	-2.3979	-1.8937	-2.5792	280.908	134.386	395.903	116.720	179.705	142.781	413.770	384.914	397.137	396.128	358.151	365.761	345.710	195.662	355.086	394.798	0.0011919	0.00043476	0.00048594	714.32	3.246e-05	2.4938e-05	973.5	218.28	9.3735e-06	2.06e-05	364.92	116.21	61.522	22.792	1.3863e-05	56.07	0.0072114	0.0074881	0.0021241	1121.6	8.7088e-05	8.8999e-05	1437.9	370.87	9.129e-05	9.1472e-05	614.32	212.34	273.72	48.41	8.4692e-05	109.65	125.301	245.986	348.937	75.726	232.755	200.098	75.683	80.554	67.072	414.781	79.896	84.740	85.340	89.802	212.658	89.399	-8191	255	
1241.389	1	1	0	0	0.14175	0.14227	0.17935	0.29672	0.21366	0.071283	0.28071	0.14095	0.073649	0.14174	0.17545	0.20798	0.054953	0.059962	0.092291	0.11814	-1.8417	-2.2042	-2.4958	-1.975	-2.4375	-2.5729	-2.0333	-2.4	-2.225	-2.2396	-2.5417	-1.9333	-2.3146	-2.5125	-2.1521	-2.4938	175.818	219.263	416.065	349.841	149.366	118.577	419.756	237.172	268.568	175.470	95.030	334.325	242.235	342.802	261.485	382.206	0.0010417	0.00075028	0.00050779	714.52	8.108e-06	4.459e-06	976.64	220	1.5214e-05	4.3597e-06	364.29	115.99	61.645	22.698	7.8765e-06	55.061	0.0072534	0.0071963	0.0019456	1066.7	7.2954e-05	7.1491e-05	1326.3	331.88	6.6207e-05	6.4899e-05	536.27	181.16	206.18	40.066	5.9203e-05	92.52	402.815	215.874	222.321	77.404	393.967	414.394	78.931	83.138	162.503	382.405	83.246	88.123	87.518	92.549	74.893	91.017	-8191	255	
1241.460	1	1	0	0	0.27958	0.12486	0.15067	0.38517	0.12359	0.099907	0.36259	0.24149	0.21926	0.11154	0.039239	0.14768	0.17216	0.10367	0.072584	0.21179	-1.7437	-2.1396	-2.4271	-2.2021	-2.2646	-2.5167	-2.1208	-2.5021	-2.3	-2.2938	-2.5563	-2.0646	-2.4729	-2.6479	-1.9062	-2.675	277.159	398.394	74.801	395.954	146.890	160.171	119.839	367.641	138.847	343.025	293.432	294.330	240.585	65.638	204.519	352.802	0.0018652	0.0011081	0.00020938	699.39	1.7559e-05	2.366e-06	971.88	218.39	1.3726e-05	7.58e-06	361.17	114.61	61.894	22.262	1.0286e-05	55.27	0.0052972	0.0054112	0.0014989	978.17	5.8075e-05	5.7642e-05	1250.5	307.29	5.4047e-05	5.3294e-05	500.71	167.77	178.66	36.588	4.8569e-05	84.723	127.538	267.231	236.836	78.662	236.395	342.900	78.485	83.332	425.157	297.326	83.060	87.917	88.034	92.565	211.790	91.300	-8191	255	
