BOXY.EXE: ISS Imagent and Oximeter Data Acquisition Program Version 0.80
Ascii Record File

#ACQ INFORMATION
2  Detector Channels 
16  External MUX Channels 
1  Auxiliary Channels 
5000  Waveform (CCF) Frequency (Hz)
1  Waveforms Skipped 
30  Waveforms Averaged 
1  Cycles Averaged 
16  Acquisitions per Waveform 
10.0806  Updata Rate (Hz) 

#FILE INFORMATION
TRUE -- External MUX Channel results are PARSED.
FALSE -- AC DC and Phase are NOT grouped.
TRUE -- Companion Program Settings File CREATED.
FALSE -- AC data not excluded
FALSE -- DC data not excluded
FALSE -- Phase data not excluded
FALSE -- Auxillary Chn. data not excluded
Tab delimiters

#CALIBRATION STATE
TRUE -- Waveform Calibration Values APPLIED.


#AUX CALIBRATION VALUES
Val Type	aux-1	

Term	1.0000e+00	
Factor	0.0000e+00	


#WF CALIBRATION VALUES
A = Detector Channel
Val Type	A-AC1	A-AC2	A-AC3	A-AC4	A-AC5	A-AC6	A-AC7	A-AC8	A-AC9	A-AC10	A-AC11	A-AC12	A-AC13	A-AC14	A-AC15	A-AC16	A-DC1	A-DC2	A-DC3	A-DC4	A-DC5	A-DC6	A-DC7	A-DC8	A-DC9	A-DC10	A-DC11	A-DC12	A-DC13	A-DC14	A-DC15	A-DC16	A-Ph1	A-Ph2	A-Ph3	A-Ph4	A-Ph5	A-Ph6	A-Ph7	A-Ph8	A-Ph9	A-Ph10	A-Ph11	A-Ph12	A-Ph13	A-Ph14	A-Ph15	A-Ph16	

Term	0.00000e+00	0.00000e+00	0.00000e+00	0.00000e+00	0.00000e+00	0.00000e+00	0.00000e+00	0.00000e+00	0.00000e+00	0.00000e+00	0.00000e+00	0.00000e+00	0.00000e+00	0.00000e+00	0.00000e+00	0.00000e+00	0.00000e+00	0.00000e+00	0.00000e+00	0.00000e+00	0.00000e+00	0.00000e+00	0.00000e+00	0.00000e+00	0.00000e+00	0.00000e+00	0.00000e+00	0.00000e+00	0.00000e+00	0.00000e+00	0.00000e+00	0.00000e+00	0.00000e+00	0.00000e+00	0.00000e+00	0.00000e+00	0.00000e+00	0.00000e+00	0.00000e+00	0.00000e+00	0.00000e+00	0.00000e+00	0.00000e+00	0.00000e+00	0.00000e+00	0.00000e+00	0.00000e+00	0.00000e+00	
Factor	1.00000e+00	1.00000e+00	1.00000e+00	1.00000e+00	1.00000e+00	1.00000e+00	1.00000e+00	1.00000e+00	1.00000e+00	1.00000e+00	1.00000e+00	1.00000e+00	1.00000e+00	1.00000e+00	1.00000e+00	1.00000e+00	1.00000e+00	1.00000e+00	1.00000e+00	1.00000e+00	1.00000e+00	1.00000e+00	1.00000e+00	1.00000e+00	1.00000e+00	1.00000e+00	1.00000e+00	1.00000e+00	1.00000e+00	1.00000e+00	1.00000e+00	1.00000e+00	X	X	X	X	X	X	X	X	X	X	X	X	X	X	X	X	

B = Detector Channel
Val Type	B-AC1	B-AC2	B-AC3	B-AC4	B-AC5	B-AC6	B-AC7	B-AC8	B-AC9	B-AC10	B-AC11	B-AC12	B-AC13	B-AC14	B-AC15	B-AC16	B-DC1	B-DC2	B-DC3	B-DC4	B-DC5	B-DC6	B-DC7	B-DC8	B-DC9	B-DC10	B-DC11	B-DC12	B-DC13	B-DC14	B-DC15	B-DC16	B-Ph1	B-Ph2	B-Ph3	B-Ph4	B-Ph5	B-Ph6	B-Ph7	B-Ph8	B-Ph9	B-Ph10	B-Ph11	B-Ph12	B-Ph13	B-Ph14	B-Ph15	B-Ph16	

Term	0.00000e+00	0.00000e+00	0.00000e+00	0.00000e+00	0.00000e+00	0.00000e+00	0.00000e+00	0.00000e+00	0.00000e+00	0.00000e+00	0.00000e+00	0.00000e+00	0.00000e+00	0.00000e+00	0.00000e+00	0.00000e+00	0.00000e+00	0.00000e+00	0.00000e+00	0.00000e+00	0.00000e+00	0.00000e+00	0.00000e+00	0.00000e+00	0.00000e+00	0.00000e+00	0.00000e+00	0.00000e+00	0.00000e+00	0.00000e+00	0.00000e+00	0.00000e+00	-2.04106e+02	-1.47295e+02	-1.31471e+02	-1.83006e+02	-1.05308e+02	-9.56335e+01	-1.57489e+02	-1.62015e+02	-1.04563e+02	-3.96514e+01	-1.72066e+02	-1.71987e+02	-1.87133e+02	-1.76833e+02	-7.95936e+01	-1.54913e+02	
Factor	7.03256e-05	1.41041e-04	4.05673e-05	1.70326e-01	1.62816e-06	1.33254e-06	1.95207e-01	5.96007e-02	1.84989e-06	1.49910e-06	1.05898e-01	4.16366e-02	9.64820e-02	1.05399e-02	1.79118e-06	2.58797e-02	1.57653e-06	1.61043e-06	4.48186e-07	8.61403e-02	1.75392e-08	1.76000e-08	9.27146e-02	3.00841e-02	1.75714e-08	1.76740e-08	5.11745e-02	1.99295e-02	4.41448e-02	5.29322e-03	1.75939e-08	1.20619e-02	X	X	X	X	X	X	X	X	X	X	X	X	X	X	X	X	



#DISTANCE SETTINGS
A = Detector Channel
A-1	A-2	A-3	A-4	A-5	A-6	A-7	A-8	A-9	A-10	A-11	A-12	A-13	A-14	A-15	A-16	

2.5000e+00	3.0000e+00	2.5000e+00	3.0000e+00	2.0000e+00	3.0000e+00	1.5000e+00	3.0000e+00	3.0000e+00	3.0000e+00	3.0000e+00	3.0000e+00	3.0000e+00	3.0000e+00	1.5000e+00	3.0000e+00	

B = Detector Channel
B-1	B-2	B-3	B-4	B-5	B-6	B-7	B-8	B-9	B-10	B-11	B-12	B-13	B-14	B-15	B-16	

1.0000e+01	1.0000e+01	1.0000e+01	1.4400e+00	1.0000e+01	1.0000e+01	1.5100e+00	1.9400e+00	1.0000e+01	1.0000e+01	1.9900e+00	2.4900e+00	2.4100e+00	2.9000e+00	1.0000e+01	2.9800e+00	




#DATA BEGINS
time	group	step	mark	flag	A-AC1	A-AC2	A-AC3	A-AC4	A-AC5	A-AC6	A-AC7	A-AC8	A-AC9	A-AC10	A-AC11	A-AC12	A-AC13	A-AC14	A-AC15	A-AC16	A-DC1	A-DC2	A-DC3	A-DC4	A-DC5	A-DC6	A-DC7	A-DC8	A-DC9	A-DC10	A-DC11	A-DC12	A-DC13	A-DC14	A-DC15	A-DC16	A-Ph1	A-Ph2	A-Ph3	A-Ph4	A-Ph5	A-Ph6	A-Ph7	A-Ph8	A-Ph9	A-Ph10	A-Ph11	A-Ph12	A-Ph13	A-Ph14	A-Ph15	A-Ph16	B-AC1	B-AC2	B-AC3	B-AC4	B-AC5	B-AC6	B-AC7	B-AC8	B-AC9	B-AC10	B-AC11	B-AC12	B-AC13	B-AC14	B-AC15	B-AC16	B-DC1	B-DC2	B-DC3	B-DC4	B-DC5	B-DC6	B-DC7	B-DC8	B-DC9	B-DC10	B-DC11	B-DC12	B-DC13	B-DC14	B-DC15	B-DC16	B-Ph1	B-Ph2	B-Ph3	B-Ph4	B-Ph5	B-Ph6	B-Ph7	B-Ph8	B-Ph9	B-Ph10	B-Ph11	B-Ph12	B-Ph13	B-Ph14	B-Ph15	B-Ph16	aux-1	digaux	

1269.384	1	1	0	256	0.13108	0.23206	0.17037	0.12253	0.22582	0.23788	0.059657	0.32271	0.17383	0.33434	0.1701	0.17664	0.23683	0.21277	0.18604	0.20851	-1.9583	-2.3125	-2.4583	-2.2625	-2.1813	-2.4062	-2.2375	-2.5083	-2.4271	-2.2938	-2.5917	-2.0083	-2.5542	-2.6229	-2.0438	-2.6646	219.036	185.810	105.045	380.930	386.613	383.975	72.181	360.119	173.828	88.106	280.167	72.138	422.114	153.687	349.778	384.175	0.0019757	0.0014978	0.00039688	621.42	2.9848e-05	1.3798e-05	887.52	192.51	5.5837e-05	1.706e-05	340.73	129.55	64.719	24.4	1.7859e-05	59.389	0.016694	0.017071	0.0047456	1531.2	0.00018657	0.00018778	1871	512.45	0.00018885	0.00019044	889.42	340.9	533.74	81.317	0.00018933	187.22	412.725	193.621	404.148	78.997	100.361	286.287	79.114	84.523	67.374	322.187	83.905	88.219	90.762	93.074	266.824	93.105	-8191	255	
1269.456	1	1	0	0	0.13893	0.041359	0.11787	0.1419	0.14825	0.11629	0.11927	0.057758	0.30757	0.24489	0.24264	0.1561	0.053672	0.41586	0.15223	0.21376	-1.8854	-2.3375	-2.7583	-2.2208	-2.4792	-2.4437	-2.3167	-2.4938	-2.475	-2.3563	-2.7542	-2.3979	-2.1521	-2.6063	-2.3187	-2.5417	206.727	172.121	137.395	288.184	213.776	91.567	390.297	283.010	366.822	294.663	316.417	285.981	372.436	373.680	161.087	90.761	0.0015617	0.0037211	0.00054488	623.16	1.5366e-05	7.3391e-06	885.65	189.27	4.9052e-05	3.9587e-05	339.88	126.96	64.74	23.484	4.0063e-05	58.174	0.016982	0.017315	0.0048191	1552.9	0.00018969	0.00019125	1894.6	517	0.00019233	0.00019426	897.68	343.24	543.43	81.756	0.00019412	188.81	99.939	388.185	178.462	79.207	103.057	240.989	79.030	84.406	168.386	97.656	84.080	88.810	90.153	93.811	103.391	92.470	-8191	255	
1269.552	1	1	0	0	0.34722	0.12179	0.11517	0.072445	0.26805	0.082014	0.15741	0.1297	0.13355	0.17712	0.088447	0.3303	0.10177	0.045516	0.094123	0.063933	-2.0229	-2.225	-2.625	-2.3833	-2.3187	-2.9292	-2.3271	-2.6104	-2.2229	-1.9312	-2.7479	-2.2729	-2.2208	-2.6354	-2.275	-2.4188	261.515	92.111	297.921	141.432	394.227	299.211	98.335	307.321	351.194	211.454	342.387	387.435	244.164	181.554	391.940	262.770	0.0014943	0.0019667	0.00075638	628.5	2.3968e-05	3.3034e-06	899.12	187.67	3.2319e-05	1.3779e-05	337.91	122.4	60.985	22.487	2.4259e-05	56.261	0.017395	0.017639	0.0048952	1566.2	0.00019037	0.00019016	1889.6	510.79	0.00018855	0.00018895	878.05	332.48	522.47	78.084	0.00018467	180.03	414.561	314.379	147.095	78.703	76.684	382.125	78.179	81.668	201.027	77.311	81.605	86.427	88.930	91.611	79.926	90.331	-8191	255	
1269.671	1	1	0	0	0.05054	0.3146	0.0081988	0.12981	0.064696	0.01766	0.097754	0.35505	0.035869	0.12638	0.13584	0.15762	0.083108	0.15968	0.123	0.12347	-2.0146	-2.0062	-2.5979	-2.2229	-2.3833	-2.5646	-2.3187	-2.3438	-2.3292	-2.0229	-2.5854	-2.4375	-2.2646	-2.65	-1.9583	-2.3312	285.162	236.125	294.770	380.473	344.757	312.689	91.640	64.690	151.297	396.400	302.056	280.190	339.694	355.398	416.862	334.503	0.00040911	0.0025833	0.00046317	611.8	2.6882e-05	1.8195e-05	870.85	183.27	1.229e-05	2.9437e-05	330.21	120.31	59.553	21.519	3.4179e-05	54.924	0.016294	0.016444	0.0045243	1469.3	0.00017234	0.00017141	1771	474.05	0.00017172	0.00017317	828.61	313.55	486.39	73.202	0.00017216	170.21	275.949	139.581	106.631	76.233	186.380	87.381	76.013	80.931	71.558	260.795	81.171	86.499	87.333	91.380	177.853	90.190	-8191	255	
1269.767	1	1	0	0	0.11048	0.11562	0.18521	0.24806	0.16714	0.37423	0.44015	0.2223	0.17544	0.16444	0.256	0.15332	0.22048	0.26223	0.18878	0.20646	-2.0958	-2.2188	-2.5479	-2.3125	-2.05	-2.5333	-2.2854	-2.4729	-2.6792	-1.9771	-2.2833	-2.3646	-1.9229	-2.5062	-2.2021	-2.1771	216.867	202.313	70.634	389.961	296.365	183.187	341.454	399.132	183.920	185.727	119.210	214.095	399.496	372.972	288.951	406.471	0.00059442	0.0028483	0.00068018	612.31	1.2067e-05	2.6277e-05	885.19	184.18	2.6008e-05	2.5626e-05	331.5	117.43	57.928	20.61	1.6209e-05	52.331	0.015348	0.015679	0.0043653	1454.4	0.00017101	0.00017259	1792.9	478.46	0.00017317	0.00017414	827.7	309.55	480.86	71.71	0.00016993	165.92	397.527	363.321	166.415	76.614	66.927	67.739	77.444	83.039	123.784	277.085	81.904	86.074	86.121	90.652	220.903	90.277	-8191	255	
1269.863	1	1	0	0	0.013706	0.20339	0.0054249	0.19708	0.16118	0.10802	0.12141	0.2332	0.13901	0.16883	0.22649	0.20956	0.077136	0.092796	0.037248	0.056073	-1.8625	-2.0396	-2.0979	-2.5833	-2.1625	-2.5563	-2.1604	-2.2188	-2.4458	-2.3646	-2.5042	-2.5	-2.05	-2.4021	-2.0375	-2.1479	90.811	254.338	318.107	119.060	344.984	332.652	404.201	295.005	409.487	143.048	126.921	108.996	335.097	100.983	251.356	227.554	0.0017387	0.0013321	0.00012645	627.98	1.651e-05	2.3247e-05	886.43	180.8	3.1444e-05	2.9321e-05	324	113.97	54.576	19.508	2.3773e-05	50.071	0.01507	0.015315	0.0042487	1438.4	0.00016477	0.00016502	1753.4	459.84	0.00016238	0.00016298	787.11	290.84	444.46	66.639	0.00015577	154.03	112.091	171.009	123.134	75.983	91.604	135.428	75.935	81.045	375.688	200.025	80.800	86.075	85.573	91.139	331.443	90.862	-8191	255	
1269.959	1	1	0	0	0.24816	0.088298	0.18713	0.046977	0.209	0.11623	0.146	0.037119	0.22607	0.25739	0.28675	0.22194	0.16172	0.16351	0.0087463	0.22455	-2.0479	-2.0812	-2.2438	-2.3875	-2.1083	-2.4354	-2.2771	-2.1292	-2.5583	-2.1917	-2.5167	-2.5458	-1.8146	-2.3646	-2.275	-2.2042	188.397	276.556	134.725	75.050	134.259	385.128	351.001	81.650	77.883	143.175	390.994	267.744	257.086	73.760	381.073	91.703	0.0016258	0.0013062	0.00014402	619.57	2.7092e-05	2.1825e-05	884.41	178.9	1.6299e-05	2.8425e-05	320.15	110.78	55.91	19.067	1.5037e-05	49.02	0.013728	0.013944	0.0038508	1348.1	0.00014689	0.00014621	1642.5	420.49	0.00014028	0.0001404	714.58	263.11	388.8	59.598	0.00013496	139.05	131.892	72.704	117.588	75.735	101.913	189.905	75.887	81.198	152.723	200.882	80.680	85.696	84.804	91.635	402.719	90.454	-8191	255	
1270.055	1	1	0	0	0.17315	0.19399	0.074673	0.092347	0.14245	0.1249	0.12594	0.20319	0.22117	0.11989	0.20471	0.15605	0.32983	0.31826	0.057985	0.22746	-2.0979	-2.2292	-2.3667	-2.5083	-1.8896	-2.2146	-2.4146	-2.2021	-2.5146	-2.3521	-2.2646	-2.5125	-1.9979	-2.5563	-2.3312	-1.8625	116.175	335.463	266.379	137.781	64.291	131.192	290.625	353.716	275.711	385.758	137.448	368.975	338.199	423.361	213.245	86.076	0.00096474	0.002216	0.0006408	621.52	1.3421e-05	2.2483e-05	892.29	179.34	1.3886e-05	3.9566e-05	316.09	110.41	54.784	18.816	4.056e-05	50.003	0.012006	0.012288	0.0034192	1269.7	0.00013345	0.00013485	1591.2	407.03	0.00013483	0.00013603	704.98	260.46	386.34	59.564	0.00013528	139.95	103.060	89.294	106.051	75.677	351.407	283.167	76.311	81.354	155.834	334.381	83.502	88.568	89.267	93.308	100.475	93.022	-8191	255	
1270.152	1	1	0	0	0.12132	0.22754	0.20745	0.028239	0.13713	0.092244	0.3642	0.19585	0.083096	0.2974	0.10721	0.20245	0.066963	0.054792	0.019879	0.074375	-2.0667	-2.1562	-2.1063	-2.4229	-2.0917	-2.3083	-2.4771	-1.9813	-2.5062	-2.2938	-2.2229	-2.6354	-2.0167	-2.3979	-2.5479	-2.2521	285.188	110.223	364.335	414.903	120.300	138.587	79.089	364.733	324.060	419.036	101.433	410.891	231.726	256.730	251.136	81.713	0.0010863	0.00017228	0.00065041	615.56	1.6932e-05	1.4661e-05	884.31	178.35	4.8534e-05	2.0533e-05	319.18	112.12	55.198	19.778	5.9314e-06	51.211	0.012125	0.012443	0.0034612	1278.6	0.00013665	0.00013849	1609.3	414.08	0.00013951	0.00014104	722.17	268.09	398.92	61.438	0.00013911	144.26	422.421	170.658	237.662	78.329	314.195	120.535	78.398	83.973	196.628	206.889	83.506	88.479	88.684	93.122	94.784	89.566	-8191	255	
1270.248	1	1	0	0	0.24621	0.23934	0.20674	0.11163	0.11384	0.1091	0.25331	0.16974	0.07824	0.045377	0.09334	0.22431	0.11991	0.18129	0.15824	0.16402	-1.9542	-2.3771	-2.1875	-2.7125	-2.0312	-2.2646	-2.6229	-2.125	-2.5542	-2.2896	-2.1771	-2.5187	-2.0583	-2.3625	-2.5646	-1.9771	147.838	95.846	97.174	101.249	385.206	183.144	330.482	412.227	280.814	139.201	142.638	386.182	75.626	164.987	188.745	107.116	0.0017478	0.00065346	0.0010366	608.54	2.4986e-05	2.7956e-05	873.26	178.63	2.0534e-05	1.8123e-05	324	115.99	57.625	20.574	4.9768e-05	53.045	0.012523	0.012753	0.0035344	1278.3	0.00013781	0.00013871	1593.4	412.2	0.00013846	0.00013988	720.45	270.07	399.67	62.203	0.00013919	145.92	91.563	309.919	170.398	75.541	258.245	135.564	75.895	81.227	373.133	254.415	81.100	85.914	86.073	90.937	248.475	90.729	-8191	255	
1270.368	1	1	0	0	0.11704	0.13235	0.083697	0.098399	0.089817	0.20958	0.068802	0.20668	0.13182	0.33533	0.049859	0.18941	0.26356	0.22375	0.27284	0.25189	-1.9021	-2.2229	-1.8146	-2.5625	-2.3896	-2.2687	-2.6188	-2.0917	-2.4208	-2.3354	-2.0042	-2.5187	-2.2708	-2.2958	-2.5771	-2.0708	153.877	189.260	151.627	331.751	95.314	403.900	286.667	77.511	341.856	301.278	169.962	383.344	348.479	400.609	112.350	205.780	0.0024164	0.0008489	0.0006897	599.9	5.1985e-05	1.1525e-05	870.01	178.29	3.297e-05	2.8435e-05	323.15	117.1	57.179	20.363	1.3769e-05	52.589	0.012508	0.012759	0.0035499	1279.7	0.00013933	0.00013987	1597.8	415.09	0.00013974	0.00013971	718.42	269.47	395.12	61.664	0.00013721	144.85	421.092	363.900	373.683	76.458	210.595	360.203	76.692	83.690	86.054	169.974	83.290	88.555	86.912	93.632	304.442	93.434	-8191	255	
1270.465	1	1	0	0	0.12433	0.10385	0.11183	0.19951	0.17229	0.11527	0.10074	0.26386	0.20853	0.039576	0.19032	0.094679	0.2089	0.10086	0.067356	0.059877	-1.8813	-2.5708	-1.9438	-2.5187	-2.0917	-2.1646	-2.4917	-1.8458	-2.5438	-2.6042	-2.0062	-2.6458	-2.2229	-2.1625	-2.4313	-2.2417	302.362	406.233	374.518	402.457	130.874	350.409	422.394	85.104	126.439	233.068	393.339	147.348	168.697	120.682	140.994	402.147	6.7013e-05	0.0010308	0.00052588	609.81	1.0223e-05	1.7553e-05	879.3	178.9	4.8682e-06	2.0146e-05	321.12	114.71	55.681	19.708	2.798e-05	51.577	0.012347	0.012592	0.0035144	1285	0.00013922	0.00014068	1616.1	419.61	0.00014252	0.00014372	731.52	274.14	408.76	62.604	0.00014323	147.16	304.745	184.201	190.461	79.045	113.647	199.599	78.444	83.379	236.707	167.447	83.729	88.725	89.010	93.744	390.962	93.654	-8191	255	
1270.559	1	1	0	0	0.26142	0.050517	0.24708	0.14154	0.23668	0.063001	0.26653	0.32574	0.15763	0.088509	0.42005	0.33629	0.0293	0.077774	0.41713	0.019646	-1.7188	-2.5104	-2.0312	-2.5146	-2.3417	-2.1333	-2.6562	-2.2083	-2.15	-2.4437	-2.1583	-2.6375	-2.4292	-2.1854	-2.4542	-2.2375	167.821	371.811	176.930	350.425	244.308	334.805	67.261	300.226	231.344	251.366	368.946	417.214	224.639	410.474	67.047	175.834	0.002749	0.0013847	9.2966e-05	616.16	1.9147e-05	2.445e-05	881.25	178.39	3.0006e-05	4.513e-05	322.07	112.15	55.004	19.199	4.6244e-05	49.832	0.012859	0.013064	0.0036386	1317	0.00014369	0.00014547	1649.8	427.54	0.00014628	0.00014707	740.17	274.55	413.24	62.545	0.00014528	147.54	94.907	155.029	277.488	78.703	113.581	104.801	78.325	83.889	225.730	100.352	83.481	88.945	87.275	93.511	179.207	92.918	-8191	255	
1270.632	1	1	0	0	0.20404	0.036254	0.040015	0.27211	0.061918	0.1962	0.079353	0.1468	0.1848	0.1279	0.14476	0.15592	0.15211	0.13372	0.093117	0.23714	-1.8521	-2.4583	-2.1458	-2.4896	-2.4875	-2.1917	-2.4396	-2.2812	-2.2208	-2.5417	-2.2792	-2.5604	-2.4375	-2.1146	-2.375	-2.1479	230.109	191.571	245.011	348.624	70.208	297.184	410.288	411.668	286.747	333.837	289.112	68.703	363.001	152.438	409.637	408.624	0.00076066	0.0026568	0.00033212	621.26	1.9485e-05	3.8234e-05	884.08	179.08	5.1299e-05	9.5298e-06	317.07	110.91	54.694	19.068	1.3188e-05	49.927	0.013036	0.013334	0.0037296	1333.9	0.00014575	0.00014552	1650.6	426.06	0.00014565	0.00014641	737.97	273.57	412.43	62.561	0.00014535	147.26	89.144	135.211	425.921	78.661	346.717	155.197	78.349	84.074	299.398	388.923	83.610	88.779	88.614	93.348	287.054	92.720	-8191	255	
1270.753	1	1	0	0	0.31296	0.2262	0.068125	0.076398	0.12763	0.18942	0.20683	0.23622	0.058199	0.23501	0.22675	0.16055	0.26986	0.12849	0.070703	0.089732	-1.7	-2.4729	-2.1917	-2.4437	-2.6271	-2.1021	-2.5292	-2.1312	-1.9479	-2.4229	-2.0792	-2.3646	-2.4708	-2.0667	-2.4188	-2.4062	156.495	299.458	369.343	413.171	188.789	326.192	309.730	368.379	282.705	289.130	397.051	72.548	361.510	395.331	67.913	101.520	0.0019306	0.00090901	0.00075687	613.03	3.9959e-05	1.2835e-05	890.7	179.35	3.7205e-05	2.4055e-06	317.87	111.79	57.52	19.102	1.5471e-05	49.637	0.012972	0.013263	0.0037022	1331.9	0.00014538	0.00014674	1659.5	427.94	0.00014603	0.0001476	741.14	273.65	412.89	62.511	0.00014526	146.6	85.024	233.539	394.713	78.364	206.242	215.640	78.011	83.980	135.152	218.745	83.143	88.511	87.682	93.103	250.727	92.116	-8191	255	
1270.847	1	1	0	0	0.22427	0.077297	0.17702	0.34269	0.20563	0.048207	0.34604	0.12179	0.016112	0.15626	0.22245	0.12108	0.15658	0.099568	0.062741	0.12502	-1.65	-2.45	-2.2396	-2.4167	-2.3646	-1.9896	-2.6437	-2.3667	-1.9417	-2.6604	-2.2354	-2.3396	-2.5042	-2.2021	-2.5333	-2.4958	74.936	210.019	208.338	290.140	169.837	137.813	373.157	355.095	313.505	99.863	99.992	205.731	142.059	187.225	336.887	155.684	0.0019006	0.0024587	0.00058293	633.84	3.9205e-06	2.078e-05	907.91	180.05	1.5331e-05	3.8509e-05	317.91	109.45	54.203	18.485	1.1073e-05	48.246	0.012946	0.013285	0.0037005	1337.6	0.00014481	0.00014596	1666.8	425.85	0.00014431	0.00014529	733.28	269.91	408.55	61.716	0.00014478	144.82	133.149	128.599	81.479	78.353	134.641	341.367	78.240	83.902	149.850	225.095	83.516	88.462	86.430	93.599	349.267	92.556	-8191	255	
1270.944	1	1	0	0	0.21328	0.13584	0.13968	0.13132	0.15172	0.15987	0.17034	0.15203	0.063613	0.062507	0.068813	0.33593	0.11689	0.049622	0.30627	0.1587	-1.8188	-2.3854	-2.1646	-2.1771	-2.5667	-2.2833	-2.4813	-2.2854	-1.6417	-2.2354	-2.325	-2.2083	-2.5854	-2.3146	-2.3812	-2.4771	142.618	177.797	106.328	384.998	165.290	160.153	364.696	404.264	227.990	296.721	209.851	159.799	282.143	73.303	81.846	285.152	0.00075231	0.0022011	0.00040936	641.79	2.4984e-05	1.1451e-05	911.64	181.81	1.5592e-05	1.2989e-05	318.56	108.37	52.361	18.182	3.4384e-05	47.546	0.012907	0.013228	0.0036897	1346.2	0.00014485	0.00014639	1682.1	432.21	0.00014837	0.00015063	749.95	275.72	425.2	63.405	0.00015071	148.63	99.528	186.389	250.047	78.543	205.140	274.999	78.544	83.571	95.742	232.166	80.958	86.253	87.090	91.908	157.713	91.078	-8191	255	
1271.064	1	1	0	0	0.19444	0.16827	0.24967	0.30322	0.11038	0.12497	0.22634	0.45735	0.21067	0.074074	0.25134	0.27428	0.14696	0.11877	0.12418	0.15532	-1.4708	-2.4333	-2.1917	-2.2313	-2.55	-1.9875	-2.3958	-2.6396	-2.2188	-2.4625	-2.2667	-2.2375	-2.5604	-2.3083	-2.3333	-2.8104	363.754	311.173	149.948	78.729	370.076	292.784	134.946	417.888	100.716	362.700	302.297	89.839	419.146	137.169	297.249	420.476	0.0008287	0.002104	0.00064139	648.22	8.3945e-06	2.8243e-05	914.33	182.09	2.6296e-05	3.2433e-05	321.04	108.46	51.855	18.246	1.8735e-05	47.923	0.013468	0.013743	0.0037994	1367	0.00014824	0.00014835	1686	430.69	0.00014679	0.0001483	742.01	272.43	418.61	62.563	0.00014872	148.25	110.716	218.055	190.065	77.792	269.924	107.399	77.570	83.278	222.314	209.742	82.795	88.273	86.633	93.421	370.155	92.796	-8191	255	
