BOXY.EXE: ISS Imagent and Oximeter Data Acquisition Program Version 0.80
Ascii Record File

#ACQ INFORMATION
2  Detector Channels 
16  External MUX Channels 
1  Auxiliary Channels 
5000  Waveform (CCF) Frequency (Hz)
1  Waveforms Skipped 
30  Waveforms Averaged 
1  Cycles Averaged 
16  Acquisitions per Waveform 
10.0806  Updata Rate (Hz) 

#FILE INFORMATION
TRUE -- External MUX Channel results are PARSED.
FALSE -- AC DC and Phase are NOT grouped.
TRUE -- Companion Program Settings File CREATED.
FALSE -- AC data not excluded
FALSE -- DC data not excluded
FALSE -- Phase data not excluded
FALSE -- Auxillary Chn. data not excluded
Tab delimiters

#CALIBRATION STATE
TRUE -- Waveform Calibration Values APPLIED.


#AUX CALIBRATION VALUES
Val Type	aux-1	

Term	1.0000e+00	
Factor	0.0000e+00	


#WF CALIBRATION VALUES
A = Detector Channel
Val Type	A-AC1	A-AC2	A-AC3	A-AC4	A-AC5	A-AC6	A-AC7	A-AC8	A-AC9	A-AC10	A-AC11	A-AC12	A-AC13	A-AC14	A-AC15	A-AC16	A-DC1	A-DC2	A-DC3	A-DC4	A-DC5	A-DC6	A-DC7	A-DC8	A-DC9	A-DC10	A-DC11	A-DC12	A-DC13	A-DC14	A-DC15	A-DC16	A-Ph1	A-Ph2	A-Ph3	A-Ph4	A-Ph5	A-Ph6	A-Ph7	A-Ph8	A-Ph9	A-Ph10	A-Ph11	A-Ph12	A-Ph13	A-Ph14	A-Ph15	A-Ph16	

Term	0.00000e+00	0.00000e+00	0.00000e+00	0.00000e+00	0.00000e+00	0.00000e+00	0.00000e+00	0.00000e+00	0.00000e+00	0.00000e+00	0.00000e+00	0.00000e+00	0.00000e+00	0.00000e+00	0.00000e+00	0.00000e+00	0.00000e+00	0.00000e+00	0.00000e+00	0.00000e+00	0.00000e+00	0.00000e+00	0.00000e+00	0.00000e+00	0.00000e+00	0.00000e+00	0.00000e+00	0.00000e+00	0.00000e+00	0.00000e+00	0.00000e+00	0.00000e+00	0.00000e+00	0.00000e+00	0.00000e+00	0.00000e+00	0.00000e+00	0.00000e+00	0.00000e+00	0.00000e+00	0.00000e+00	0.00000e+00	0.00000e+00	0.00000e+00	0.00000e+00	0.00000e+00	0.00000e+00	0.00000e+00	
Factor	1.00000e+00	1.00000e+00	1.00000e+00	1.00000e+00	1.00000e+00	1.00000e+00	1.00000e+00	1.00000e+00	1.00000e+00	1.00000e+00	1.00000e+00	1.00000e+00	1.00000e+00	1.00000e+00	1.00000e+00	1.00000e+00	1.00000e+00	1.00000e+00	1.00000e+00	1.00000e+00	1.00000e+00	1.00000e+00	1.00000e+00	1.00000e+00	1.00000e+00	1.00000e+00	1.00000e+00	1.00000e+00	1.00000e+00	1.00000e+00	1.00000e+00	1.00000e+00	X	X	X	X	X	X	X	X	X	X	X	X	X	X	X	X	

B = Detector Channel
Val Type	B-AC1	B-AC2	B-AC3	B-AC4	B-AC5	B-AC6	B-AC7	B-AC8	B-AC9	B-AC10	B-AC11	B-AC12	B-AC13	B-AC14	B-AC15	B-AC16	B-DC1	B-DC2	B-DC3	B-DC4	B-DC5	B-DC6	B-DC7	B-DC8	B-DC9	B-DC10	B-DC11	B-DC12	B-DC13	B-DC14	B-DC15	B-DC16	B-Ph1	B-Ph2	B-Ph3	B-Ph4	B-Ph5	B-Ph6	B-Ph7	B-Ph8	B-Ph9	B-Ph10	B-Ph11	B-Ph12	B-Ph13	B-Ph14	B-Ph15	B-Ph16	

Term	0.00000e+00	0.00000e+00	0.00000e+00	0.00000e+00	0.00000e+00	0.00000e+00	0.00000e+00	0.00000e+00	0.00000e+00	0.00000e+00	0.00000e+00	0.00000e+00	0.00000e+00	0.00000e+00	0.00000e+00	0.00000e+00	0.00000e+00	0.00000e+00	0.00000e+00	0.00000e+00	0.00000e+00	0.00000e+00	0.00000e+00	0.00000e+00	0.00000e+00	0.00000e+00	0.00000e+00	0.00000e+00	0.00000e+00	0.00000e+00	0.00000e+00	0.00000e+00	-2.60428e+02	-1.10120e+02	-1.35771e+02	-1.82358e+02	-8.82290e+01	-8.01576e+01	-1.56915e+02	-1.62015e+02	-1.40806e+02	-6.49328e+01	-1.82532e+02	-1.70017e+02	-1.83467e+02	-1.76494e+02	-8.40987e+01	-1.49052e+02	
Factor	5.47524e-05	1.28517e-04	3.34994e-05	1.65911e-01	1.40518e-06	1.31051e-06	1.63629e-01	5.02796e-02	1.91554e-06	1.41169e-06	2.54980e-01	2.65488e-02	4.71564e-02	8.70794e-03	1.47822e-06	1.22069e-02	1.50795e-06	1.56019e-06	4.34946e-07	8.49721e-02	1.70309e-08	1.70813e-08	7.89962e-02	2.58188e-02	1.70192e-08	1.70604e-08	1.17178e-01	1.31686e-02	2.32700e-02	4.46970e-03	1.70381e-08	6.05392e-03	X	X	X	X	X	X	X	X	X	X	X	X	X	X	X	X	



#DISTANCE SETTINGS
A = Detector Channel
A-1	A-2	A-3	A-4	A-5	A-6	A-7	A-8	A-9	A-10	A-11	A-12	A-13	A-14	A-15	A-16	

2.5000e+00	3.0000e+00	2.5000e+00	3.0000e+00	2.0000e+00	3.0000e+00	1.5000e+00	3.0000e+00	3.0000e+00	3.0000e+00	3.0000e+00	3.0000e+00	3.0000e+00	3.0000e+00	1.5000e+00	3.0000e+00	

B = Detector Channel
B-1	B-2	B-3	B-4	B-5	B-6	B-7	B-8	B-9	B-10	B-11	B-12	B-13	B-14	B-15	B-16	

1.0000e+01	1.0000e+01	1.0000e+01	1.4400e+00	1.0000e+01	1.0000e+01	1.5100e+00	1.9400e+00	1.0000e+01	1.0000e+01	1.9900e+00	2.4900e+00	2.4100e+00	2.9000e+00	1.0000e+01	2.9800e+00	




#DATA BEGINS
time	group	step	mark	flag	A-AC1	A-AC2	A-AC3	A-AC4	A-AC5	A-AC6	A-AC7	A-AC8	A-AC9	A-AC10	A-AC11	A-AC12	A-AC13	A-AC14	A-AC15	A-AC16	A-DC1	A-DC2	A-DC3	A-DC4	A-DC5	A-DC6	A-DC7	A-DC8	A-DC9	A-DC10	A-DC11	A-DC12	A-DC13	A-DC14	A-DC15	A-DC16	A-Ph1	A-Ph2	A-Ph3	A-Ph4	A-Ph5	A-Ph6	A-Ph7	A-Ph8	A-Ph9	A-Ph10	A-Ph11	A-Ph12	A-Ph13	A-Ph14	A-Ph15	A-Ph16	B-AC1	B-AC2	B-AC3	B-AC4	B-AC5	B-AC6	B-AC7	B-AC8	B-AC9	B-AC10	B-AC11	B-AC12	B-AC13	B-AC14	B-AC15	B-AC16	B-DC1	B-DC2	B-DC3	B-DC4	B-DC5	B-DC6	B-DC7	B-DC8	B-DC9	B-DC10	B-DC11	B-DC12	B-DC13	B-DC14	B-DC15	B-DC16	B-Ph1	B-Ph2	B-Ph3	B-Ph4	B-Ph5	B-Ph6	B-Ph7	B-Ph8	B-Ph9	B-Ph10	B-Ph11	B-Ph12	B-Ph13	B-Ph14	B-Ph15	B-Ph16	aux-1	digaux	

678.576	1	1	0	768	0.30852	0.18071	0.16869	0.09818	0.14761	0.13426	0.16665	0.31444	0.033596	0.033297	0.19547	0.30305	0.10082	0.078759	0.12457	0.095568	-2.5	-3.2708	-2.2188	-3.4208	-2.9396	-2.1542	-3.6688	-2.675	-2.6542	-3.3333	-2.1896	-3.0083	-3.0854	-2.2646	-3.3958	-2.35	397.473	422.238	381.953	200.242	416.385	176.272	363.775	378.506	385.837	150.520	394.152	341.352	204.139	106.802	426.320	224.890	0.00066415	0.00040973	8.5446e-05	1054.9	3.2698e-06	3.2797e-06	1140.3	217.15	4.411e-06	1.8232e-06	280.14	76.151	60.966	17.437	2.0081e-06	24.656	9.5871e-05	8.0454e-05	2.3018e-05	1031	9.1917e-07	9.0228e-07	1114.7	213.26	9.3733e-07	8.9617e-07	259.77	75.127	58.06	17.424	9.0164e-07	24.471	395.782	189.291	154.825	89.255	214.666	215.855	89.501	97.017	191.039	263.611	97.055	103.471	103.471	110.890	164.722	110.394	-8191	255	
678.670	1	1	0	0	0.15282	0.0369	0.1427	0.23438	0.16393	0.062432	0.23102	0.33348	0.15719	0.15992	0.10902	0.20454	0.076419	0.16006	0.18959	0.056977	-2.4167	-3.2854	-2.1854	-3.1667	-3.1063	-2.2271	-3.5521	-2.5312	-2.5687	-3.2833	-2.3292	-2.8896	-3.2271	-2.3333	-3.2729	-2.5667	107.552	242.368	327.271	387.880	403.101	103.640	366.245	391.394	147.161	356.533	113.967	431.669	421.645	142.321	435.981	136.542	0.00083935	0.00033243	8.8106e-05	1058	3.174e-06	1.369e-06	1144.3	217.84	3.497e-06	3.946e-06	278.27	76.436	61.814	17.362	4.5979e-06	24.808	9.6839e-05	8.2791e-05	2.3224e-05	1031.8	9.3028e-07	9.104e-07	1116.5	213.86	9.6276e-07	8.8295e-07	261	75.283	58.309	17.406	9.4075e-07	24.529	400.990	179.416	165.675	89.380	205.772	201.120	89.249	97.103	143.897	219.253	96.483	103.298	104.184	111.655	225.223	110.262	-8191	255	
678.768	1	1	0	0	0.191	0.065118	0.044176	0.20979	0.10214	0.08421	0.29591	0.047788	0.0755	0.23274	0.16397	0.067787	0.25462	0.19886	0.51078	0.14304	-2.3104	-3.3979	-2.0958	-3.0771	-3.1854	-2.2313	-3.4292	-2.825	-2.3167	-3.4792	-2.4208	-2.9792	-3.2208	-2.2625	-3.1625	-2.7875	303.414	216.598	287.646	321.150	422.715	131.242	350.650	220.340	337.285	171.355	321.397	93.606	107.729	333.552	281.027	383.106	0.00077714	0.00021305	6.517e-05	1065.6	2.7835e-06	3.8737e-06	1148	217.02	5.307e-06	1.3659e-06	280.54	76.232	61.18	17.609	4.3085e-06	24.687	9.6905e-05	8.2251e-05	2.3348e-05	1035.2	9.2308e-07	9.1524e-07	1117.1	213.52	9.3347e-07	8.8295e-07	260.58	75.247	58.323	17.448	9.3667e-07	24.526	397.121	184.209	192.503	89.410	218.829	213.975	89.448	97.036	165.431	326.885	96.242	103.455	103.659	111.175	259.172	110.105	-8191	255	
678.863	1	1	0	0	0.15781	0.19002	0.14976	0.2631	0.10703	0.054248	0.15406	0.046438	0.28561	0.17932	0.21593	0.17311	0.12819	0.27011	0.20048	0.044959	-2.1667	-3.3417	-2.4188	-2.8104	-3.2917	-2.3438	-3.3438	-3.1604	-2.1833	-3.5	-2.5021	-2.5542	-3.35	-2.1958	-3.1771	-3.0042	297.207	251.520	221.535	409.302	97.604	249.829	360.504	195.632	170.479	216.021	205.155	90.043	153.065	82.131	291.119	106.237	0.00075698	0.00032412	6.0289e-05	1060.1	3.6395e-06	1.8039e-06	1143.6	217.61	5.3018e-06	1.0784e-06	278.68	76.442	61.6	17.517	3.2178e-06	24.817	9.5915e-05	8.2541e-05	2.4418e-05	1032.1	9.4295e-07	9.1036e-07	1114.5	213.43	9.4889e-07	8.8654e-07	260.36	75.426	58.301	17.41	8.9532e-07	24.548	399.818	206.089	174.501	89.401	222.653	158.817	89.297	97.004	156.399	351.931	96.448	103.133	103.658	111.263	301.296	110.080	-8191	255	
678.959	1	1	0	0	0.19688	0.052665	0.19045	0.14019	0.22851	0.079163	0.11938	0.045032	0.14902	0.2644	0.17523	0.059491	0.19235	0.38392	0.010966	0.053584	-1.9958	-3.3146	-2.6354	-2.6417	-3.3104	-2.5958	-3.1146	-3.3125	-2.3083	-3.2354	-2.8542	-2.4437	-3.3812	-2.125	-2.8583	-3.075	293.977	214.053	204.061	222.161	360.654	222.748	417.557	418.491	174.506	234.850	334.902	296.972	148.727	376.322	212.225	281.086	0.00077208	0.00015189	8.7991e-05	1062.3	4.1349e-06	1.8013e-06	1140.8	217.72	5.1911e-06	1.003e-06	281.21	77.19	61.513	17.54	4.0257e-06	24.497	9.6031e-05	8.088e-05	2.3078e-05	1031.9	9.1758e-07	8.8428e-07	1112.2	213.61	9.4379e-07	8.929e-07	259.92	75.405	58.179	17.405	9.0561e-07	24.493	391.922	132.554	151.884	89.653	200.736	233.337	89.417	97.144	133.988	179.971	96.693	103.470	103.642	111.137	203.905	110.479	-8191	255	
679.055	1	1	0	0	0.23151	0.054368	0.19368	0.28014	0.1171	0.13918	0.20476	0.10745	0.18302	0.17461	0.078214	0.42797	0.25582	0.13124	0.41893	0.19843	-1.8729	-3.2354	-2.8042	-2.5438	-3.4062	-2.4396	-3.1021	-3.4	-2.3083	-3.2104	-2.8937	-2.3042	-3.4292	-2.4979	-2.7229	-3.3958	106.330	421.187	271.835	377.756	434.863	151.735	247.070	416.348	362.841	201.122	247.605	316.061	154.420	83.621	337.271	375.485	0.0008458	0.00011443	0.00011888	1056.3	2.1712e-06	1.2842e-06	1142.9	217.6	6.0073e-06	1.4019e-06	279.2	76.61	61.679	17.563	3.9979e-06	24.661	9.381e-05	7.8731e-05	2.2535e-05	1030.5	9.1186e-07	8.9115e-07	1113.2	213.78	9.4418e-07	8.8579e-07	259.65	75.249	58.178	17.419	8.9212e-07	24.459	408.626	206.367	178.563	89.566	195.852	218.570	89.156	97.056	154.227	350.129	95.928	103.534	103.547	110.866	198.260	110.794	-8191	255	
679.176	1	1	0	0	0.35419	0.038833	0.12031	0.28931	0.076226	0.28122	0.16267	0.090832	0.2104	0.16228	0.28049	0.068855	0.17232	0.28509	0.13699	0.11323	-2.0021	-3.0396	-2.9417	-2.2042	-3.3646	-2.5042	-2.8229	-3.5375	-2.3021	-3.0271	-3.2458	-2.1271	-3.4667	-2.6458	-2.5375	-3.3625	405.152	179.491	380.542	378.962	87.577	211.582	416.707	329.581	172.926	221.374	214.776	232.489	109.992	92.022	414.037	385.008	0.00071209	0.00018225	5.8615e-05	1055.7	1.2968e-06	3.154e-06	1142.1	218.07	3.4633e-06	1.4659e-06	280.95	76.164	61.16	17.4	6.7599e-07	24.578	9.6402e-05	7.9336e-05	2.2683e-05	1029	9.1481e-07	9.0648e-07	1112.9	213.43	9.4191e-07	8.9109e-07	260.56	75.244	58.11	17.389	9.2372e-07	24.477	398.853	159.907	112.649	89.209	257.228	194.438	89.190	96.885	164.091	288.813	96.659	103.094	103.970	110.935	438.748	110.312	-8191	255	
679.272	1	1	0	0	0.31219	0.11495	0.047183	0.090402	0.14522	0.15308	0.20256	0.2124	0.28369	0.10312	0.084762	0.26374	0.1414	0.14869	0.022549	0.056777	-2.0958	-3.0604	-3.2667	-2.2875	-3.3083	-2.6958	-2.5312	-3.6208	-2.1896	-2.8312	-3.1542	-2.2188	-3.2417	-2.7833	-2.4313	-3.4875	103.071	84.272	143.067	100.915	118.754	201.207	341.365	436.163	132.708	303.314	327.842	124.058	138.130	147.059	340.005	414.445	0.00078348	0.00019724	3.6366e-05	1060.9	3.9834e-06	2.5274e-06	1138.5	218.52	4.2348e-06	2.9249e-06	281.05	76.533	61.198	17.398	2.64e-06	24.606	9.7618e-05	8.3912e-05	2.2747e-05	1030.8	9.2489e-07	9.1723e-07	1112.1	214	9.6517e-07	9.1312e-07	261	75.18	58.15	17.35	9.1853e-07	24.497	389.798	147.030	210.856	89.407	224.440	190.673	89.347	97.205	167.364	226.836	96.673	103.399	103.644	110.933	196.365	110.125	-8191	255	
679.368	1	1	0	0	0.25414	0.13168	0.1118	0.11802	0.15545	0.12518	0.16296	0.3347	0.08734	0.17694	0.033815	0.10125	0.10058	0.1458	0.073479	0.15133	-2.1458	-2.8646	-3.4667	-2.2938	-3.1833	-2.8542	-2.4208	-3.4938	-2.4333	-2.5083	-3.2604	-2.1479	-3.1417	-2.8604	-2.2104	-3.5	198.758	229.028	97.361	409.973	333.518	181.019	102.328	359.941	416.268	391.299	401.728	429.984	364.038	297.332	109.007	287.560	0.0008305	0.00020405	6.9803e-05	1056.8	3.0521e-06	4.5746e-06	1139.9	218.22	4.8195e-06	1.1561e-06	280.05	76.344	62.07	17.4	2.9272e-06	24.813	9.9305e-05	8.3197e-05	2.3494e-05	1030.2	9.3961e-07	9.3022e-07	1112.9	213.93	9.5176e-07	9.0022e-07	260.5	75.217	58.429	17.343	9.3813e-07	24.458	402.066	135.145	187.129	89.448	233.909	217.994	89.432	97.140	178.413	291.710	96.147	103.568	103.370	110.751	225.536	110.238	-8191	255	
679.464	1	1	0	0	0.068554	0.13831	0.13972	0.30275	0.16558	0.12544	0.30376	0.015897	0.060277	0.12857	0.089982	0.20331	0.11518	0.20529	0.15611	0.11745	-2.2479	-2.6083	-3.2896	-2.2354	-3.1146	-3.1437	-2.4896	-3.4646	-2.7271	-2.5979	-3.3458	-2.3333	-2.8646	-3.0729	-2.1958	-3.1625	87.055	185.799	432.537	400.594	194.360	184.162	372.097	131.162	102.136	130.597	266.132	401.372	399.834	100.556	199.519	190.717	0.00076991	0.00017568	5.4722e-05	1054.8	4.0516e-06	2.8534e-06	1136.5	217.86	4.1659e-06	1.4666e-06	281.31	76.726	61.151	17.481	1.3748e-06	24.456	9.7231e-05	8.4748e-05	2.247e-05	1029.7	9.7853e-07	9.3844e-07	1112	213.51	9.6261e-07	9.1138e-07	261.89	75.311	58.222	17.396	9.3976e-07	24.478	395.182	193.713	188.070	89.083	208.852	217.355	89.262	96.834	116.931	277.514	96.722	103.346	103.843	110.904	184.230	110.261	-8191	255	
679.560	1	1	0	0	0.25764	0.23245	0.17867	0.25254	0.2655	0.2811	0.33461	0.11265	0.12268	0.13749	0.36504	0.37463	0.10459	0.078701	0.16939	0.32254	-2.4667	-2.2292	-3.5146	-2.3042	-2.6542	-3.0458	-2.2604	-3.2938	-2.6833	-2.2313	-3.5021	-2.5271	-2.7396	-3.3521	-2.1229	-3.2917	88.585	413.105	270.708	364.690	335.092	108.356	372.265	401.945	299.076	92.752	91.088	364.349	317.539	363.105	199.672	285.353	0.00083901	0.00056101	2.2633e-05	1057.3	2.9319e-06	4.2046e-07	1144	217.07	4.5228e-06	1.7929e-06	281.92	76.281	61.148	17.599	1.9457e-06	24.522	9.8868e-05	8.5303e-05	2.2963e-05	1032.4	9.4738e-07	8.9374e-07	1112.2	213.44	9.5293e-07	9.1536e-07	259.66	75.303	58.076	17.441	9.1999e-07	24.501	393.274	177.186	176.526	89.186	213.227	231.869	89.400	96.965	152.117	260.774	96.656	103.641	104.244	110.886	270.598	110.571	-8191	255	
679.656	1	1	0	0	0.14536	0.13914	0.20033	0.18173	0.23232	0.11219	0.16776	0.23225	0.1834	0.28116	0.11858	0.32194	0.057461	0.020082	0.18788	0.16408	-2.6771	-2.2958	-3.375	-2.4729	-2.5812	-3.2521	-2.4208	-3.2271	-2.8521	-2.1979	-3.4708	-2.3812	-2.6688	-3.3229	-2.2438	-2.9354	218.176	86.568	124.762	275.490	176.560	332.354	413.655	365.288	194.988	85.348	85.299	90.337	397.880	334.212	195.830	85.257	0.00085058	0.00027289	8.0918e-05	1058.7	3.0125e-06	2.1682e-06	1134.9	219.04	5.9544e-06	1.9751e-06	281.32	76.358	61.364	17.598	5.0723e-06	24.854	9.731e-05	8.4949e-05	2.3439e-05	1031.7	9.4795e-07	8.973e-07	1111.7	214.21	9.3631e-07	9.2013e-07	260.17	75.308	58.227	17.458	9.3603e-07	24.572	399.963	174.163	184.327	89.276	210.824	179.281	89.141	97.124	188.858	250.868	96.040	103.076	104.384	111.390	232.062	110.703	-8191	255	
679.775	1	1	0	0	0.16788	0.17581	0.082627	0.16429	0.14614	0.10052	0.22736	0.14833	0.078132	0.23523	0.13298	0.075951	0.14875	0.22205	0.22168	0.083343	-2.6958	-2.3708	-3.1458	-2.6854	-2.3083	-3.2396	-2.6292	-3.0208	-3.0187	-2.1292	-3.225	-2.6667	-2.2333	-3.4271	-2.3438	-3.2292	309.745	228.212	144.407	320.972	268.442	377.750	364.263	195.759	110.964	339.188	434.410	315.649	231.524	94.407	395.727	160.057	0.00066881	5.8173e-05	4.1288e-05	1058	2.4285e-06	1.3497e-06	1146.6	218.73	2.7258e-06	9.6562e-07	281.03	76.399	61.533	17.6	2.538e-06	24.699	9.6327e-05	8.5541e-05	2.3128e-05	1032.9	9.6353e-07	9.0517e-07	1116.3	214.48	9.2826e-07	9.2112e-07	261.42	75.325	58.236	17.469	9.4498e-07	24.527	395.567	211.569	92.114	89.403	225.377	183.258	89.146	96.975	159.484	162.203	96.619	103.443	103.673	111.078	238.103	110.352	-8191	255	
679.871	1	1	0	0	0.062985	0.094292	0.26376	0.35778	0.176	0.036008	0.34093	0.029245	0.15076	0.21353	0.088997	0.16458	0.32787	0.19018	0.32434	0.15555	-2.7854	-2.2125	-3.1958	-2.7854	-2.5729	-3.4146	-2.5438	-2.8729	-3.1667	-2.1771	-3.2479	-2.8187	-2.3271	-3.4833	-2.3333	-2.8833	326.720	196.068	243.045	388.815	432.811	316.423	288.655	315.488	265.247	437.000	392.572	422.362	408.373	403.178	109.396	349.029	0.00085823	0.00026961	0.00012675	1061.4	2.6932e-06	3.6462e-06	1142	218.88	1.4898e-06	3.4983e-06	282.89	76.408	60.967	17.49	1.9252e-06	24.651	9.8485e-05	8.5391e-05	2.3541e-05	1032.2	9.5508e-07	9.1819e-07	1112.5	214.2	9.6506e-07	9.1707e-07	262.3	75.156	57.996	17.363	9.4413e-07	24.537	400.194	183.267	172.987	89.304	246.374	240.972	89.041	97.164	228.567	234.016	96.600	103.439	104.056	111.155	183.027	110.853	-8191	255	
679.967	1	1	0	0	0.21945	0.097582	0.10825	0.21905	0.1367	0.19129	0.24136	0.084036	0.12878	0.11669	0.092925	0.27131	0.16993	0.21164	0.1579	0.026005	-3.1167	-2.1312	-3.2938	-3.175	-2.2979	-3.2562	-2.7146	-2.6729	-3.2687	-2.2438	-2.9396	-3.1562	-2.4292	-3.3063	-2.5687	-2.7146	222.762	237.116	106.013	413.130	115.426	208.440	410.044	437.165	130.354	280.160	118.831	374.823	424.133	304.280	86.432	223.020	0.00082384	0.00021606	6.5512e-05	1057.4	3.0626e-06	3.5621e-06	1149.7	218.47	4.0091e-06	3.1321e-06	282.77	76.355	61.482	17.457	1.6715e-06	24.779	9.8177e-05	8.532e-05	2.3284e-05	1030.9	9.7428e-07	9.2378e-07	1115.9	213.94	9.4574e-07	9.165e-07	261.72	75.429	58.449	17.417	9.3532e-07	24.552	404.322	123.741	139.947	89.445	203.806	192.462	89.207	97.441	137.434	212.098	96.361	103.162	103.947	111.417	205.659	110.583	-8191	255	
680.064	1	1	0	0	0.13825	0.30704	0.093104	0.17408	0.078632	0.072916	0.25609	0.15152	0.10879	0.22566	0.26106	0.17343	0.18873	0.17175	0.16597	0.19247	-3.0583	-2.2542	-3.0375	-3.325	-2.2042	-3.1958	-2.7687	-2.4896	-3.3104	-2.2417	-3.0125	-3.1021	-2.2917	-3.2125	-2.5521	-2.4208	306.282	324.642	392.021	93.231	424.886	431.418	393.535	408.927	189.332	310.814	199.301	266.964	146.770	382.997	376.586	437.749	0.00068243	6.7194e-05	6.522e-05	1054.4	4.6952e-06	3.8086e-06	1141.4	217.87	2.8079e-06	1.7911e-06	285.18	76.779	61.975	17.556	1.3103e-06	24.625	9.6367e-05	8.6236e-05	2.3399e-05	1031	9.7105e-07	9.1908e-07	1114.7	213.85	9.4762e-07	9.5201e-07	261.8	75.563	58.567	17.444	9.6155e-07	24.53	396.947	226.195	158.282	89.300	195.864	239.130	89.027	96.864	131.317	274.667	96.546	102.971	103.766	111.409	237.936	109.925	-8191	255	
680.135	1	1	0	0	0.14284	0.15777	0.1115	0.24891	0.063496	0.17663	0.082547	0.28248	0.1399	0.29515	0.11204	0.13793	0.16193	0.14574	0.091077	0.068604	-3.2104	-2.2979	-2.8563	-3.0208	-2.1979	-3.0542	-2.9	-2.3812	-3.2958	-2.5229	-2.7333	-3.25	-2.1667	-3.0667	-2.7083	-2.3146	298.815	435.487	145.336	85.688	217.703	364.229	390.860	364.537	227.287	196.929	378.107	81.382	98.842	327.297	115.435	400.155	0.00096584	0.00033987	6.3139e-05	1059.1	4.2247e-06	3.3713e-06	1145	216.93	2.1478e-06	5.5937e-06	284.92	76.286	61.401	17.579	1.7047e-06	24.488	9.7373e-05	8.9847e-05	2.4069e-05	1034	1.0006e-06	9.5442e-07	1116.7	214.07	9.69e-07	9.5542e-07	263.15	75.521	58.416	17.477	9.4019e-07	24.516	400.122	203.276	158.844	89.288	232.674	256.428	89.336	97.215	219.067	251.128	96.510	103.409	103.514	111.401	240.100	110.306	-8191	255	
680.256	1	1	0	0	0.16899	0.21132	0.19267	0.19865	0.10348	0.11519	0.087731	0.097409	0.2061	0.25494	0.10591	0.25974	0.30487	0.090482	0.22804	0.32831	-2.9417	-2.3833	-2.7313	-3.1188	-1.9813	-3.0708	-3	-2.1979	-3.475	-2.525	-2.6875	-3.4521	-2.2646	-3.0187	-3.0125	-2.2875	327.663	159.701	290.652	369.727	187.253	135.874	300.259	404.673	259.869	286.451	230.143	233.499	424.122	126.688	85.996	269.538	0.00069467	0.00039591	5.8117e-05	1059.9	2.8303e-06	3.3781e-06	1145.8	219.24	4.8242e-06	3.2785e-06	281.79	76.581	61.532	17.553	3.9929e-06	24.847	9.7527e-05	8.7159e-05	2.4627e-05	1034.2	1.0162e-06	9.7936e-07	1117.8	214.1	9.9456e-07	9.7916e-07	262.15	75.574	58.509	17.496	9.8583e-07	24.601	400.301	195.025	171.763	89.161	217.336	199.686	89.260	97.446	148.426	255.796	96.585	103.404	104.013	111.282	210.965	110.598	-8191	255	
