BOXY.EXE: ISS Imagent and Oximeter Data Acquisition Program Version 0.80
Ascii Record File

#ACQ INFORMATION
2  Detector Channels 
16  External MUX Channels 
1  Auxiliary Channels 
5000  Waveform (CCF) Frequency (Hz)
1  Waveforms Skipped 
30  Waveforms Averaged 
1  Cycles Averaged 
16  Acquisitions per Waveform 
10.0806  Updata Rate (Hz) 

#FILE INFORMATION
TRUE -- External MUX Channel results are PARSED.
FALSE -- AC DC and Phase are NOT grouped.
TRUE -- Companion Program Settings File CREATED.
FALSE -- AC data not excluded
FALSE -- DC data not excluded
FALSE -- Phase data not excluded
FALSE -- Auxillary Chn. data not excluded
Tab delimiters

#CALIBRATION STATE
TRUE -- Waveform Calibration Values APPLIED.


#AUX CALIBRATION VALUES
Val Type	aux-1	

Term	1.0000e+00	
Factor	0.0000e+00	


#WF CALIBRATION VALUES
A = Detector Channel
Val Type	A-AC1	A-AC2	A-AC3	A-AC4	A-AC5	A-AC6	A-AC7	A-AC8	A-AC9	A-AC10	A-AC11	A-AC12	A-AC13	A-AC14	A-AC15	A-AC16	A-DC1	A-DC2	A-DC3	A-DC4	A-DC5	A-DC6	A-DC7	A-DC8	A-DC9	A-DC10	A-DC11	A-DC12	A-DC13	A-DC14	A-DC15	A-DC16	A-Ph1	A-Ph2	A-Ph3	A-Ph4	A-Ph5	A-Ph6	A-Ph7	A-Ph8	A-Ph9	A-Ph10	A-Ph11	A-Ph12	A-Ph13	A-Ph14	A-Ph15	A-Ph16	

Term	0.00000e+00	0.00000e+00	0.00000e+00	0.00000e+00	0.00000e+00	0.00000e+00	0.00000e+00	0.00000e+00	0.00000e+00	0.00000e+00	0.00000e+00	0.00000e+00	0.00000e+00	0.00000e+00	0.00000e+00	0.00000e+00	0.00000e+00	0.00000e+00	0.00000e+00	0.00000e+00	0.00000e+00	0.00000e+00	0.00000e+00	0.00000e+00	0.00000e+00	0.00000e+00	0.00000e+00	0.00000e+00	0.00000e+00	0.00000e+00	0.00000e+00	0.00000e+00	0.00000e+00	0.00000e+00	0.00000e+00	0.00000e+00	0.00000e+00	0.00000e+00	0.00000e+00	0.00000e+00	0.00000e+00	0.00000e+00	0.00000e+00	0.00000e+00	0.00000e+00	0.00000e+00	0.00000e+00	0.00000e+00	
Factor	1.00000e+00	1.00000e+00	1.00000e+00	1.00000e+00	1.00000e+00	1.00000e+00	1.00000e+00	1.00000e+00	1.00000e+00	1.00000e+00	1.00000e+00	1.00000e+00	1.00000e+00	1.00000e+00	1.00000e+00	1.00000e+00	1.00000e+00	1.00000e+00	1.00000e+00	1.00000e+00	1.00000e+00	1.00000e+00	1.00000e+00	1.00000e+00	1.00000e+00	1.00000e+00	1.00000e+00	1.00000e+00	1.00000e+00	1.00000e+00	1.00000e+00	1.00000e+00	X	X	X	X	X	X	X	X	X	X	X	X	X	X	X	X	

B = Detector Channel
Val Type	B-AC1	B-AC2	B-AC3	B-AC4	B-AC5	B-AC6	B-AC7	B-AC8	B-AC9	B-AC10	B-AC11	B-AC12	B-AC13	B-AC14	B-AC15	B-AC16	B-DC1	B-DC2	B-DC3	B-DC4	B-DC5	B-DC6	B-DC7	B-DC8	B-DC9	B-DC10	B-DC11	B-DC12	B-DC13	B-DC14	B-DC15	B-DC16	B-Ph1	B-Ph2	B-Ph3	B-Ph4	B-Ph5	B-Ph6	B-Ph7	B-Ph8	B-Ph9	B-Ph10	B-Ph11	B-Ph12	B-Ph13	B-Ph14	B-Ph15	B-Ph16	

Term	0.00000e+00	0.00000e+00	0.00000e+00	0.00000e+00	0.00000e+00	0.00000e+00	0.00000e+00	0.00000e+00	0.00000e+00	0.00000e+00	0.00000e+00	0.00000e+00	0.00000e+00	0.00000e+00	0.00000e+00	0.00000e+00	0.00000e+00	0.00000e+00	0.00000e+00	0.00000e+00	0.00000e+00	0.00000e+00	0.00000e+00	0.00000e+00	0.00000e+00	0.00000e+00	0.00000e+00	0.00000e+00	0.00000e+00	0.00000e+00	0.00000e+00	0.00000e+00	-2.24060e+02	-1.11729e+02	-1.18567e+02	-1.84289e+02	-1.11961e+02	-6.00827e+01	-1.55886e+02	-1.62015e+02	-1.01531e+02	-6.74875e+01	-1.85687e+02	-1.70606e+02	-1.87784e+02	-1.76603e+02	-9.45758e+01	-1.49601e+02	
Factor	5.43509e-05	1.63650e-04	4.33084e-05	2.33733e-01	1.94758e-06	1.75263e-06	1.64518e-01	5.27251e-02	1.66082e-06	1.87297e-06	2.24341e-01	3.14586e-02	6.61009e-02	9.37024e-03	1.76255e-06	1.36036e-02	1.76928e-06	1.83696e-06	5.12401e-07	1.16323e-01	2.00414e-08	2.01515e-08	7.78427e-02	2.64679e-02	1.99929e-08	2.01544e-08	1.02877e-01	1.51848e-02	3.14592e-02	4.69440e-03	2.00290e-08	6.58755e-03	X	X	X	X	X	X	X	X	X	X	X	X	X	X	X	X	



#DISTANCE SETTINGS
A = Detector Channel
A-1	A-2	A-3	A-4	A-5	A-6	A-7	A-8	A-9	A-10	A-11	A-12	A-13	A-14	A-15	A-16	

2.5000e+00	3.0000e+00	2.5000e+00	3.0000e+00	2.0000e+00	3.0000e+00	1.5000e+00	3.0000e+00	3.0000e+00	3.0000e+00	3.0000e+00	3.0000e+00	3.0000e+00	3.0000e+00	1.5000e+00	3.0000e+00	

B = Detector Channel
B-1	B-2	B-3	B-4	B-5	B-6	B-7	B-8	B-9	B-10	B-11	B-12	B-13	B-14	B-15	B-16	

1.0000e+01	1.0000e+01	1.0000e+01	1.4400e+00	1.0000e+01	1.0000e+01	1.5100e+00	1.9400e+00	1.0000e+01	1.0000e+01	1.9900e+00	2.4900e+00	2.4100e+00	2.9000e+00	1.0000e+01	2.9800e+00	




#DATA BEGINS
time	group	step	mark	flag	A-AC1	A-AC2	A-AC3	A-AC4	A-AC5	A-AC6	A-AC7	A-AC8	A-AC9	A-AC10	A-AC11	A-AC12	A-AC13	A-AC14	A-AC15	A-AC16	A-DC1	A-DC2	A-DC3	A-DC4	A-DC5	A-DC6	A-DC7	A-DC8	A-DC9	A-DC10	A-DC11	A-DC12	A-DC13	A-DC14	A-DC15	A-DC16	A-Ph1	A-Ph2	A-Ph3	A-Ph4	A-Ph5	A-Ph6	A-Ph7	A-Ph8	A-Ph9	A-Ph10	A-Ph11	A-Ph12	A-Ph13	A-Ph14	A-Ph15	A-Ph16	B-AC1	B-AC2	B-AC3	B-AC4	B-AC5	B-AC6	B-AC7	B-AC8	B-AC9	B-AC10	B-AC11	B-AC12	B-AC13	B-AC14	B-AC15	B-AC16	B-DC1	B-DC2	B-DC3	B-DC4	B-DC5	B-DC6	B-DC7	B-DC8	B-DC9	B-DC10	B-DC11	B-DC12	B-DC13	B-DC14	B-DC15	B-DC16	B-Ph1	B-Ph2	B-Ph3	B-Ph4	B-Ph5	B-Ph6	B-Ph7	B-Ph8	B-Ph9	B-Ph10	B-Ph11	B-Ph12	B-Ph13	B-Ph14	B-Ph15	B-Ph16	aux-1	digaux	

1136.351	1	1	0	256	0.19114	0.289	0.13525	0.44301	0.17504	0.18142	0.20343	0.31983	0.083427	0.22662	0.28764	0.31894	0.21788	0.13254	0.16443	0.12132	-1.4667	-1.7646	-2.3229	-2.1896	-1.8875	-2.4062	-1.9562	-1.9667	-2.0646	-1.4729	-2.2812	-1.8792	-2.1146	-2.4229	-1.6958	-2.1542	181.155	49.979	40.896	256.940	179.176	110.592	351.758	334.450	372.341	366.311	216.724	332.759	286.696	80.085	266.802	314.983	0.00052613	0.00047579	0.00012138	1073.9	3.7074e-06	2.9972e-06	1161.9	221.25	1.5e-06	4.6134e-06	282.84	80.082	63.608	18.598	1.3832e-06	26.025	0.00012807	0.00011535	3.2398e-05	1041.8	1.2984e-06	1.3112e-06	1137.4	218.02	1.3452e-06	1.3091e-06	268.36	79.004	60.596	18.502	1.3058e-06	25.793	59.749	131.038	97.076	35.315	149.248	46.737	35.501	43.171	181.278	211.985	42.599	49.449	50.522	56.832	252.746	56.208	-8191	255	
1136.447	1	1	0	0	0.12329	0.27712	0.26083	0.18215	0.034843	0.40774	0.12747	0.21425	0.097774	0.15173	0.20486	0.25083	0.12002	0.08026	0.10241	0.12488	-1.675	-1.8188	-2.2062	-2.025	-1.6562	-2.2313	-1.8937	-2.2417	-2.0729	-1.7062	-2.2583	-1.9333	-1.7479	-2.2271	-1.9062	-2.1917	64.358	118.746	318.056	118.692	70.345	263.349	329.694	307.593	106.895	273.734	328.885	294.011	241.611	267.863	266.556	27.506	0.00052012	0.00032409	4.1638e-05	1075.9	4.1418e-06	1.9469e-06	1165.9	222.62	5.391e-07	3.0122e-06	282.07	79.517	63.849	18.489	3.752e-06	25.958	0.00013065	0.00011745	3.2814e-05	1044.2	1.2915e-06	1.2497e-06	1138.3	218.45	1.2509e-06	1.2409e-06	267.87	78.85	60.624	18.486	1.2572e-06	25.854	54.003	165.329	128.584	35.332	184.341	203.135	35.524	43.195	241.529	145.451	43.541	49.309	50.667	57.004	153.831	56.124	-8191	255	
1136.543	1	1	0	0	0.070391	0.02542	0.12924	0.24368	0.13595	0.15293	0.2187	0.14638	0.08514	0.24036	0.2418	0.31223	0.20033	0.16929	0.12666	0.092597	-1.7167	-1.6187	-1.9875	-1.8813	-1.6875	-2.2833	-2.1708	-2.0646	-2.1708	-1.8146	-2.0146	-2.0708	-1.8458	-2.3583	-1.9292	-1.7979	283.760	158.253	362.235	365.382	40.350	61.724	344.399	82.633	297.313	327.959	40.727	340.491	323.676	277.913	315.667	286.430	0.00049095	0.00015304	4.4078e-05	1074.3	2.8391e-06	5.4428e-06	1170.1	223.99	1.8012e-06	7.1262e-07	282.94	80.23	63.64	18.714	5.704e-06	26.022	0.00012436	0.00011581	3.1194e-05	1043.3	1.2686e-06	1.2682e-06	1139.5	218.97	1.2488e-06	1.2548e-06	268.81	78.862	60.43	18.525	1.2355e-06	25.899	43.942	177.324	185.904	35.683	117.489	270.084	35.415	43.210	155.466	115.185	42.642	49.232	50.340	56.906	156.687	56.418	-8191	255	
1136.639	1	1	0	0	0.29111	0.14608	0.11165	0.29749	0.17659	0.11602	0.29001	0.45412	0.10486	0.11311	0.11876	0.23209	0.052433	0.30521	0.24693	0.16049	-1.5146	-2	-2.1208	-2.0687	-1.7833	-2.2562	-2.2521	-2.1375	-2.1188	-1.6063	-2.2146	-2.2208	-1.7979	-2.2792	-1.9	-1.8417	177.607	364.040	101.650	304.892	211.213	187.233	278.195	329.865	266.746	219.877	37.684	268.986	183.563	276.596	361.247	341.151	0.00057512	0.00013702	2.543e-05	1078.7	6.6822e-06	4.2682e-06	1167.5	222.35	3.8545e-07	4.8678e-06	283.25	80.381	63.908	18.63	2.9311e-06	26.122	0.0001245	0.00011496	3.2196e-05	1045.4	1.2778e-06	1.2551e-06	1141.7	218.89	1.3038e-06	1.2798e-06	269.41	79.068	60.763	18.546	1.2897e-06	25.903	46.737	141.497	174.320	35.467	169.323	181.402	35.534	43.406	229.280	226.078	42.646	49.133	50.053	57.226	147.123	56.188	-8191	255	
1136.758	1	1	0	0	0.089692	0.094785	0.11081	0.17634	0.11212	0.13398	0.32723	0.21255	0.10346	0.19974	0.13775	0.21965	0.22408	0.25845	0.14717	0.22186	-1.8354	-1.8729	-2.025	-2.2625	-1.6729	-2.175	-2.2958	-1.7958	-2.2979	-1.7146	-1.8354	-2.2333	-1.5875	-2.1625	-2.0563	-1.8667	268.344	59.496	35.257	275.094	82.339	225.937	359.608	383.869	354.826	152.669	229.882	367.775	72.520	351.272	214.066	296.832	0.0006142	0.00023129	4.4801e-05	1082.9	6.0771e-06	1.7919e-06	1162.7	223.75	2.2568e-06	9.2718e-07	282.36	80.241	63.803	18.625	1.1622e-06	26.032	0.00012651	0.00011781	3.2967e-05	1050	1.302e-06	1.3033e-06	1142.1	219.7	1.268e-06	1.2864e-06	269.57	79.045	60.839	18.588	1.247e-06	25.914	40.927	122.552	129.766	35.617	150.568	243.433	35.599	42.937	113.637	270.284	42.021	49.065	50.012	56.697	381.262	56.176	-8191	255	
1136.854	1	1	0	0	0.080299	0.098459	0.13911	0.15148	0.25708	0.2334	0.13658	0.13475	0.12958	0.21047	0.26675	0.11415	0.10478	0.19031	0.23379	0.11232	-1.8438	-1.7917	-2.0687	-2.2583	-1.6708	-2.0208	-2.3125	-1.9625	-2.2833	-2.0146	-2.1042	-2	-1.6354	-2.1542	-2.1875	-2.0563	356.018	114.066	277.360	289.408	355.195	203.173	245.855	103.285	349.387	267.632	377.515	298.382	365.022	189.242	306.913	310.522	0.00061539	0.00041902	8.5601e-05	1081	6.2848e-06	1.6973e-06	1169.3	222.94	4.9708e-06	3.9105e-06	282.62	80.792	64.505	18.523	3.0426e-06	26.053	0.00012281	0.0001111	3.092e-05	1047	1.2343e-06	1.1818e-06	1142.8	219.25	1.2208e-06	1.2013e-06	269.73	79.45	60.999	18.553	1.2012e-06	25.968	52.750	165.309	176.435	35.681	138.489	182.495	35.369	43.313	187.154	186.129	42.919	49.258	49.984	56.628	207.387	56.319	-8191	255	
1136.950	1	1	0	0	0.035028	0.1767	0.42434	0.081381	0.20186	0.1607	0.1476	0.12256	0.24062	0.33476	0.14075	0.01252	0.23936	0.27105	0.082811	0.13044	-1.9625	-1.9104	-1.8917	-2.3625	-1.7021	-2.1229	-2.4354	-1.85	-1.9854	-1.8188	-1.8958	-2.4167	-1.8062	-2.0125	-2.275	-2	34.660	161.373	124.588	279.477	181.337	226.868	239.124	330.564	231.914	242.214	156.011	48.405	63.064	212.888	343.956	281.099	0.00052715	0.00022047	4.6156e-05	1083.4	3.1374e-07	1.4119e-06	1172.7	222.57	5.3111e-06	5.9661e-06	283.57	80.733	64.207	18.733	4.1919e-06	25.949	0.0001187	0.00010971	3.0306e-05	1049.4	1.2394e-06	1.1844e-06	1145.3	219.73	1.2119e-06	1.195e-06	270.1	79.43	61.046	18.669	1.1965e-06	25.957	62.748	130.985	161.699	35.446	166.693	160.428	35.540	43.144	220.041	158.403	42.619	49.563	49.866	56.804	155.993	56.338	-8191	255	
1137.046	1	1	0	0	0.090136	0.17235	0.10095	0.084383	0.12494	0.17327	0.14417	0.17555	0.24127	0.25317	0.11722	0.1931	0.061592	0.224	0.22716	0.20359	-1.8167	-1.8104	-1.7542	-2.3771	-1.775	-1.8479	-2.1979	-1.7479	-2.3	-1.875	-2.1396	-2.3667	-1.85	-1.9438	-2.0479	-1.4958	139.576	315.707	257.373	52.018	353.826	383.072	262.653	30.673	125.313	272.502	123.763	334.935	69.644	347.776	109.034	150.558	0.00052231	0.000336	0.00010064	1084	3.6739e-06	1.638e-06	1167.4	224.79	1.8577e-06	7.2314e-06	285.43	80.43	64.253	18.58	2.553e-06	26.08	0.00012038	0.00010861	3.0494e-05	1049.9	1.1846e-06	1.1956e-06	1144.2	220.51	1.186e-06	1.1512e-06	270.64	79.383	60.911	18.606	1.1694e-06	25.977	46.899	107.428	100.477	35.602	68.127	172.933	35.566	43.202	135.930	168.284	42.560	49.482	50.000	56.955	207.224	56.374	-8191	255	
1137.167	1	1	0	0	0.14806	0.040891	0.31356	0.1537	0.075479	0.16688	0.13	0.10617	0.095447	0.25114	0.28298	0.1141	0.061424	0.20912	0.21238	0.20437	-1.5854	-2.075	-1.7687	-2.6104	-1.8625	-1.7125	-2.3104	-1.8958	-2.0708	-1.9979	-1.7729	-2.3979	-1.9604	-1.8208	-2.1312	-1.8521	120.496	340.377	48.300	276.202	236.549	218.107	333.495	377.892	204.576	107.451	57.622	31.968	239.118	383.552	213.118	341.206	0.00040499	0.00039855	7.07e-05	1078.9	3.6592e-06	2.1506e-06	1172.9	223.48	3.5116e-06	5.588e-06	285.07	80.382	63.54	18.691	3.838e-06	26.193	0.00011707	0.00010572	2.9908e-05	1046.6	1.1876e-06	1.1896e-06	1143.8	219.83	1.1769e-06	1.1807e-06	270.11	79.345	60.837	18.589	1.1533e-06	25.968	45.680	101.979	369.550	35.565	167.982	201.305	35.650	43.153	156.124	173.671	42.595	49.493	49.290	57.024	152.570	56.119	-8191	255	
1137.239	1	1	0	0	0.051068	0.24282	0.1776	0.12086	0.083705	0.088812	0.39096	0.25008	0.10441	0.2692	0.19336	0.07701	0.13379	0.066257	0.13998	0.25987	-1.5812	-2.1021	-1.675	-2.4792	-1.7354	-1.9667	-2.7313	-2.0187	-1.8146	-2.0958	-1.8125	-2.5479	-2.0542	-1.8958	-2.1896	-1.8229	307.068	112.346	215.253	359.040	69.449	255.820	294.772	268.712	228.273	284.511	92.485	119.564	61.965	170.889	353.441	73.372	0.0005286	0.00026874	5.8087e-05	1079.8	5.1075e-06	2.402e-06	1163.9	224.91	2.4049e-06	3.5641e-06	284.49	80.579	64.755	18.761	2.4324e-06	25.947	0.00012033	0.00010939	3.0243e-05	1046.1	1.2288e-06	1.164e-06	1141.5	220.54	1.2196e-06	1.2083e-06	270.39	79.287	60.991	18.644	1.1989e-06	25.901	56.032	118.771	143.977	35.567	181.015	153.592	35.568	43.255	239.565	229.702	42.958	49.247	50.774	57.097	150.743	55.997	-8191	255	
1137.335	1	1	0	0	0.13072	0.19845	0.29867	0.089657	0.18805	0.23262	0.43801	0.2825	0.13818	0.25738	0.24579	0.092269	0.10731	0.12115	0.16381	0.053347	-1.6167	-2.1542	-1.7167	-2.2292	-1.9396	-1.7458	-2.425	-1.9937	-1.7354	-1.9667	-1.8312	-2.1833	-2.2479	-1.6021	-2.3563	-1.9937	94.561	195.333	71.631	343.075	271.559	341.588	284.843	361.434	234.885	342.887	288.382	338.334	300.045	187.866	46.805	162.673	0.00047855	0.00025411	0.00010614	1076.9	7.6867e-06	2.9548e-06	1165.5	223.81	2.0415e-06	2.5148e-06	284.71	80.225	63.698	18.667	2.1985e-06	26.127	0.00011835	0.00010845	3.0722e-05	1046	1.2406e-06	1.1503e-06	1138.3	220.07	1.1812e-06	1.1643e-06	270.53	79.237	60.921	18.584	1.1164e-06	25.86	49.076	152.329	144.661	35.682	153.179	84.091	35.547	43.212	118.901	108.725	42.964	49.651	50.391	57.269	159.190	56.141	-8191	255	
1137.431	1	1	0	0	0.24116	0.22831	0.22505	0.0889	0.18933	0.04265	0.34903	0.22098	0.19187	0.16738	0.017183	0.10355	0.33825	0.33371	0.1656	0.27198	-1.6229	-2.1271	-1.5979	-2.0042	-2.1021	-1.8438	-2.5333	-1.9438	-1.9396	-2.225	-1.8625	-2.225	-1.8354	-1.6271	-2.3333	-1.975	238.380	74.252	28.265	385.153	95.765	145.895	358.585	123.404	186.694	111.385	251.137	326.441	82.639	273.115	304.207	296.383	0.00054218	0.00034055	7.9117e-05	1075.2	6.6902e-06	3.2292e-06	1161.8	221.68	2.8979e-06	3.9839e-06	280.44	79.419	63.845	18.559	1.3067e-06	25.859	0.00011125	9.724e-05	2.7198e-05	1038.3	1.0525e-06	1.0212e-06	1129.1	218.1	1.0235e-06	9.895e-07	265.75	78.107	59.915	18.316	9.5417e-07	25.494	49.091	196.717	86.918	35.461	174.658	201.522	35.496	43.174	146.318	174.482	42.420	49.300	50.349	57.094	133.524	56.249	-8191	255	
1137.550	1	1	0	0	0.1361	0.1056	0.1032	0.19045	0.077673	0.024917	0.17381	0.41989	0.21034	0.058636	0.28463	0.27073	0.28618	0.18733	0.080523	0.067533	-1.7146	-2.4479	-1.8333	-1.9417	-2.1917	-1.9021	-2.5479	-2.1771	-1.9792	-2.1771	-1.8188	-2.0229	-2.2417	-1.8021	-2.0958	-1.9958	218.229	92.703	246.992	346.336	276.800	121.852	360.004	365.842	96.619	187.197	380.213	288.250	262.853	319.306	351.525	350.511	0.00053794	0.0001522	4.7526e-05	1054.3	3.9137e-06	2.2269e-06	1137.3	218.78	3.9296e-06	3.0331e-06	276.75	78.739	62.638	18.247	3.1352e-06	25.556	9.8383e-05	8.6674e-05	2.4088e-05	1022.5	9.8032e-07	9.4935e-07	1111.8	215.11	9.8894e-07	9.5385e-07	262.55	77.352	59.142	18.152	9.6465e-07	25.385	53.984	130.875	109.619	35.678	231.913	200.750	35.549	43.150	161.988	217.338	42.663	49.793	50.765	57.083	166.897	56.513	-8191	255	
1137.646	1	1	0	0	0.48677	0.26417	0.14889	0.039057	0.16302	0.15587	0.16717	0.0071282	0.097402	0.19817	0.10773	0.16079	0.30691	0.10865	0.040523	0.28956	-1.2188	-2.3063	-1.9062	-1.8125	-2.2167	-1.9562	-2.1542	-2.0083	-1.7417	-2.0875	-1.7917	-1.8687	-2.2667	-1.7812	-2.1542	-2.2854	208.216	30.764	294.276	358.333	26.528	211.191	300.336	171.705	351.577	97.294	365.184	344.274	361.494	370.680	315.130	340.434	0.00050449	0.00039789	7.3009e-05	1047.5	3.1716e-06	2.5898e-06	1135.6	218.16	2.936e-06	3.6746e-07	278.06	79.086	62.371	18.192	1.5332e-06	25.578	9.964e-05	8.5028e-05	2.4084e-05	1014	9.6094e-07	9.2437e-07	1106.6	214.01	9.5804e-07	9.1686e-07	261.76	77.427	58.864	18.064	9.0852e-07	25.219	60.963	126.434	100.731	35.851	126.643	190.029	35.679	43.128	162.124	151.267	42.067	49.792	50.118	56.925	42.054	56.123	-8191	255	
1137.742	1	1	0	0	0.16413	0.12708	0.13213	0.27803	0.039491	0.1361	0.29922	0.010419	0.19796	0.12598	0.20828	0.059054	0.057405	0.08946	0.30232	0.31824	-1.1458	-2.3083	-1.9104	-2.0646	-2.1917	-1.8292	-2.2	-2.4542	-1.6938	-2.275	-1.7958	-1.9833	-2.2188	-1.8375	-1.925	-2.2583	373.575	349.434	39.210	309.446	147.525	143.393	342.203	334.355	364.639	41.794	334.717	225.768	105.419	267.804	137.396	323.668	0.00054638	0.00030345	7.7348e-05	1041.6	2.1989e-06	1.2909e-06	1126.9	217.68	5.1563e-06	3.1391e-06	277.63	78.135	62.898	18.16	7.3702e-07	25.386	9.4597e-05	8.1121e-05	2.3109e-05	1009.4	9.25e-07	9.3495e-07	1102.2	213.71	9.375e-07	9.0023e-07	261.36	77.184	58.919	18.052	9.2067e-07	25.229	53.955	156.403	103.258	35.535	197.579	134.523	35.646	43.306	176.013	182.637	43.040	49.855	49.848	57.244	207.274	55.987	-8191	255	
1137.838	1	1	0	0	0.082404	0.13439	0.15585	0.079899	0.20455	0.064986	0.097607	0.095008	0.22706	0.11017	0.12722	0.18128	0.22097	0.28694	0.30359	0.14032	-1.275	-2.0438	-1.8125	-1.9229	-2.3833	-1.8292	-2.1375	-2.1562	-1.4479	-2.1333	-2.0771	-1.875	-2.2812	-2.0396	-1.9375	-2.1542	109.886	318.903	254.999	243.743	236.085	28.335	261.804	291.365	365.660	32.756	152.540	288.435	71.109	330.960	279.370	269.902	0.00051859	0.00014041	8.4903e-05	1042.1	3.5175e-06	2.3594e-06	1130.8	216.45	4.3191e-06	3.993e-06	276.34	78.635	62.316	18.211	3.3307e-06	25.529	9.4572e-05	8.1477e-05	2.2866e-05	1010.9	9.518e-07	9.3587e-07	1103.6	213.42	9.6807e-07	9.1598e-07	261.59	77.215	58.986	18.09	9.4633e-07	25.241	59.866	84.123	121.079	35.649	159.427	197.936	35.674	43.379	186.703	213.860	42.882	49.935	50.573	57.119	127.624	56.559	-8191	255	
1137.935	1	1	0	0	0.081755	0.32207	0.10039	0.22592	0.23111	0.17296	0.31909	0.16648	0.080255	0.13313	0.19432	0.14751	0.09419	0.17418	0.05389	0.087773	-1.3021	-2.1833	-2.0604	-1.8354	-2.0187	-2.0292	-2.2354	-2.4458	-1.6292	-2.1333	-2.1375	-1.9042	-2.1729	-1.9146	-2.0438	-2.1854	313.004	105.971	179.348	370.148	106.972	180.961	288.839	180.989	346.695	159.005	27.223	265.710	163.414	261.342	153.554	312.467	0.00054219	0.00028461	3.0612e-05	1044.8	2.9556e-06	1.2766e-06	1132.8	217.56	2.2287e-06	1.487e-06	277.49	78.187	62.85	18.309	3.5629e-06	25.593	9.9666e-05	8.4791e-05	2.4421e-05	1013.9	9.6508e-07	9.7051e-07	1103.7	213.47	9.799e-07	9.1384e-07	262.26	77.226	59.18	18.124	9.4604e-07	25.34	53.771	156.143	121.073	35.666	189.457	152.672	35.702	43.500	154.902	118.361	42.875	49.673	49.794	56.974	157.835	56.409	-8191	255	
1138.031	1	1	0	0	0.12768	0.27393	0.14991	0.20413	0.17888	0.17215	0.12151	0.53022	0.32758	0.18687	0.28467	0.3297	0.16402	0.15071	0.14161	0.19309	-1.2896	-2.2458	-2.1458	-1.6771	-2.3229	-2.1	-2.0333	-2.2333	-1.8292	-2.0938	-1.9104	-1.7375	-2.1688	-1.9458	-1.9792	-2.4	266.020	73.327	265.171	48.620	120.392	63.425	244.439	317.090	118.738	366.716	323.599	374.026	287.015	39.114	110.757	247.600	0.0005073	0.00029598	7.9582e-05	1045.2	2.602e-06	3.1012e-06	1131.5	218.16	2.3422e-06	3.018e-06	278.86	78.499	62.015	18.37	3.1813e-06	25.654	9.5571e-05	8.5066e-05	2.4043e-05	1011.5	9.6099e-07	9.085e-07	1106	213.58	9.4521e-07	9.3542e-07	261.84	77.258	58.801	18.126	9.0189e-07	25.278	47.280	157.035	73.530	35.368	135.916	170.383	35.786	43.394	139.955	187.944	42.799	49.668	50.535	57.077	134.268	56.685	-8191	255	
