BOXY.EXE: ISS Imagent and Oximeter Data Acquisition Program Version 0.80
Ascii Record File

#ACQ INFORMATION
2  Detector Channels 
16  External MUX Channels 
1  Auxiliary Channels 
5000  Waveform (CCF) Frequency (Hz)
1  Waveforms Skipped 
30  Waveforms Averaged 
1  Cycles Averaged 
16  Acquisitions per Waveform 
10.0806  Updata Rate (Hz) 

#FILE INFORMATION
TRUE -- External MUX Channel results are PARSED.
FALSE -- AC DC and Phase are NOT grouped.
TRUE -- Companion Program Settings File CREATED.
FALSE -- AC data not excluded
FALSE -- DC data not excluded
FALSE -- Phase data not excluded
FALSE -- Auxillary Chn. data not excluded
Tab delimiters

#CALIBRATION STATE
TRUE -- Waveform Calibration Values APPLIED.


#AUX CALIBRATION VALUES
Val Type	aux-1	

Term	1.0000e+00	
Factor	0.0000e+00	


#WF CALIBRATION VALUES
A = Detector Channel
Val Type	A-AC1	A-AC2	A-AC3	A-AC4	A-AC5	A-AC6	A-AC7	A-AC8	A-AC9	A-AC10	A-AC11	A-AC12	A-AC13	A-AC14	A-AC15	A-AC16	A-DC1	A-DC2	A-DC3	A-DC4	A-DC5	A-DC6	A-DC7	A-DC8	A-DC9	A-DC10	A-DC11	A-DC12	A-DC13	A-DC14	A-DC15	A-DC16	A-Ph1	A-Ph2	A-Ph3	A-Ph4	A-Ph5	A-Ph6	A-Ph7	A-Ph8	A-Ph9	A-Ph10	A-Ph11	A-Ph12	A-Ph13	A-Ph14	A-Ph15	A-Ph16	

Term	0.00000e+00	0.00000e+00	0.00000e+00	0.00000e+00	0.00000e+00	0.00000e+00	0.00000e+00	0.00000e+00	0.00000e+00	0.00000e+00	0.00000e+00	0.00000e+00	0.00000e+00	0.00000e+00	0.00000e+00	0.00000e+00	0.00000e+00	0.00000e+00	0.00000e+00	0.00000e+00	0.00000e+00	0.00000e+00	0.00000e+00	0.00000e+00	0.00000e+00	0.00000e+00	0.00000e+00	0.00000e+00	0.00000e+00	0.00000e+00	0.00000e+00	0.00000e+00	0.00000e+00	0.00000e+00	0.00000e+00	0.00000e+00	0.00000e+00	0.00000e+00	0.00000e+00	0.00000e+00	0.00000e+00	0.00000e+00	0.00000e+00	0.00000e+00	0.00000e+00	0.00000e+00	0.00000e+00	0.00000e+00	
Factor	1.00000e+00	1.00000e+00	1.00000e+00	1.00000e+00	1.00000e+00	1.00000e+00	1.00000e+00	1.00000e+00	1.00000e+00	1.00000e+00	1.00000e+00	1.00000e+00	1.00000e+00	1.00000e+00	1.00000e+00	1.00000e+00	1.00000e+00	1.00000e+00	1.00000e+00	1.00000e+00	1.00000e+00	1.00000e+00	1.00000e+00	1.00000e+00	1.00000e+00	1.00000e+00	1.00000e+00	1.00000e+00	1.00000e+00	1.00000e+00	1.00000e+00	1.00000e+00	X	X	X	X	X	X	X	X	X	X	X	X	X	X	X	X	

B = Detector Channel
Val Type	B-AC1	B-AC2	B-AC3	B-AC4	B-AC5	B-AC6	B-AC7	B-AC8	B-AC9	B-AC10	B-AC11	B-AC12	B-AC13	B-AC14	B-AC15	B-AC16	B-DC1	B-DC2	B-DC3	B-DC4	B-DC5	B-DC6	B-DC7	B-DC8	B-DC9	B-DC10	B-DC11	B-DC12	B-DC13	B-DC14	B-DC15	B-DC16	B-Ph1	B-Ph2	B-Ph3	B-Ph4	B-Ph5	B-Ph6	B-Ph7	B-Ph8	B-Ph9	B-Ph10	B-Ph11	B-Ph12	B-Ph13	B-Ph14	B-Ph15	B-Ph16	

Term	0.00000e+00	0.00000e+00	0.00000e+00	0.00000e+00	0.00000e+00	0.00000e+00	0.00000e+00	0.00000e+00	0.00000e+00	0.00000e+00	0.00000e+00	0.00000e+00	0.00000e+00	0.00000e+00	0.00000e+00	0.00000e+00	0.00000e+00	0.00000e+00	0.00000e+00	0.00000e+00	0.00000e+00	0.00000e+00	0.00000e+00	0.00000e+00	0.00000e+00	0.00000e+00	0.00000e+00	0.00000e+00	0.00000e+00	0.00000e+00	0.00000e+00	0.00000e+00	1.75774e+01	-1.46235e+02	-1.17124e+02	-1.81868e+02	-8.91195e+01	-6.48731e+01	-1.55593e+02	-1.62015e+02	-9.75022e+01	-8.17833e+01	-1.72047e+02	-1.70197e+02	-1.80263e+02	-1.76670e+02	-7.13823e+01	-1.48961e+02	
Factor	4.51161e-05	1.29920e-04	3.80509e-05	1.84395e-01	1.28156e-06	1.39230e-06	1.71929e-01	6.00013e-02	1.74208e-06	1.47441e-06	9.93773e-02	3.72057e-02	2.45678e-02	1.02851e-02	1.73701e-06	1.47878e-02	1.01581e-06	1.03816e-06	2.88466e-07	9.16057e-02	1.13405e-08	1.13887e-08	8.04221e-02	2.97712e-02	1.13638e-08	1.13723e-08	4.69853e-02	1.74268e-02	1.22168e-02	5.05173e-03	1.13582e-08	6.97409e-03	X	X	X	X	X	X	X	X	X	X	X	X	X	X	X	X	



#DISTANCE SETTINGS
A = Detector Channel
A-1	A-2	A-3	A-4	A-5	A-6	A-7	A-8	A-9	A-10	A-11	A-12	A-13	A-14	A-15	A-16	

2.5000e+00	3.0000e+00	2.5000e+00	3.0000e+00	2.0000e+00	3.0000e+00	1.5000e+00	3.0000e+00	3.0000e+00	3.0000e+00	3.0000e+00	3.0000e+00	3.0000e+00	3.0000e+00	1.5000e+00	3.0000e+00	

B = Detector Channel
B-1	B-2	B-3	B-4	B-5	B-6	B-7	B-8	B-9	B-10	B-11	B-12	B-13	B-14	B-15	B-16	

1.0000e+01	1.0000e+01	1.0000e+01	1.4400e+00	1.0000e+01	1.0000e+01	1.5100e+00	1.9400e+00	1.0000e+01	1.0000e+01	1.9900e+00	2.4900e+00	2.4100e+00	2.9000e+00	1.0000e+01	2.9800e+00	




#DATA BEGINS
time	group	step	mark	flag	A-AC1	A-AC2	A-AC3	A-AC4	A-AC5	A-AC6	A-AC7	A-AC8	A-AC9	A-AC10	A-AC11	A-AC12	A-AC13	A-AC14	A-AC15	A-AC16	A-DC1	A-DC2	A-DC3	A-DC4	A-DC5	A-DC6	A-DC7	A-DC8	A-DC9	A-DC10	A-DC11	A-DC12	A-DC13	A-DC14	A-DC15	A-DC16	A-Ph1	A-Ph2	A-Ph3	A-Ph4	A-Ph5	A-Ph6	A-Ph7	A-Ph8	A-Ph9	A-Ph10	A-Ph11	A-Ph12	A-Ph13	A-Ph14	A-Ph15	A-Ph16	B-AC1	B-AC2	B-AC3	B-AC4	B-AC5	B-AC6	B-AC7	B-AC8	B-AC9	B-AC10	B-AC11	B-AC12	B-AC13	B-AC14	B-AC15	B-AC16	B-DC1	B-DC2	B-DC3	B-DC4	B-DC5	B-DC6	B-DC7	B-DC8	B-DC9	B-DC10	B-DC11	B-DC12	B-DC13	B-DC14	B-DC15	B-DC16	B-Ph1	B-Ph2	B-Ph3	B-Ph4	B-Ph5	B-Ph6	B-Ph7	B-Ph8	B-Ph9	B-Ph10	B-Ph11	B-Ph12	B-Ph13	B-Ph14	B-Ph15	B-Ph16	aux-1	digaux	

861.153	1	1	0	512	0.22934	0.041771	0.13629	0.14948	0.15869	0.11721	0.11907	0.035747	0.063945	0.22582	0.30246	0.3012	0.3103	0.13817	0.31351	0.11904	0.14583	0.097917	0.49583	-0.525	0.10833	0.2	-0.74375	0.2	-0.1625	-0.30625	0.22083	-0.2375	0.13333	-0.077083	-0.40833	0.29583	189.432	180.724	73.339	325.549	48.249	390.494	303.438	108.565	234.758	271.754	392.282	76.175	308.653	305.031	351.689	328.143	0.0013037	0.00064374	0.00014309	962.41	6.3265e-06	2.4826e-06	792.43	405.53	5.4086e-06	5.7268e-06	339.7	153.57	182.14	102.53	6.8976e-06	88.558	0.00012188	9.5643e-05	2.7497e-05	895.1	1.0658e-06	1.0673e-06	737.05	374.94	1.0723e-06	1.067e-06	311.1	138.66	167.48	93.602	1.088e-06	79.759	298.174	105.748	156.897	58.222	192.320	154.370	56.281	62.497	189.166	192.462	59.266	62.591	65.916	68.755	192.516	64.120	-8191	255	
861.249	1	1	0	0	0.048884	0.1144	0.16541	0.21115	0.063712	0.017387	0.31488	0.078878	0.15697	0.10911	0.24157	0.41035	0.24973	0.22087	0.07985	0.23092	0.17292	-0.15417	0.50833	-0.49375	0.15625	0.19167	-0.64583	0.15625	-0.15417	-0.15417	0.3375	-0.44583	0.0125	0.19375	-0.41458	0.24583	57.269	358.288	93.738	372.530	303.832	239.941	305.769	117.723	105.288	294.086	309.541	368.968	377.160	58.267	117.101	350.413	0.0011917	0.00053857	1.9323e-05	961.79	5.9692e-06	7.993e-06	788.25	402.99	4.2041e-06	6.361e-06	341.1	153.02	182.51	101.9	7.7711e-06	88.37	0.00011826	9.6376e-05	2.6972e-05	894.67	1.0774e-06	1.0618e-06	733.44	373.13	1.0867e-06	1.0308e-06	310.54	138.48	167.62	93.372	1.0822e-06	79.683	295.344	100.221	77.964	58.260	166.237	152.790	56.136	62.474	171.844	155.917	59.186	63.007	65.740	68.567	198.536	64.183	-8191	255	
861.345	1	1	0	0	0.1529	0.097313	0.15145	0.24463	0.25162	0.14295	0.32566	0.069828	0.2049	0.069553	0.18672	0.057782	0.38928	0.40289	0.25714	0.23458	0.26875	-0.18333	0.41042	-0.27292	-0.054167	0.3125	-0.48542	0.11042	0.022917	-0.43125	0.25208	-0.33542	-0.21042	0.21667	-0.18958	0.16875	352.128	152.338	140.124	106.674	347.957	295.837	369.102	343.966	333.507	263.754	98.297	303.967	73.106	367.109	383.951	341.968	0.0012943	0.00061499	0.00013094	964.75	4.6113e-06	3.0521e-06	792.79	402.88	6.9732e-06	3.95e-06	342.07	154	182.41	102.09	8.8586e-06	88.827	0.00011987	9.5972e-05	2.7119e-05	892.54	1.0801e-06	1.0657e-06	734.61	373	1.079e-06	1.0634e-06	311.55	139.06	167.46	93.458	1.0832e-06	79.977	297.330	141.475	160.863	58.450	184.976	220.720	56.521	62.478	190.150	172.139	59.358	62.963	65.888	68.885	183.582	64.427	-8191	255	
861.441	1	1	0	0	0.14435	0.16361	0.047334	0.22327	0.051195	0.21451	0.10631	0.016421	0.12688	0.12199	0.28135	0.34262	0.21788	0.39151	0.37286	0.31222	0.51875	-0.35417	0.54167	-0.26458	-0.052083	0.19375	-0.30625	-0.041667	0.41042	-0.39583	0.35	-0.26042	-0.26458	0.083333	-0.39792	-0.0375	160.753	200.460	247.500	297.999	360.577	220.708	343.304	227.572	271.498	369.616	48.077	349.773	240.936	391.374	150.551	294.894	0.0013323	0.00041246	7.5812e-05	961.6	6.1795e-06	7.0726e-06	794.25	404.73	4.6527e-06	9.4227e-06	343.67	154.34	182.04	101.87	9.2855e-06	88.732	0.00012064	9.6354e-05	2.7124e-05	891.66	1.103e-06	1.0535e-06	737.26	373.8	1.1156e-06	1.0478e-06	312.23	139.3	167.58	93.384	1.1158e-06	80.257	301.670	112.495	130.416	58.334	155.011	184.588	56.569	62.734	145.308	163.982	59.190	63.220	65.881	68.941	194.865	64.425	-8191	255	
861.538	1	1	0	0	0.0076724	0.12783	0.092676	0.39628	0.11852	0.10822	0.35287	0.28533	0.068051	0.21715	0.082687	0.16926	0.19054	0.4984	0.16859	0.15304	0.59167	-0.48958	0.37083	-0.11667	-0.20208	0.425	-0.36042	-0.32292	0.25417	-0.49792	0.34167	-0.13125	-0.42708	0.25208	-0.047917	-0.10208	350.757	224.968	84.502	325.186	320.601	90.132	360.960	326.164	311.961	278.975	402.326	100.476	357.590	365.941	98.989	318.057	0.0012594	0.00048464	0.00020043	959.44	4.4419e-06	8.4131e-06	794.98	404.92	1.1726e-05	8.687e-06	342.29	154.7	182.39	102.14	7.6826e-06	88.506	0.00012015	9.8013e-05	2.772e-05	892.97	1.0854e-06	1.0801e-06	739.41	374.29	1.1079e-06	1.0511e-06	311.91	139.35	167.43	93.515	1.082e-06	79.789	297.052	108.889	150.428	58.450	158.074	208.763	56.656	62.636	157.723	165.747	59.254	62.922	66.088	68.984	180.923	64.720	-8191	255	
861.634	1	1	0	0	0.19227	0.1528	0.18045	0.25477	0.3138	0.083249	0.073681	0.28336	0.212	0.23871	0.15487	0.037749	0.14482	0.3407	0.13601	0.17742	0.69583	-0.48333	0.3625	0.091667	-0.28125	0.43958	-0.46458	-0.31458	0.16875	-0.24375	0.029167	0.070833	-0.675	0.13333	-0.28333	-0.65	197.875	213.704	314.447	263.835	66.096	140.579	152.915	384.335	141.320	313.106	361.142	72.831	50.458	75.266	296.039	254.413	0.0013182	0.00064709	0.00015655	958.42	5.9391e-06	8.9333e-07	794.34	403.41	8.1568e-06	3.9061e-06	340.12	152.27	181.78	101.81	4.671e-06	87.703	0.00012044	9.7669e-05	2.7122e-05	892.1	1.0624e-06	1.0635e-06	733.69	372.47	1.0952e-06	1.0589e-06	308.99	137.92	166.9	93.055	1.0673e-06	79.203	299.522	101.694	185.221	58.548	174.380	152.291	56.598	62.633	163.716	182.161	59.160	63.264	66.175	69.041	152.181	64.827	-8191	255	
861.730	1	1	0	0	0.21936	0.060453	0.09995	0.11302	0.10512	0.091418	0.18882	0.15385	0.36641	0.17986	0.15185	0.30569	0.42615	0.25944	0.15632	0.066328	0.7125	-0.36042	-0.041667	0.11667	-0.50833	0.34792	-0.29167	-0.30833	0.4625	-0.49167	-0.0020833	0.23333	-0.53958	0.10208	-0.16458	-0.3875	177.359	282.796	173.633	319.528	379.192	154.832	399.848	62.399	98.336	398.635	68.673	278.577	374.028	49.687	338.478	278.830	0.001336	0.00048772	0.0001441	960.72	4.4351e-06	4.4809e-06	790.86	402.38	8.2524e-06	6.8555e-06	338.93	153.54	182.01	101.79	4.533e-06	88.185	0.00012077	9.7587e-05	2.6484e-05	891.03	1.053e-06	1.064e-06	733.09	372.27	1.1122e-06	1.075e-06	309.37	138.07	166.75	92.979	1.109e-06	79.409	299.289	121.376	111.547	58.972	195.202	211.604	56.728	62.711	122.560	188.041	59.384	63.432	66.258	68.923	216.432	64.788	-8191	255	
861.850	1	1	0	0	0.10179	0.14581	0.044512	0.2359	0.20855	0.29362	0.24654	0.23818	0.038569	0.23949	0.2299	0.1467	0.16221	0.083207	0.10593	0.28312	0.90833	-0.23958	0.058333	0.14583	-0.425	0.34792	0.14583	-0.54792	0.38542	-0.42708	0.052083	0.57083	-0.7	-0.072917	0.10833	-0.39167	323.872	213.531	403.744	389.200	158.009	144.572	53.732	323.249	148.021	125.618	210.639	383.250	340.312	394.227	247.208	60.198	0.0014486	0.00048141	0.00012242	961.2	4.9732e-06	5.131e-06	791.36	402.58	4.4355e-06	8.4594e-06	340.22	153.48	181.62	102.24	8.5985e-06	88.525	0.00012092	9.9834e-05	2.6574e-05	892.65	1.0842e-06	1.0668e-06	733.16	372.88	1.1212e-06	1.055e-06	310.32	138.41	166.79	93.276	1.1055e-06	79.793	300.961	140.034	143.842	58.618	179.162	172.946	57.058	63.048	153.320	188.875	59.610	63.617	66.273	68.890	213.257	64.702	-8191	255	
861.945	1	1	0	0	0.063538	0.34636	0.21958	0.18537	0.14429	0.13385	0.12017	0.42967	0.15862	0.070601	0.38439	0.26187	0.21009	0.19996	0.13542	0.1144	0.8875	-0.025	-0.041667	0.26875	-0.45208	0.16042	0.12708	-0.61042	0.27917	-0.2875	-0.23125	0.43125	-0.55208	-0.0375	0.30625	-0.64583	225.872	105.563	379.869	362.172	167.396	377.636	241.085	135.025	285.040	301.367	75.655	350.964	346.101	355.298	331.865	75.860	0.0013969	0.0004079	0.00011825	958.64	6.8563e-06	6.4088e-06	793.04	403.27	8.3097e-06	5.9837e-06	340.75	153.58	181.81	101.43	9.2532e-06	88.522	0.0001234	9.8759e-05	2.7358e-05	891.66	1.0932e-06	1.0661e-06	736.48	372.46	1.1021e-06	1.0587e-06	310.92	138.7	167.04	93.042	1.0864e-06	79.681	293.122	97.692	148.191	58.854	176.377	198.282	57.044	63.185	147.556	156.310	59.707	63.412	66.248	68.967	204.384	64.753	-8191	255	
862.043	1	1	0	0	0.052075	0.089416	0.21139	0.12824	0.12916	0.11781	0.29061	0.37663	0.28204	0.026278	0.33448	0.046461	0.28306	0.28901	0.082534	0.34633	0.65208	0.022917	-0.30208	0.41458	-0.45208	0.14792	0.20208	-0.74792	0.38333	-0.095833	-0.21042	0.36042	-0.40833	-0.1375	0.42292	-0.65417	346.566	98.441	218.754	136.558	206.641	155.303	320.082	301.618	342.108	185.746	403.947	342.920	378.817	360.056	298.545	347.903	0.0013947	0.00056319	2.7874e-05	957.4	4.5686e-06	4.8298e-06	787.06	402.5	6.8821e-06	7.8718e-06	338.24	153.25	180.92	101.3	9.1412e-06	87.736	0.00012112	9.9025e-05	2.7152e-05	890.32	1.0965e-06	1.0697e-06	731.47	371.36	1.1075e-06	1.0606e-06	308.19	137.83	166	92.666	1.1104e-06	78.972	300.720	103.832	136.051	58.607	177.965	196.089	57.162	63.279	205.815	161.265	58.957	63.493	66.194	68.940	205.930	64.534	-8191	255	
862.139	1	1	0	0	0.16476	0.23064	0.11073	0.10182	0.28666	0.15546	0.066701	0.20832	0.10176	0.22692	0.15945	0.026337	0.20232	0.096183	0.14537	0.22618	0.725	0.1	-0.10417	0.3875	-0.36667	-0.12917	0.2375	-0.58125	0.25208	-0.010417	-0.5625	0.16667	-0.40833	-0.35	0.31667	-0.70417	162.539	383.112	312.656	322.942	373.932	326.743	89.909	364.708	226.599	192.925	285.777	335.608	374.554	50.250	69.116	57.000	0.0014558	0.00019902	0.00016559	953.2	4.5635e-06	4.2257e-06	787.95	401.59	9.0479e-06	2.7759e-06	338.05	152.85	181.12	101.28	8.5896e-06	87.404	0.00012204	9.9756e-05	2.7485e-05	887.91	1.0916e-06	1.0827e-06	732.17	371.06	1.0922e-06	1.0681e-06	307.83	137.96	166.37	92.708	1.0977e-06	79.185	299.367	107.301	135.984	58.889	176.684	197.383	56.932	62.976	161.548	140.709	59.530	63.113	66.053	69.086	202.829	64.629	-8191	255	
862.233	1	1	0	0	0.076364	0.19439	0.15738	0.23101	0.21641	0.14345	0.059742	0.29076	0.25394	0.11282	0.056055	0.12719	0.35271	0.24549	0.08441	0.29665	0.54375	0.35	-0.30208	0.20625	-0.027083	-0.26458	0.20833	-0.60208	0.23125	0.32708	-0.66458	0.37708	-0.18958	-0.4125	0.52292	-0.27083	199.300	316.516	183.652	344.616	198.548	293.998	104.795	50.037	84.310	326.382	64.459	70.655	319.868	379.940	212.894	321.432	0.0013447	0.00074652	0.00017745	960.7	5.7254e-06	4.983e-06	787.77	400.11	7.0599e-06	6.4418e-06	340.28	153.39	180.82	101.53	7.9469e-06	88.741	0.00012006	9.8385e-05	2.7838e-05	890.45	1.0663e-06	1.0536e-06	732.68	370.67	1.0978e-06	1.0584e-06	309.48	138.27	166.07	92.784	1.1071e-06	79.684	299.777	115.594	155.767	58.577	175.828	201.484	56.962	63.029	170.701	147.427	59.209	63.321	66.329	68.795	185.990	64.548	-8191	255	
862.329	1	1	0	0	0.1268	0.29154	0.33549	0.21253	0.10441	0.065215	0.22001	0.43274	0.19639	0.0579	0.23812	0.15793	0.18068	0.41241	0.18277	0.3655	0.23542	0.31875	-0.38333	0.083333	-0.054167	-0.40833	0.41667	-0.49792	-0.10625	0.30833	-0.64167	0.083333	-0.085417	-0.37292	0.46042	-0.33333	368.783	86.857	223.888	122.302	391.715	144.116	354.451	317.530	356.261	310.719	297.351	392.183	89.601	386.194	308.199	369.011	0.0013365	0.00058842	0.00021824	959.04	5.485e-06	5.539e-06	793.05	402.8	8.5867e-06	5.3327e-06	343.63	153.98	181.57	101.25	8.6903e-06	88.552	0.00012172	9.9248e-05	2.6871e-05	890.71	1.0865e-06	1.0327e-06	736.09	371.55	1.0974e-06	1.0897e-06	311.82	138.8	166.4	92.774	1.1172e-06	79.84	296.276	100.839	166.112	58.483	207.526	158.980	56.348	62.687	149.394	188.154	59.095	62.851	65.957	68.710	199.808	64.837	-8191	255	
862.450	1	1	0	0	0.3305	0.055283	0.19516	0.10157	0.096414	0.14467	0.17197	0.20085	0.19379	0.1095	0.061229	0.15979	0.2124	0.18348	0.25563	0.20561	0.47708	0.20417	-0.34167	0.091667	0.22917	-0.35	0.43125	-0.37917	-0.15	0.51458	-0.59583	-0.0020833	0.11667	-0.66458	0.33958	-0.25833	64.211	390.411	154.702	195.663	121.184	230.508	366.949	379.731	361.719	57.990	335.214	283.148	330.809	381.407	45.173	347.259	0.0014151	0.00088388	0.00019912	956.26	1.8935e-06	5.4217e-06	789.59	402.69	1.1297e-05	4.9359e-06	338.12	152.74	180.76	100.99	9.0731e-06	87.588	0.00011983	9.7581e-05	2.6696e-05	889.85	1.0658e-06	1.0619e-06	734.63	371.61	1.079e-06	1.0849e-06	308.69	137.66	165.82	92.422	1.0998e-06	79.1	297.905	114.443	153.554	58.506	129.285	193.587	56.663	62.761	166.470	200.739	59.236	63.151	65.949	68.816	215.467	64.559	-8191	255	
862.546	1	1	0	0	0.18227	0.13024	0.098216	0.2681	0.17613	0.18072	0.051428	0.20696	0.20084	0.31005	0.09771	0.27895	0.38988	0.3507	0.090845	0.25654	0.19792	0.59167	-0.37708	-0.054167	0.58958	-0.54375	0.06875	-0.25208	-0.34167	0.4	-0.39583	-0.089583	0.22292	-0.49583	0.36042	0.10208	232.787	52.116	278.539	69.993	211.070	139.692	301.430	336.021	55.509	165.708	233.603	55.550	377.216	311.191	230.746	329.308	0.0012312	0.00066007	0.00012526	955.26	4.2674e-06	6.9065e-06	790.29	400.65	9.6296e-06	6.2248e-06	338.16	152.51	180.35	101.19	8.4744e-06	87.829	0.00012005	9.7479e-05	2.6864e-05	887.56	1.0671e-06	1.0703e-06	731.7	370.81	1.0787e-06	1.0659e-06	308.03	137.79	165.76	92.551	1.0759e-06	79.212	301.547	122.010	132.241	58.461	205.154	213.552	56.761	62.909	154.513	184.508	59.401	62.867	65.792	68.674	189.912	64.517	-8191	255	
862.642	1	1	0	0	0.27889	0.26697	0.063736	0.066778	0.056575	0.2219	0.28045	0.16485	0.11431	0.091709	0.15628	0.31322	0.30224	0.28773	0.094922	0.4149	0.12708	0.45833	-0.26875	-0.14375	0.38125	-0.30833	0.19583	0.079167	-0.44583	0.55833	-0.30417	-0.0375	0.18333	-0.62708	0.20833	0.05625	279.756	172.352	258.152	385.298	393.676	312.358	332.094	321.902	73.806	171.535	362.464	298.803	66.798	122.551	345.357	348.799	0.0014675	0.00031786	0.00017286	958.78	4.7838e-06	8.1909e-06	792	403.27	7.6164e-06	6.3323e-06	339.27	154.14	181.14	101.12	8.0192e-06	88.629	0.00011782	9.6711e-05	2.6886e-05	889.32	1.0758e-06	1.0367e-06	733.26	371.52	1.0765e-06	1.0458e-06	310.04	138.29	166.03	92.566	1.0657e-06	79.643	297.835	161.250	128.496	58.298	203.364	197.316	56.665	62.881	166.716	178.592	58.732	62.699	65.948	68.637	230.518	64.529	-8191	255	
862.714	1	1	0	0	0.13669	0.33275	0.26971	0.053867	0.12314	0.16086	0.058545	0.38188	0.23168	0.040548	0.32279	0.36698	0.25455	0.45543	0.28716	0.19201	-0.15833	0.62708	0.05625	-0.33333	0.59167	-0.2	0.052083	0.27917	-0.35208	0.22708	-0.3	-0.43958	0.18125	-0.44792	0.016667	-0.03125	254.395	194.628	128.339	378.384	255.920	341.396	183.128	366.067	227.643	76.372	323.207	352.721	400.234	343.869	354.860	131.152	0.0013698	0.00049069	0.00025927	959.92	5.0906e-06	1.95e-06	790.8	401.75	7.563e-06	1.7127e-06	343.85	153.66	181.33	101.34	7.7622e-06	89.07	0.0001196	9.6932e-05	2.6425e-05	889.46	1.0598e-06	1.0526e-06	735.1	371.54	1.0698e-06	1.0382e-06	311.7	138.99	166.38	92.874	1.0737e-06	80.084	299.816	104.362	127.685	58.169	193.302	129.055	56.371	62.786	157.298	202.728	58.838	62.810	65.921	68.799	200.517	64.280	-8191	255	
862.810	1	1	0	0	0.24381	0.15716	0.084951	0.21143	0.33055	0.34288	0.10141	0.24241	0.21866	0.17711	0.19305	0.25244	0.39111	0.41261	0.14279	0.28068	-0.12083	0.38958	0.05	-0.55833	0.43542	-0.54167	-0.11667	0.25208	-0.35208	0.44583	-0.0875	-0.48125	0.2	-0.32292	-0.070833	0.26458	49.207	220.761	284.399	378.814	310.545	173.728	312.804	391.844	167.452	299.990	377.217	70.358	400.067	365.390	400.563	338.007	0.0014741	0.00058395	0.00014007	957.93	4.3679e-06	6.243e-06	790	401.79	7.1952e-06	6.0529e-06	340.21	152.76	180.64	101.3	9.7511e-06	87.886	0.00011714	9.693e-05	2.6317e-05	887.87	1.035e-06	1.0397e-06	732.76	371.09	1.0743e-06	1.0405e-06	309.41	137.97	165.74	92.508	1.0751e-06	79.15	296.686	106.816	119.363	58.455	193.573	186.466	56.599	62.615	176.074	160.007	58.984	62.822	65.749	68.816	172.788	64.752	-8191	255	
