BOXY.EXE: ISS Imagent and Oximeter Data Acquisition Program Version 0.80
Ascii Record File

#ACQ INFORMATION
2  Detector Channels 
16  External MUX Channels 
1  Auxiliary Channels 
5000  Waveform (CCF) Frequency (Hz)
1  Waveforms Skipped 
30  Waveforms Averaged 
1  Cycles Averaged 
16  Acquisitions per Waveform 
10.0806  Updata Rate (Hz) 

#FILE INFORMATION
TRUE -- External MUX Channel results are PARSED.
FALSE -- AC DC and Phase are NOT grouped.
TRUE -- Companion Program Settings File CREATED.
FALSE -- AC data not excluded
FALSE -- DC data not excluded
FALSE -- Phase data not excluded
FALSE -- Auxillary Chn. data not excluded
Tab delimiters

#CALIBRATION STATE
TRUE -- Waveform Calibration Values APPLIED.


#AUX CALIBRATION VALUES
Val Type	aux-1	

Term	1.0000e+00	
Factor	0.0000e+00	


#WF CALIBRATION VALUES
A = Detector Channel
Val Type	A-AC1	A-AC2	A-AC3	A-AC4	A-AC5	A-AC6	A-AC7	A-AC8	A-AC9	A-AC10	A-AC11	A-AC12	A-AC13	A-AC14	A-AC15	A-AC16	A-DC1	A-DC2	A-DC3	A-DC4	A-DC5	A-DC6	A-DC7	A-DC8	A-DC9	A-DC10	A-DC11	A-DC12	A-DC13	A-DC14	A-DC15	A-DC16	A-Ph1	A-Ph2	A-Ph3	A-Ph4	A-Ph5	A-Ph6	A-Ph7	A-Ph8	A-Ph9	A-Ph10	A-Ph11	A-Ph12	A-Ph13	A-Ph14	A-Ph15	A-Ph16	

Term	0.00000e+00	0.00000e+00	0.00000e+00	0.00000e+00	0.00000e+00	0.00000e+00	0.00000e+00	0.00000e+00	0.00000e+00	0.00000e+00	0.00000e+00	0.00000e+00	0.00000e+00	0.00000e+00	0.00000e+00	0.00000e+00	0.00000e+00	0.00000e+00	0.00000e+00	0.00000e+00	0.00000e+00	0.00000e+00	0.00000e+00	0.00000e+00	0.00000e+00	0.00000e+00	0.00000e+00	0.00000e+00	0.00000e+00	0.00000e+00	0.00000e+00	0.00000e+00	0.00000e+00	0.00000e+00	0.00000e+00	0.00000e+00	0.00000e+00	0.00000e+00	0.00000e+00	0.00000e+00	0.00000e+00	0.00000e+00	0.00000e+00	0.00000e+00	0.00000e+00	0.00000e+00	0.00000e+00	0.00000e+00	
Factor	1.00000e+00	1.00000e+00	1.00000e+00	1.00000e+00	1.00000e+00	1.00000e+00	1.00000e+00	1.00000e+00	1.00000e+00	1.00000e+00	1.00000e+00	1.00000e+00	1.00000e+00	1.00000e+00	1.00000e+00	1.00000e+00	1.00000e+00	1.00000e+00	1.00000e+00	1.00000e+00	1.00000e+00	1.00000e+00	1.00000e+00	1.00000e+00	1.00000e+00	1.00000e+00	1.00000e+00	1.00000e+00	1.00000e+00	1.00000e+00	1.00000e+00	1.00000e+00	X	X	X	X	X	X	X	X	X	X	X	X	X	X	X	X	

B = Detector Channel
Val Type	B-AC1	B-AC2	B-AC3	B-AC4	B-AC5	B-AC6	B-AC7	B-AC8	B-AC9	B-AC10	B-AC11	B-AC12	B-AC13	B-AC14	B-AC15	B-AC16	B-DC1	B-DC2	B-DC3	B-DC4	B-DC5	B-DC6	B-DC7	B-DC8	B-DC9	B-DC10	B-DC11	B-DC12	B-DC13	B-DC14	B-DC15	B-DC16	B-Ph1	B-Ph2	B-Ph3	B-Ph4	B-Ph5	B-Ph6	B-Ph7	B-Ph8	B-Ph9	B-Ph10	B-Ph11	B-Ph12	B-Ph13	B-Ph14	B-Ph15	B-Ph16	

Term	0.00000e+00	0.00000e+00	0.00000e+00	0.00000e+00	0.00000e+00	0.00000e+00	0.00000e+00	0.00000e+00	0.00000e+00	0.00000e+00	0.00000e+00	0.00000e+00	0.00000e+00	0.00000e+00	0.00000e+00	0.00000e+00	0.00000e+00	0.00000e+00	0.00000e+00	0.00000e+00	0.00000e+00	0.00000e+00	0.00000e+00	0.00000e+00	0.00000e+00	0.00000e+00	0.00000e+00	0.00000e+00	0.00000e+00	0.00000e+00	0.00000e+00	0.00000e+00	1.75774e+01	-1.46235e+02	-1.17124e+02	-1.81868e+02	-8.91195e+01	-6.48731e+01	-1.55593e+02	-1.62015e+02	-9.75022e+01	-8.17833e+01	-1.72047e+02	-1.70197e+02	-1.80263e+02	-1.76670e+02	-7.13823e+01	-1.48961e+02	
Factor	4.51161e-05	1.29920e-04	3.80509e-05	1.84395e-01	1.28156e-06	1.39230e-06	1.71929e-01	6.00013e-02	1.74208e-06	1.47441e-06	9.93773e-02	3.72057e-02	2.45678e-02	1.02851e-02	1.73701e-06	1.47878e-02	1.01581e-06	1.03816e-06	2.88466e-07	9.16057e-02	1.13405e-08	1.13887e-08	8.04221e-02	2.97712e-02	1.13638e-08	1.13723e-08	4.69853e-02	1.74268e-02	1.22168e-02	5.05173e-03	1.13582e-08	6.97409e-03	X	X	X	X	X	X	X	X	X	X	X	X	X	X	X	X	



#DISTANCE SETTINGS
A = Detector Channel
A-1	A-2	A-3	A-4	A-5	A-6	A-7	A-8	A-9	A-10	A-11	A-12	A-13	A-14	A-15	A-16	

2.5000e+00	3.0000e+00	2.5000e+00	3.0000e+00	2.0000e+00	3.0000e+00	1.5000e+00	3.0000e+00	3.0000e+00	3.0000e+00	3.0000e+00	3.0000e+00	3.0000e+00	3.0000e+00	1.5000e+00	3.0000e+00	

B = Detector Channel
B-1	B-2	B-3	B-4	B-5	B-6	B-7	B-8	B-9	B-10	B-11	B-12	B-13	B-14	B-15	B-16	

1.0000e+01	1.0000e+01	1.0000e+01	1.4400e+00	1.0000e+01	1.0000e+01	1.5100e+00	1.9400e+00	1.0000e+01	1.0000e+01	1.9900e+00	2.4900e+00	2.4100e+00	2.9000e+00	1.0000e+01	2.9800e+00	




#DATA BEGINS
time	group	step	mark	flag	A-AC1	A-AC2	A-AC3	A-AC4	A-AC5	A-AC6	A-AC7	A-AC8	A-AC9	A-AC10	A-AC11	A-AC12	A-AC13	A-AC14	A-AC15	A-AC16	A-DC1	A-DC2	A-DC3	A-DC4	A-DC5	A-DC6	A-DC7	A-DC8	A-DC9	A-DC10	A-DC11	A-DC12	A-DC13	A-DC14	A-DC15	A-DC16	A-Ph1	A-Ph2	A-Ph3	A-Ph4	A-Ph5	A-Ph6	A-Ph7	A-Ph8	A-Ph9	A-Ph10	A-Ph11	A-Ph12	A-Ph13	A-Ph14	A-Ph15	A-Ph16	B-AC1	B-AC2	B-AC3	B-AC4	B-AC5	B-AC6	B-AC7	B-AC8	B-AC9	B-AC10	B-AC11	B-AC12	B-AC13	B-AC14	B-AC15	B-AC16	B-DC1	B-DC2	B-DC3	B-DC4	B-DC5	B-DC6	B-DC7	B-DC8	B-DC9	B-DC10	B-DC11	B-DC12	B-DC13	B-DC14	B-DC15	B-DC16	B-Ph1	B-Ph2	B-Ph3	B-Ph4	B-Ph5	B-Ph6	B-Ph7	B-Ph8	B-Ph9	B-Ph10	B-Ph11	B-Ph12	B-Ph13	B-Ph14	B-Ph15	B-Ph16	aux-1	digaux	

1044.186	1	1	0	512	0.095521	0.1048	0.23333	0.0057789	0.10164	0.12015	0.2579	0.18465	0.054699	0.20048	0.16721	0.22602	0.29296	0.38242	0.24877	0.12735	0.072917	-0.052083	0.43542	-0.29375	0.25208	0.25417	-0.36875	0.55833	-0.10833	0.016667	0.48958	-0.40208	0.25625	0.23958	-0.175	0.37917	154.076	289.836	254.075	99.407	293.484	212.143	370.295	78.669	350.881	216.008	182.531	353.897	392.606	364.921	206.846	353.962	0.00060673	0.00062724	0.00012645	702.8	3.9274e-06	5.4434e-06	591.55	269.08	6.4029e-06	2.5758e-06	229.41	86.238	104.65	46.471	1.3231e-05	36.475	0.00053764	0.00053636	0.00014976	714.85	5.9066e-06	5.8882e-06	600.84	269.6	5.8876e-06	5.8984e-06	237.57	88.631	104.75	46.169	5.8969e-06	37.333	303.671	124.990	55.159	48.122	214.624	232.056	46.686	53.261	182.296	116.629	50.501	55.866	58.272	61.858	193.501	57.047	-8191	255	
1044.307	1	1	0	0	0.18202	0.18129	0.038148	0.13518	0.12505	0.24885	0.1188	0.017942	0.16465	0.16392	0.15976	0.20899	0.12387	0.28151	0.046513	0.21719	0.23125	0.075	0.64167	-0.38958	0.2125	0.39375	-0.425	0.35208	-0.15208	-0.17083	0.42083	-0.37917	0.095833	0.18542	-0.30208	0.26042	46.494	377.713	263.130	195.537	364.700	71.512	240.718	227.979	153.590	358.311	94.144	283.641	128.218	372.496	93.256	338.498	0.00072502	0.00073236	0.00011794	707.3	3.4335e-06	1.0195e-05	593.89	269.03	3.1974e-06	2.2027e-06	231.04	87.168	104.83	46.528	1.2602e-05	36.652	0.00053474	0.00053876	0.00014901	716.6	5.8643e-06	5.8661e-06	604.39	269.49	5.9324e-06	5.8959e-06	238.86	89.316	104.71	46.248	5.9011e-06	37.479	279.220	124.966	306.110	47.819	145.620	222.465	46.816	53.309	156.692	371.983	50.303	55.652	58.087	61.788	267.633	57.744	-8191	255	
1044.403	1	1	0	0	0.14984	0.10631	0.086909	0.17634	0.15234	0.12451	0.33035	0.14517	0.1179	0.38511	0.091858	0.10209	0.051524	0.07135	0.11842	0.094917	0.34167	-0.36875	0.54583	-0.50417	0.00625	0.275	-0.78125	0.18958	0.2875	-0.20417	0.34167	-0.23542	-0.20833	0.25833	-0.46667	0.23542	360.345	224.584	300.571	309.172	198.306	148.668	305.971	189.664	122.484	367.200	79.934	340.428	286.215	314.811	151.522	303.660	0.00060976	0.00042957	0.00017295	709.09	3.6958e-06	5.4411e-06	601.51	268.62	1.0471e-05	8.2465e-06	234.71	87.051	104.96	46.466	2.1863e-06	37.04	0.00053448	0.00053809	0.00014947	720.02	5.8481e-06	5.8922e-06	608.2	270.43	5.9258e-06	5.8596e-06	241.05	89.453	104.74	46.194	5.8846e-06	37.566	269.422	343.842	144.347	48.346	193.137	153.764	47.043	53.291	127.500	187.582	50.369	55.376	58.188	61.661	113.336	57.665	-8191	255	
1044.475	1	1	0	0	0.086725	0.039634	0.23846	0.12629	0.23342	0.24684	0.18797	0.04776	0.091525	0.15524	0.42713	0.07772	0.17769	0.024133	0.078136	0.090045	0.6125	-0.38333	0.46667	-0.26875	-0.072917	0.49167	-0.31458	0.025	0.2	-0.35625	0.30625	-0.26875	-0.20833	0.35208	-0.31458	0.22083	100.386	135.308	322.640	334.464	216.990	57.325	51.318	309.297	112.229	217.822	362.007	305.551	51.777	240.308	267.868	142.327	0.00056938	0.00040665	0.00020322	709	6.7307e-06	1.2704e-05	596.75	268.04	7.5333e-06	3.259e-06	229.61	86.906	103.46	46.226	5.2968e-06	36.421	0.00054005	0.00053637	0.00014923	720.59	5.8341e-06	5.8882e-06	608.38	269.85	5.8872e-06	5.8841e-06	238.18	88.925	104.1	45.918	5.8485e-06	37.285	283.253	307.713	280.805	48.290	279.690	222.673	47.084	53.561	194.827	216.129	50.533	56.051	58.291	61.912	188.798	57.433	-8191	255	
1044.571	1	1	0	0	0.042071	0.181	0.23652	0.20986	0.22815	0.094266	0.12515	0.15096	0.30778	0.23105	0.030642	0.055355	0.19874	0.34018	0.17534	0.26399	0.49583	-0.33333	0.45833	-0.23958	-0.2125	0.425	-0.24167	-0.0875	0.35417	-0.55417	0.33542	-0.091667	-0.57292	0.32083	-0.24167	0.022917	320.124	160.754	266.805	311.764	79.373	260.991	234.551	42.252	293.441	184.490	277.443	254.368	391.161	333.467	363.325	384.206	0.00028465	0.0003796	8.9371e-05	707.5	5.5181e-06	5.7147e-06	599.53	269.39	4.7043e-06	7.3562e-07	230.32	86.417	104.83	46.338	3.0254e-06	36.774	0.00052979	0.0005362	0.00014902	718.51	5.8253e-06	5.9366e-06	608.91	270.05	5.8928e-06	5.8901e-06	238.52	88.997	104.56	46.06	5.8666e-06	37.468	307.189	94.266	174.493	48.098	175.539	145.874	47.087	53.463	62.125	242.493	50.374	55.933	58.126	62.009	354.684	57.579	-8191	255	
1044.692	1	1	0	0	0.21639	0.38491	0.11102	0.17938	0.28086	0.013183	0.18227	0.16915	0.14415	0.18184	0.15153	0.26398	0.16507	0.19025	0.29299	0.10066	0.925	-0.36042	0.3125	-0.21042	-0.16667	0.31667	-0.42083	-0.19375	0.5875	-0.44375	0.23333	0.20833	-0.525	0.30208	-0.13542	-0.066667	315.753	200.984	336.697	343.833	184.759	76.417	288.993	353.994	122.119	137.265	250.930	386.569	326.987	331.587	328.644	148.579	0.00061351	0.0003166	0.00020012	713	3.8433e-06	2.6416e-06	597.7	269.14	2.5652e-06	7.1086e-06	230.72	87.688	104.71	46.372	3.8473e-06	36.668	0.00053878	0.00054078	0.00014869	721.42	5.8587e-06	5.898e-06	608.2	269.97	5.8745e-06	5.8683e-06	239.19	89.703	104.68	46.22	5.8799e-06	37.682	310.445	375.498	203.532	48.261	205.066	143.770	46.922	53.712	168.114	123.509	50.750	55.819	58.260	62.100	190.634	57.383	-8191	255	
1044.788	1	1	0	0	0.17609	0.19475	0.07362	0.24189	0.16695	0.15866	0.10344	0.2099	0.094398	0.062819	0.15364	0.058811	0.11909	0.096527	0.046212	0.084786	0.85208	-0.51667	0.25417	0.17083	-0.2375	0.56042	-0.25208	-0.24792	0.34792	-0.28125	0.17917	0.095833	-0.475	0.15625	-0.175	-0.40833	252.468	389.551	193.904	62.286	341.208	55.624	142.221	196.644	256.631	392.648	89.965	274.659	322.446	89.126	358.000	322.329	0.00071362	0.000412	5.8973e-05	707.8	2.1342e-06	4.6057e-06	599.46	269.53	7.8089e-06	8.6984e-07	232.89	88.391	104.2	46.42	7.6514e-06	37	0.00053425	0.00053999	0.00014996	720.6	5.8779e-06	5.8946e-06	608.9	270.72	5.9216e-06	5.8946e-06	240.14	90.014	104.85	46.274	5.9529e-06	37.756	296.624	57.609	323.219	48.315	97.872	304.486	47.138	53.479	70.078	205.329	50.452	55.649	58.516	61.809	174.079	58.144	-8191	255	
1044.884	1	1	0	0	0.23257	0.062386	0.099607	0.13569	0.12147	0.24076	0.009688	0.161	0.24922	0.31314	0.31703	0.11054	0.16875	0.24813	0.18843	0.17738	0.69792	-0.40833	-0.13542	0.19375	-0.51875	0.22917	-0.13333	-0.45833	0.56458	-0.12917	-0.20833	0.5	-0.40625	0.17083	0.039583	-0.325	340.283	314.831	62.938	344.080	210.342	292.031	236.318	260.787	303.891	186.893	387.752	266.744	38.628	107.148	150.581	360.275	0.00075947	0.00050018	4.2776e-05	708.3	5.8475e-06	5.8747e-06	598.26	270.18	3.3563e-06	6.5464e-06	231.28	87.25	104.28	46.407	1.0569e-05	37.031	0.00054043	0.00053945	0.00014914	719.56	5.9042e-06	5.9529e-06	607.08	270.42	5.9124e-06	5.905e-06	238.64	89.34	104.61	46.086	5.93e-06	37.582	316.924	384.147	120.529	48.322	126.214	269.124	46.889	53.918	338.079	184.564	50.962	56.143	58.196	62.086	67.960	57.663	-8191	255	
1044.980	1	1	0	0	0.056215	0.29817	0.33843	0.26028	0.15507	0.030239	0.13254	0.069739	0.21612	0.076864	0.12739	0.33197	0.1315	0.2779	0.089217	0.15702	0.74792	-0.24583	-0.05	0.083333	-0.32292	0.15833	0.11042	-0.51875	0.33542	-0.25208	-0.325	0.23125	-0.5125	0.18333	0.32917	-0.54792	133.901	269.078	72.557	87.615	350.222	283.634	46.882	198.683	374.428	348.033	364.234	80.514	394.843	348.393	377.734	97.200	0.00054072	0.00074292	0.0001678	710.29	4.005e-06	4.5978e-06	595.79	270.29	3.1838e-06	4.5186e-06	230.63	86.686	104.72	46.475	2.0992e-06	37.001	0.00053626	0.00054024	0.00015077	719.23	5.9408e-06	5.9382e-06	603.43	270.34	5.9447e-06	5.9451e-06	239.09	89.363	104.83	46.278	5.9473e-06	37.721	308.358	260.634	180.380	48.553	251.875	254.835	47.105	53.215	278.367	205.058	50.806	55.756	58.327	61.870	197.888	57.635	-8191	255	
1045.099	1	1	0	0	0.24766	0.17607	0.10082	0.071205	0.14173	0.15065	0.025286	0.077372	0.10302	0.23646	0.31498	0.13493	0.056022	0.22434	0.051866	0.09059	0.72917	-0.077083	-0.16667	0.41042	-0.31458	-0.00625	0.2625	-0.39583	0.37292	0.125	-0.47708	0.35833	-0.29792	-0.14375	0.43125	-0.70625	387.782	171.051	366.064	258.841	239.310	125.700	371.310	154.472	218.796	159.141	79.759	297.462	270.149	94.660	293.957	46.991	0.00050235	0.00075245	0.00024079	706.68	1.2134e-06	7.2029e-06	595.79	268.35	4.2219e-06	4.832e-06	230.86	87.213	104.58	46.553	2.7209e-06	37.253	0.00053987	0.00054212	0.0001512	717.77	5.9337e-06	5.9108e-06	605.89	269.81	5.9343e-06	5.957e-06	239.06	89.718	104.98	46.376	5.9486e-06	37.952	306.417	43.148	50.529	48.571	318.288	171.118	47.298	53.836	132.444	119.459	50.692	55.834	58.219	61.966	78.233	57.677	-8191	255	
1045.172	1	1	0	0	0.15825	0.11611	0.14346	0.28126	0.14457	0.17076	0.22999	0.30556	0.1512	0.088823	0.21339	0.11598	0.17048	0.20875	0.25789	0.30322	0.67917	0.17083	-0.22917	0.46875	-0.16458	0.039583	0.27083	-0.61042	0.26042	0.22708	-0.49792	0.39375	-0.095833	-0.19583	0.45417	-0.37917	88.005	377.240	91.937	351.671	136.271	140.337	382.277	382.502	393.084	220.953	272.951	202.316	107.785	109.812	47.552	94.706	0.00053976	0.00034849	0.00018763	708.43	5.1883e-06	2.26e-06	591.31	270.16	8.6901e-07	1.2444e-06	233.19	88.099	104.6	46.883	1.0311e-05	36.921	0.00054251	0.00054788	0.00015073	717.8	5.9226e-06	5.9705e-06	606.05	271.11	5.9314e-06	5.9602e-06	240.48	90.221	105.06	46.591	5.9206e-06	37.988	280.093	86.042	111.385	48.064	193.729	60.681	47.644	53.760	260.167	160.381	50.515	55.859	58.541	61.915	90.447	57.969	-8191	255	
1045.291	1	1	0	0	0.3106	0.15002	0.33114	0.083251	0.13226	0.19348	0.14446	0.23836	0.097358	0.23514	0.23463	0.31236	0.18736	0.2284	0.13381	0.1752	0.41458	0.34167	-0.52917	0.3875	-0.070833	-0.25833	0.40208	-0.525	0.14167	0.34583	-0.34792	0.35833	-0.079167	-0.49375	0.44583	-0.40625	258.509	258.056	286.486	194.635	188.929	261.379	334.795	281.397	262.990	52.155	53.458	357.757	322.240	111.742	42.030	283.829	0.00058487	0.00012182	2.29e-05	707.33	9.8537e-06	7.3902e-06	594.12	268.52	5.0845e-06	3.1056e-06	231.77	87.351	104.34	46.34	4.9584e-06	36.89	0.00054018	0.00054549	0.00015055	717.96	5.933e-06	5.9872e-06	605.78	270.19	5.9342e-06	5.9392e-06	239.36	89.74	104.71	46.224	5.9587e-06	37.752	302.118	366.624	142.689	48.502	82.996	267.643	47.211	53.635	158.253	87.379	50.952	55.757	58.465	62.054	141.437	57.969	-8191	255	
1045.387	1	1	0	0	0.16372	0.17415	0.3788	0.3037	0.20839	0.28479	0.16378	0.04297	0.26889	0.12504	0.085045	0.032452	0.25073	0.2244	0.14723	0.29112	0.40417	0.64375	-0.27708	0.30625	0.020833	-0.41458	0.40417	-0.26667	-0.029167	0.44792	-0.31042	0.20417	0.17083	-0.47083	0.58125	-0.4625	81.754	236.405	111.775	43.736	169.095	326.604	336.026	369.692	45.699	97.950	242.469	357.641	161.222	58.646	226.152	49.700	0.00058065	0.0005187	3.521e-05	703.73	4.3615e-06	7.1899e-06	593.25	269.78	1.1872e-05	3.4544e-06	231.7	87.323	104.49	46.465	9.7481e-06	36.926	0.00053942	0.00054329	0.00014986	715.28	5.9501e-06	5.9537e-06	604.36	269.66	5.9431e-06	5.9186e-06	238.94	89.451	104.79	46.263	5.9385e-06	37.858	282.025	103.774	331.336	48.598	233.265	188.942	47.561	53.622	156.106	355.328	50.519	55.576	58.189	62.007	113.947	57.654	-8191	255	
1045.483	1	1	0	0	0.16029	0.19178	0.07082	0.33288	0.16062	0.16128	0.11187	0.060018	0.073566	0.14279	0.29949	0.18023	0.1869	0.24033	0.25987	0.19586	0.25417	0.45417	-0.30625	0.19792	0.0125	-0.42917	0.34375	-0.25833	-0.041667	0.4375	-0.46042	0.175	0.15417	-0.41458	0.61042	-0.19583	120.520	293.038	78.165	326.992	271.413	138.113	360.720	260.805	75.925	320.719	65.356	126.888	195.441	262.476	283.427	301.552	0.00047848	0.0011382	0.00022122	707.54	2.7344e-06	5.9742e-06	593.48	269.23	1.1154e-05	6.8714e-07	232.92	88.125	104.21	46.593	4.5745e-06	37.334	0.00054118	0.00053978	0.00015028	715.51	5.9364e-06	5.9227e-06	605.48	269.72	5.8918e-06	5.9104e-06	239.29	89.938	104.44	46.365	5.8893e-06	38.013	296.877	101.607	131.129	48.336	80.607	206.973	46.889	53.707	160.747	90.958	50.864	55.785	58.382	62.195	118.074	57.878	-8191	255	
1045.580	1	1	0	0	0.12651	0.085585	0.15541	0.17159	0.17331	0.34448	0.15087	0.13614	0.25172	0.18952	0.21573	0.045061	0.09237	0.14679	0.16895	0.088543	0.23958	0.66042	-0.20625	0.016667	0.20208	-0.43958	0.33333	-0.15833	-0.11042	0.53333	-0.39375	0.0020833	0.25833	-0.47917	0.25625	-0.010417	39.151	234.467	298.583	129.300	302.904	364.662	358.490	45.620	39.666	234.185	219.374	302.580	310.079	101.860	379.997	346.138	0.0005538	0.00032589	1.3734e-05	707.95	7.0174e-06	8.9895e-06	597.94	269.64	4.6271e-06	2.3596e-06	236.02	87.63	104.43	46.568	2.9985e-06	37.304	0.00053933	0.00054135	0.00015088	718.06	5.9372e-06	5.9099e-06	609.35	270.15	5.8972e-06	5.9099e-06	241.96	90.117	104.82	46.443	5.9399e-06	38.203	294.209	45.944	288.071	48.574	146.970	231.507	47.453	53.805	135.678	393.985	51.047	55.659	58.320	62.136	56.976	58.013	-8191	255	
1045.700	1	1	0	0	0.11874	0.13161	0.056125	0.092333	0.31067	0.16634	0.40085	0.13297	0.058407	0.11417	0.14324	0.23891	0.36541	0.25817	0.12428	0.2086	0.3	0.59792	-0.077083	-0.075	0.3375	-0.39583	0.35625	0.18958	-0.31667	0.51042	-0.13958	0.033333	0.30417	-0.29375	0.10625	0.24375	350.030	273.081	374.100	382.199	210.925	249.575	297.435	156.803	110.799	325.692	244.226	143.330	36.318	360.716	54.959	116.255	0.00055458	0.00032979	1.0782e-05	710.6	2.6826e-06	3.9532e-06	599.73	269.91	5.1166e-06	5.2708e-06	232.53	87.14	104.13	46.341	9.688e-06	36.989	0.00054205	0.00054335	0.00015199	721.37	5.9424e-06	5.9508e-06	610.82	270.84	6.0017e-06	5.9537e-06	240.97	89.865	104.78	46.4	5.9523e-06	37.949	281.066	173.142	290.859	48.872	96.706	260.150	47.215	54.056	98.029	126.317	51.315	56.066	59.213	62.779	262.624	58.392	-8191	255	
1045.772	1	1	0	0	0.1176	0.33715	0.21657	0.076818	0.2064	0.1658	0.17281	0.084106	0.11551	0.070003	0.18673	0.079672	0.1258	0.16947	0.08734	0.099561	-0.066667	0.40833	-0.0125	-0.20625	0.29167	-0.39792	0.097917	0.23542	-0.28125	0.52292	-0.175	-0.34583	0.375	-0.4125	0.091667	0.33125	143.169	167.246	257.989	56.366	146.284	63.596	313.995	169.976	320.948	282.114	191.296	345.282	330.667	298.134	327.881	319.626	0.00053794	0.0007041	0.00010719	706.82	5.0079e-06	5.615e-06	596.48	269.71	5.7904e-06	8.6286e-06	232.61	87.647	105.11	46.656	5.5243e-06	37.236	0.00053992	0.0005473	0.00015107	720.4	5.9388e-06	5.9614e-06	607.04	271.2	5.951e-06	5.9507e-06	240.26	90.027	105.2	46.453	5.9832e-06	38.054	296.464	175.092	183.250	48.689	156.163	362.161	47.385	54.359	193.536	181.452	50.722	55.916	58.911	62.095	267.217	58.342	-8191	255	
1045.868	1	1	0	0	0.2278	0.068797	0.19946	0.2335	0.27723	0.17666	0.24649	0.34547	0.067836	0.31523	0.11016	0.29786	0.20529	0.17371	0.053896	0.2427	0.039583	0.3	0.17708	-0.47083	0.66458	-0.19375	-0.17708	0.33958	-0.22708	0.24167	0.11458	-0.1625	0.325	-0.36458	0.066667	0.43125	163.882	68.132	335.850	141.446	281.635	160.960	251.796	369.119	199.860	345.219	343.232	57.113	206.381	276.132	102.747	113.811	0.00028405	0.0001455	0.00018522	703.01	4.0167e-06	5.6533e-06	594.5	268.41	1.7598e-05	3.9525e-06	231.2	88.33	104.29	46.766	8.1295e-06	37.359	0.00054599	0.00054239	0.00015129	717.19	5.9927e-06	5.9664e-06	606.52	270.59	5.9365e-06	5.9965e-06	240.73	90.322	104.9	46.521	5.9874e-06	38.216	288.175	68.069	104.905	48.773	134.116	106.526	47.380	54.225	114.054	198.650	51.102	56.440	58.664	62.608	233.297	58.255	-8191	255	
