BOXY.EXE: ISS Imagent and Oximeter Data Acquisition Program Version 0.80
Ascii Record File

#ACQ INFORMATION
2  Detector Channels 
16  External MUX Channels 
1  Auxiliary Channels 
5000  Waveform (CCF) Frequency (Hz)
1  Waveforms Skipped 
30  Waveforms Averaged 
1  Cycles Averaged 
16  Acquisitions per Waveform 
10.0806  Updata Rate (Hz) 

#FILE INFORMATION
TRUE -- External MUX Channel results are PARSED.
FALSE -- AC DC and Phase are NOT grouped.
TRUE -- Companion Program Settings File CREATED.
FALSE -- AC data not excluded
FALSE -- DC data not excluded
FALSE -- Phase data not excluded
FALSE -- Auxillary Chn. data not excluded
Tab delimiters

#CALIBRATION STATE
TRUE -- Waveform Calibration Values APPLIED.


#AUX CALIBRATION VALUES
Val Type	aux-1	

Term	1.0000e+00	
Factor	0.0000e+00	


#WF CALIBRATION VALUES
A = Detector Channel
Val Type	A-AC1	A-AC2	A-AC3	A-AC4	A-AC5	A-AC6	A-AC7	A-AC8	A-AC9	A-AC10	A-AC11	A-AC12	A-AC13	A-AC14	A-AC15	A-AC16	A-DC1	A-DC2	A-DC3	A-DC4	A-DC5	A-DC6	A-DC7	A-DC8	A-DC9	A-DC10	A-DC11	A-DC12	A-DC13	A-DC14	A-DC15	A-DC16	A-Ph1	A-Ph2	A-Ph3	A-Ph4	A-Ph5	A-Ph6	A-Ph7	A-Ph8	A-Ph9	A-Ph10	A-Ph11	A-Ph12	A-Ph13	A-Ph14	A-Ph15	A-Ph16	

Term	0.00000e+00	0.00000e+00	0.00000e+00	0.00000e+00	0.00000e+00	0.00000e+00	0.00000e+00	0.00000e+00	0.00000e+00	0.00000e+00	0.00000e+00	0.00000e+00	0.00000e+00	0.00000e+00	0.00000e+00	0.00000e+00	0.00000e+00	0.00000e+00	0.00000e+00	0.00000e+00	0.00000e+00	0.00000e+00	0.00000e+00	0.00000e+00	0.00000e+00	0.00000e+00	0.00000e+00	0.00000e+00	0.00000e+00	0.00000e+00	0.00000e+00	0.00000e+00	0.00000e+00	0.00000e+00	0.00000e+00	0.00000e+00	0.00000e+00	0.00000e+00	0.00000e+00	0.00000e+00	0.00000e+00	0.00000e+00	0.00000e+00	0.00000e+00	0.00000e+00	0.00000e+00	0.00000e+00	0.00000e+00	
Factor	1.00000e+00	1.00000e+00	1.00000e+00	1.00000e+00	1.00000e+00	1.00000e+00	1.00000e+00	1.00000e+00	1.00000e+00	1.00000e+00	1.00000e+00	1.00000e+00	1.00000e+00	1.00000e+00	1.00000e+00	1.00000e+00	1.00000e+00	1.00000e+00	1.00000e+00	1.00000e+00	1.00000e+00	1.00000e+00	1.00000e+00	1.00000e+00	1.00000e+00	1.00000e+00	1.00000e+00	1.00000e+00	1.00000e+00	1.00000e+00	1.00000e+00	1.00000e+00	X	X	X	X	X	X	X	X	X	X	X	X	X	X	X	X	

B = Detector Channel
Val Type	B-AC1	B-AC2	B-AC3	B-AC4	B-AC5	B-AC6	B-AC7	B-AC8	B-AC9	B-AC10	B-AC11	B-AC12	B-AC13	B-AC14	B-AC15	B-AC16	B-DC1	B-DC2	B-DC3	B-DC4	B-DC5	B-DC6	B-DC7	B-DC8	B-DC9	B-DC10	B-DC11	B-DC12	B-DC13	B-DC14	B-DC15	B-DC16	B-Ph1	B-Ph2	B-Ph3	B-Ph4	B-Ph5	B-Ph6	B-Ph7	B-Ph8	B-Ph9	B-Ph10	B-Ph11	B-Ph12	B-Ph13	B-Ph14	B-Ph15	B-Ph16	

Term	0.00000e+00	0.00000e+00	0.00000e+00	0.00000e+00	0.00000e+00	0.00000e+00	0.00000e+00	0.00000e+00	0.00000e+00	0.00000e+00	0.00000e+00	0.00000e+00	0.00000e+00	0.00000e+00	0.00000e+00	0.00000e+00	0.00000e+00	0.00000e+00	0.00000e+00	0.00000e+00	0.00000e+00	0.00000e+00	0.00000e+00	0.00000e+00	0.00000e+00	0.00000e+00	0.00000e+00	0.00000e+00	0.00000e+00	0.00000e+00	0.00000e+00	0.00000e+00	-1.92451e+02	-1.27396e+02	-1.21933e+02	-1.81702e+02	-8.52248e+01	-7.17860e+01	-1.59827e+02	-1.62015e+02	-9.79175e+01	-6.25268e+01	-1.72064e+02	-1.71235e+02	-1.81225e+02	-1.77148e+02	-7.86684e+01	-1.49556e+02	
Factor	3.17922e-05	1.27293e-04	3.00469e-05	1.53336e-01	1.19824e-06	1.32970e-06	1.61206e-01	4.07326e-02	1.19885e-06	1.02860e-06	6.92827e-02	2.47474e-02	3.05553e-02	7.28990e-03	1.03716e-06	1.04097e-02	2.12434e-06	2.26520e-06	6.27488e-07	8.18888e-02	2.46237e-08	2.48108e-08	8.10272e-02	2.18854e-02	2.46444e-08	2.48727e-08	3.58425e-02	1.28119e-02	1.63559e-02	3.93248e-03	2.46604e-08	5.42419e-03	X	X	X	X	X	X	X	X	X	X	X	X	X	X	X	X	



#DISTANCE SETTINGS
A = Detector Channel
A-1	A-2	A-3	A-4	A-5	A-6	A-7	A-8	A-9	A-10	A-11	A-12	A-13	A-14	A-15	A-16	

2.5000e+00	3.0000e+00	2.5000e+00	3.0000e+00	2.0000e+00	3.0000e+00	1.5000e+00	3.0000e+00	3.0000e+00	3.0000e+00	3.0000e+00	3.0000e+00	3.0000e+00	3.0000e+00	1.5000e+00	3.0000e+00	

B = Detector Channel
B-1	B-2	B-3	B-4	B-5	B-6	B-7	B-8	B-9	B-10	B-11	B-12	B-13	B-14	B-15	B-16	

1.0000e+01	1.0000e+01	1.0000e+01	1.4400e+00	1.0000e+01	1.0000e+01	1.5100e+00	1.9400e+00	1.0000e+01	1.0000e+01	1.9900e+00	2.4900e+00	2.4100e+00	2.9000e+00	1.0000e+01	2.9800e+00	




#DATA BEGINS
time	group	step	mark	flag	A-AC1	A-AC2	A-AC3	A-AC4	A-AC5	A-AC6	A-AC7	A-AC8	A-AC9	A-AC10	A-AC11	A-AC12	A-AC13	A-AC14	A-AC15	A-AC16	A-DC1	A-DC2	A-DC3	A-DC4	A-DC5	A-DC6	A-DC7	A-DC8	A-DC9	A-DC10	A-DC11	A-DC12	A-DC13	A-DC14	A-DC15	A-DC16	A-Ph1	A-Ph2	A-Ph3	A-Ph4	A-Ph5	A-Ph6	A-Ph7	A-Ph8	A-Ph9	A-Ph10	A-Ph11	A-Ph12	A-Ph13	A-Ph14	A-Ph15	A-Ph16	B-AC1	B-AC2	B-AC3	B-AC4	B-AC5	B-AC6	B-AC7	B-AC8	B-AC9	B-AC10	B-AC11	B-AC12	B-AC13	B-AC14	B-AC15	B-AC16	B-DC1	B-DC2	B-DC3	B-DC4	B-DC5	B-DC6	B-DC7	B-DC8	B-DC9	B-DC10	B-DC11	B-DC12	B-DC13	B-DC14	B-DC15	B-DC16	B-Ph1	B-Ph2	B-Ph3	B-Ph4	B-Ph5	B-Ph6	B-Ph7	B-Ph8	B-Ph9	B-Ph10	B-Ph11	B-Ph12	B-Ph13	B-Ph14	B-Ph15	B-Ph16	aux-1	digaux	

8200.584	1	1	0	256	0.25635	0.48799	0.18889	0.10144	0.037897	0.30167	0.16871	0.37278	0.15766	0.27838	0.34438	0.31549	0.20911	0.16667	0.15716	0.18567	-0.17292	-0.014583	0.05625	-0.6875	0.0083333	-0.375	-0.67083	0.075	-0.5625	-0.425	-0.16458	-1.0146	0.13125	-0.36875	-0.59583	-0.05	143.220	329.350	246.822	126.104	175.634	42.698	259.239	-8.884	9.305	182.167	-8.150	311.127	58.357	229.445	96.949	290.751	0.001048	0.00094098	0.00018614	511.62	3.039e-05	8.6472e-06	667.83	170.35	1.8128e-05	1.0854e-05	301.13	125.64	66.979	34.026	7.6559e-06	68.294	0.0054706	0.0060059	0.0015527	732.71	6.3356e-05	6.6148e-05	911.72	233.81	6.6511e-05	6.7802e-05	411.57	166.83	117.01	47.55	6.669e-05	87.284	91.614	0.207	348.774	0.679	187.262	27.951	1.028	7.171	156.728	124.055	6.109	11.250	11.934	16.099	150.663	15.445	-8191	255	
8200.680	1	1	0	0	0.12574	0.084362	0.10836	0.18738	0.22764	0.097005	0.23621	0.092406	0.12673	0.10674	0.21843	0.33011	0.21567	0.31771	0.14109	0.01514	-0.26667	-0.12292	0.058333	-0.76875	0.0875	-0.077083	-0.79792	0.089583	-0.60417	-0.32083	0.097917	-0.81458	0.041667	-0.2375	-0.73333	-0.072917	339.710	333.236	315.208	217.192	316.254	347.214	98.632	30.910	50.909	73.001	160.264	296.794	345.106	338.712	41.497	254.256	0.00089682	0.00082449	0.00045886	516.01	7.5733e-06	2.0064e-05	675.06	171.64	8.2893e-06	1.31e-05	301.78	126.86	67.297	34.08	9.9188e-06	68.801	0.0065211	0.0066752	0.0017389	772.23	7.5655e-05	7.3625e-05	942.52	243.52	7.7493e-05	7.3668e-05	420.3	172.75	122.55	48.281	6.9853e-05	89.744	78.851	104.893	58.304	1.042	191.864	29.811	0.891	7.176	34.535	99.432	5.985	11.633	11.756	16.210	327.727	15.514	-8191	255	
8200.778	1	1	0	0	0.12158	0.073583	0.17071	0.19082	0.10461	0.36695	0.37875	0.17857	0.18207	0.094168	0.18385	0.16998	0.21463	0.26073	0.082995	0.14066	-0.19375	-0.34792	0.17708	-0.925	-0.029167	0.020833	-0.88958	0.095833	-0.54167	-0.3375	0.14792	-0.76667	-0.2	-0.15417	-0.67292	0	336.899	140.970	260.833	309.493	321.939	-3.845	275.266	251.671	74.452	92.281	227.828	3.672	210.062	-7.378	289.859	320.106	0.00064349	0.0016301	0.0001638	515.82	1.3377e-05	8.2496e-06	672.14	171.11	5.1941e-06	6.3094e-06	302.64	126.63	67.204	34.332	1.0061e-05	69.07	0.0069091	0.0069423	0.001819	802.5	8.1684e-05	7.7598e-05	954.07	251.33	8.1596e-05	7.6747e-05	423.74	176.76	124.27	48.691	7.2009e-05	91.168	80.419	5.636	153.058	1.489	126.113	210.562	1.070	7.436	298.505	18.138	6.362	11.573	11.493	16.178	236.607	15.337	-8191	255	
8200.872	1	1	0	0	0.14734	0.13673	0.21496	0.17025	0.3001	0.013505	0.14617	0.092507	0.26163	0.39322	0.24671	0.2433	0.0083176	0.24661	0.18396	0.10587	-0.16667	-0.52083	0.15	-0.625	-0.16875	0.075	-0.93542	0.01875	-0.2625	-0.69375	0.17917	-0.65625	-0.33542	0.020833	-0.80833	-0.3125	311.070	331.002	339.776	-5.138	296.854	177.620	284.719	32.105	298.566	81.297	259.266	269.802	200.568	340.484	191.782	229.281	0.00035464	0.0013	0.00034844	513.74	6.5653e-06	1.8196e-05	670.87	171.2	1.6629e-05	1.1771e-05	300.47	126.8	66.828	34.4	5.7273e-06	69.074	0.0068751	0.0068466	0.0018034	808.97	7.8858e-05	7.4594e-05	947.16	252.47	7.5418e-05	7.139e-05	419.57	175.22	120.18	47.962	6.902e-05	91.237	99.043	21.386	143.542	1.313	-0.960	108.889	1.377	7.438	56.542	119.633	6.330	11.598	11.418	16.152	191.201	15.171	-8191	255	
8200.968	1	1	0	0	0.059624	0.16458	0.12932	0.2613	0.22986	0.20767	0.084332	0.050895	0.096397	0.17493	0.11924	0.13472	0.24587	0.14769	0.14493	0.14757	0.24583	-0.65208	0.13958	-0.56875	-0.29583	0.34583	-0.71458	-0.19167	-0.085417	-0.85833	0.045833	-0.53125	-0.525	0.022917	-0.78125	-0.37917	279.851	128.100	199.215	330.367	332.584	-9.919	48.580	181.737	325.146	111.809	264.904	309.605	99.794	339.078	202.144	277.410	0.00082619	0.00056718	0.00036067	512.01	2.3099e-05	2.1986e-05	666.63	170.89	5.1916e-06	6.6838e-06	303.02	127.24	67.775	34.343	2.1004e-05	69.407	0.0066314	0.0066793	0.0018502	812.65	7.622e-05	7.2902e-05	955.3	255.89	7.7073e-05	7.4441e-05	432.65	180.12	123.43	48.762	7.8702e-05	93.344	87.979	243.170	188.492	1.247	104.213	35.859	1.398	7.353	53.061	203.826	6.257	11.259	11.305	15.926	175.083	15.077	-8191	255	
8201.089	1	1	0	0	0.10181	0.21104	0.09946	0.062461	0.29266	0.15132	0.1553	0.27796	0.18328	0.0065884	0.16641	0.081278	0.10898	0.16609	0.23302	0.25122	0.18958	-0.68125	0.0875	-0.57917	-0.33333	-0.0020833	-0.76875	-0.38958	-0.016667	-0.65833	-0.08125	-0.46042	-0.71458	-0.00625	-0.63542	-0.52292	267.017	8.737	235.388	184.527	118.381	26.975	235.244	269.263	115.037	72.868	325.108	-7.793	202.861	273.611	158.577	336.768	0.00040684	0.00062115	0.00033335	512.97	9.4179e-06	2.368e-05	670.92	172.42	8.7026e-06	2.3946e-06	302.23	127.75	68.279	34.63	1.0992e-05	69.719	0.0068106	0.0068785	0.0020656	825.88	7.9081e-05	7.5512e-05	983.57	259.32	7.9558e-05	7.6708e-05	446.04	181.18	124.43	49.228	8.4169e-05	93.434	106.585	98.333	95.231	1.027	-10.948	95.518	1.015	6.746	273.210	286.285	6.069	11.271	12.146	16.163	210.131	15.111	-8191	255	
8201.185	1	1	0	0	0.13541	0.18545	0.10494	0.059013	0.098694	0.1971	0.19894	0.082448	0.20289	0.07981	0.13646	0.12447	0.22111	0.16861	0.31062	0.38249	0.31042	-0.71875	0.19792	-0.33125	-0.79375	0.05625	-0.75208	-0.28333	0.12917	-0.74375	-0.19167	-0.30208	-0.68333	-0.1	-0.64167	-0.59583	149.632	89.155	236.729	9.853	36.135	23.466	287.849	128.344	5.267	154.150	212.215	-10.922	177.775	54.970	125.647	347.282	0.00071817	0.0018982	0.00051858	512.07	2.0095e-05	5.7849e-06	667.03	172.25	9.151e-06	1.268e-05	302.48	127.72	67.546	34.522	9.9994e-06	69.064	0.0068554	0.0069953	0.0022054	823.26	7.8996e-05	7.8502e-05	998.29	258.36	7.8738e-05	7.7911e-05	449.77	179.12	122.09	49.317	8.3779e-05	91.81	79.502	141.000	153.495	1.229	334.769	182.681	1.439	6.618	79.627	199.541	5.980	11.313	11.275	16.402	163.644	15.213	-8191	255	
8201.281	1	1	0	0	0.2819	0.18788	0.031994	0.25338	0.10717	0.30856	0.19813	0.097956	0.094966	0.35804	0.15962	0.30663	0.22644	0.016238	0.15093	0.13802	0.3875	-0.6625	0.00625	-0.3375	-0.88333	-0.022917	-0.58333	-0.65625	0.17292	-0.9125	-0.33333	-0.52917	-0.81667	0.095833	-0.50208	-0.53333	132.776	278.019	72.658	38.180	152.791	96.481	38.203	302.725	83.593	131.744	332.603	301.104	303.300	275.973	240.108	304.979	0.00052167	0.0021458	0.00060582	522.69	1.0615e-05	1.5127e-05	677.44	174.85	7.2079e-06	1.2459e-05	304.12	127.74	68.019	34.61	1.4184e-05	69.866	0.0063765	0.0068325	0.0020759	804.58	7.0421e-05	7.313e-05	980.4	250.38	6.7978e-05	7.2964e-05	435.97	174.01	117.06	48.726	7.6812e-05	90.612	94.831	159.281	69.285	1.170	105.828	208.544	1.113	6.998	182.462	204.958	6.173	11.093	12.028	16.310	96.797	15.092	-8191	255	
8201.377	1	1	0	0	0.23482	0.16635	0.15191	0.13294	0.1034	0.19901	0.26503	0.15123	0.093258	0.049749	0.1873	0.25623	0.15715	0.202	0.21687	0.1133	0.6875	-0.77083	-0.13542	-0.15625	-0.85417	0.075	-0.43542	-0.60625	0.18542	-0.70625	-0.43958	-0.11875	-0.85417	-0.066667	-0.25	-0.84792	15.231	232.789	184.802	235.722	266.654	148.374	298.030	274.481	273.483	99.169	312.337	319.017	45.607	30.099	309.559	68.087	0.00080273	0.0021208	4.7057e-05	524.67	4.4809e-06	1.4479e-05	679.44	174.03	1.6805e-05	3.1344e-06	305.38	128.23	68.003	34.775	1.2257e-06	70.471	0.005917	0.0069041	0.0019763	795.43	6.9217e-05	7.69e-05	977.88	249.85	6.8647e-05	7.8353e-05	436.8	174.49	118.36	49.845	7.6524e-05	91.26	92.167	162.955	-3.330	0.922	141.411	185.580	1.160	6.903	189.677	289.164	6.089	11.277	12.151	16.257	137.626	15.281	-8191	255	
8201.473	1	1	0	0	0.22139	0.1764	0.088348	0.19142	0.26309	0.33398	0.11815	0.16327	0.19703	0.020251	0.037884	0.25237	0.11113	0.177	0.23903	0.071396	0.53958	-0.5625	-0.097917	0.01875	-0.83125	-0.17083	-0.45208	-0.6	0.014583	-0.65417	-0.58333	0.0041667	-0.87917	-0.17083	-0.20625	-0.77917	327.191	338.124	240.728	70.973	8.143	129.755	325.908	313.460	160.518	10.340	90.311	11.638	227.892	237.892	-9.668	178.752	0.00079091	0.00071672	0.00026063	521.72	1.101e-05	1.5121e-05	683.15	175.07	2.35e-05	1.1712e-05	306.51	129.52	69.066	35.116	1.5781e-05	70.904	0.0061057	0.00734	0.0019577	792.68	7.1933e-05	8.1011e-05	978.37	251.84	7.331e-05	8.3367e-05	439.07	176.06	122.89	50.86	7.7029e-05	92.103	97.968	93.068	11.308	1.151	170.534	177.052	1.115	6.930	187.735	112.091	5.968	11.361	12.357	16.175	29.428	15.194	-8191	255	
8201.570	1	1	0	0	0.018238	0.087907	0.19976	0.17776	0.1311	0.020498	0.27629	0.06495	0.10195	0.059149	0.20481	0.29368	0.10829	0.17135	0.18795	0.11139	0.43958	-0.66458	-0.49375	-0.04375	-0.68125	-0.21667	-0.12083	-0.77708	-0.0125	-0.55	-0.49792	-0.0041667	-0.70208	-0.29792	0.0041667	-0.89167	281.901	247.304	138.656	146.280	199.200	241.128	274.153	273.730	282.791	107.436	320.679	258.066	39.154	274.306	204.005	322.830	0.0015477	0.00086148	0.00041672	522	2.1345e-05	1.0808e-05	678	174.6	1.9959e-05	1.426e-05	306.36	128.58	69.363	35.041	2.3153e-05	70.516	0.0066124	0.0077011	0.0019611	793.77	7.8177e-05	8.2773e-05	971.67	251.92	7.8196e-05	8.3716e-05	438.23	175.81	127.41	50.947	7.7595e-05	92.06	93.420	228.069	-6.441	0.681	167.200	59.610	1.136	6.902	155.633	33.750	5.930	11.291	12.251	16.034	60.441	15.448	-8191	255	
8201.688	1	1	0	0	0.24888	0.2425	0.45596	0.22959	0.16626	0.03439	0.17183	0.11478	0.083862	0.33773	0.31664	0.10865	0.18341	0.051301	0.10426	0.17563	0.45417	-0.3375	-0.51458	0.13958	-0.60417	-0.21667	-0.085417	-0.71458	-0.070833	-0.26875	-0.72292	0.095833	-0.78958	-0.37917	0.027083	-0.875	245.792	300.745	128.756	256.472	257.866	118.187	99.256	36.909	149.162	7.656	20.571	32.020	10.222	76.495	154.896	313.754	0.001492	0.0015124	8.9576e-05	523.11	1.8209e-05	2.1375e-05	681.92	175.01	1.1954e-05	1.3523e-05	307.07	129.27	68.872	35.172	4.6003e-06	70.535	0.0071591	0.0077005	0.0019913	798.4	8.4176e-05	8.3228e-05	973.84	254.38	8.4394e-05	8.3441e-05	439.31	177.42	130.57	50.923	7.729e-05	93.159	82.261	-5.756	40.503	0.950	198.230	41.858	1.117	7.104	192.670	99.232	6.137	11.411	11.918	16.212	115.225	15.448	-8191	255	
8201.785	1	1	0	0	0.2605	0.12829	0.27721	0.32575	0.25548	0.19497	0.0604	0.18919	0.11025	0.056925	0.20572	0.20819	0.19571	0.085844	0.13469	0.17147	0.19167	-0.0875	-0.55	-0.11458	-0.75833	-0.39167	-0.00625	-0.66667	0.020833	-0.041667	-0.92292	0.0083333	-0.35625	-0.52292	0.058333	-0.79583	101.068	56.508	175.844	-6.562	18.128	187.435	244.634	329.701	49.553	42.960	-3.762	269.300	87.904	54.024	-6.757	298.818	0.00089125	0.0018223	0.00011607	524.19	2.7948e-06	2.0477e-05	675.68	174.77	1.7855e-05	8.6171e-06	304.76	129.46	69.403	35.398	2.1355e-06	71.138	0.0075485	0.0075944	0.0019994	813.09	8.8191e-05	8.2539e-05	969.47	257.76	8.6571e-05	8.1768e-05	437.24	180.6	130.97	50.936	7.6495e-05	94.818	57.403	-5.701	275.822	1.053	-5.170	35.724	1.012	7.195	137.473	48.632	5.856	11.393	11.370	16.189	297.679	15.317	-8191	255	
8201.881	1	1	0	0	0.035772	0.13834	0.10895	0.13654	0.11291	0.16832	0.16855	0.11089	0.349	0.29883	0.15285	0.21916	0.13255	0.18478	0.035427	0.27422	0.13542	-0.083333	-0.59792	0.058333	-0.50833	-0.61875	0.0020833	-0.69583	-0.29792	-0.060417	-0.85208	-0.13333	-0.37917	-0.81458	0.25625	-0.63542	60.864	242.078	61.284	298.566	222.502	3.229	249.940	267.164	6.292	46.450	282.564	325.129	55.262	294.000	144.086	327.099	0.00052554	0.00070193	0.00020992	523.15	7.8658e-06	1.7568e-05	674.13	174.38	1.3243e-06	1.3186e-05	306.8	130.51	69.511	35.729	1.301e-05	71.754	0.0076007	0.0074755	0.0019803	831.42	8.7841e-05	8.2259e-05	974.36	262.14	8.7154e-05	8.1093e-05	437.49	184.19	130.15	50.997	7.7175e-05	96.105	75.460	74.428	141.358	1.372	102.474	151.219	1.056	7.271	10.756	56.718	6.485	11.276	11.809	15.953	151.787	15.396	-8191	255	
8201.977	1	1	0	0	0.31842	0.038331	0.12209	0.07245	0.34465	0.29793	0.16988	0.3015	0.19506	0.10553	0.041762	0.041952	0.10401	0.3866	0.086846	0.40325	0.13333	0.10833	-0.7375	0.022917	-0.30417	-0.61875	0.075	-0.65625	-0.39375	-0.010417	-0.81667	0.077083	-0.29375	-0.6875	0.17708	-0.775	112.831	138.489	15.390	338.768	12.863	48.526	293.464	21.991	54.264	225.216	201.695	175.771	164.865	12.606	226.619	246.677	0.00058668	0.0014981	0.00015252	520.14	2.5082e-05	1.3938e-05	674.07	173.29	3.3945e-06	7.8971e-06	303.77	129.1	69.295	35.479	2.6391e-05	71.15	0.0074334	0.0073697	0.0019959	846.42	8.6098e-05	8.2119e-05	982.35	266.02	8.7298e-05	8.26e-05	444.56	186.76	130.85	51.197	8.3237e-05	96.938	72.192	314.506	75.948	1.008	45.656	29.705	1.683	6.918	40.991	90.916	6.586	11.587	11.896	16.291	187.591	15.079	-8191	255	
8202.049	1	1	0	0	0.16369	0.24454	0.31645	0.11453	0.27244	0.31344	0.21459	0.12871	0.18229	0.19809	0.18183	0.4185	0.047703	0.35184	0.085513	0.12661	0.064583	-0.18333	-0.69583	0.04375	-0.27708	-0.66458	0.1375	-0.57708	-0.55417	0.20625	-0.9	-0.24375	-0.15	-0.83542	0.13333	-0.55625	42.974	50.138	184.747	67.767	67.131	2.679	229.198	342.418	25.463	320.062	309.675	15.901	94.837	285.135	38.541	336.529	0.00032508	0.0012955	0.00055934	521.77	3.4141e-06	1.243e-05	674.46	173.92	6.7539e-06	4.8856e-06	304.36	129.1	69.333	35.64	2.7276e-05	71.188	0.0075721	0.0075361	0.0021834	863.39	8.7058e-05	8.3006e-05	1004.2	268.6	8.588e-05	8.1167e-05	451.55	186.95	129.82	51.002	8.8193e-05	96.91	76.461	347.986	132.376	1.031	52.458	32.549	1.044	7.043	154.883	20.663	6.080	11.076	11.702	15.927	198.269	15.200	-8191	255	
8202.169	1	1	0	0	0.14847	0.15396	0.26848	0.3305	0.12539	0.15582	0.12879	0.12996	0.23858	0.11022	0.27269	0.17191	0.11332	0.083792	0.29739	0.17461	-0.21458	0.22708	-0.50417	-0.225	-0.029167	-0.64583	-0.0875	-0.23542	-0.58125	0.04375	-0.81042	-0.49167	0.070833	-0.79375	0.09375	-0.40417	152.647	63.014	184.693	297.802	237.834	82.981	74.302	214.695	317.344	233.104	17.219	172.344	300.105	305.416	97.304	213.383	0.00073632	0.0012962	0.00043763	520.1	1.9703e-05	1.1409e-05	676.26	173.65	1.1798e-05	4.7652e-06	305.72	130.21	69.207	35.663	2.3885e-05	71.886	0.007428	0.0074224	0.0022869	853.54	8.3798e-05	8.0982e-05	1013	264.61	8.2714e-05	8.0262e-05	455.65	185.08	127.36	51.011	8.934e-05	96.099	71.780	33.686	164.440	1.042	112.534	64.917	1.386	6.883	345.620	221.843	6.262	11.130	11.265	16.126	217.741	15.499	-8191	255	
8202.265	1	1	0	0	0.078505	0.11193	0.048236	0.23241	0.17213	0.084922	0.10416	0.072604	0.12418	0.16912	0.043001	0.10552	0.2649	0.13133	0.063148	0.33525	-0.2875	0.32292	-0.65208	-0.26042	0.13333	-0.81667	-0.0083333	-0.13542	-0.45417	0.20833	-0.62708	-0.39375	0.23958	-0.76458	0.18333	-0.3	215.844	60.128	23.563	98.203	302.057	11.339	151.693	173.942	229.399	149.401	136.793	19.495	82.540	326.694	263.748	339.104	0.00083987	0.0025991	0.00026993	517.57	1.3092e-05	2.1326e-05	677.12	174.57	2.9009e-06	2.0655e-05	305.25	130.73	69.898	35.798	9.8911e-06	71.867	0.0070738	0.0073095	0.002303	834.67	8.0591e-05	8.2158e-05	1020.1	261.95	8.1445e-05	8.3512e-05	461.16	184.64	127.17	52.011	9.1957e-05	95.992	70.393	150.890	111.185	1.018	51.705	154.002	1.196	7.124	239.975	224.623	6.227	11.374	11.893	16.456	218.647	15.287	-8191	255	
