BOXY.EXE: ISS Imagent and Oximeter Data Acquisition Program Version 0.80
Ascii Record File

#ACQ INFORMATION
2  Detector Channels 
16  External MUX Channels 
1  Auxiliary Channels 
5000  Waveform (CCF) Frequency (Hz)
1  Waveforms Skipped 
30  Waveforms Averaged 
1  Cycles Averaged 
16  Acquisitions per Waveform 
10.0806  Updata Rate (Hz) 

#FILE INFORMATION
TRUE -- External MUX Channel results are PARSED.
FALSE -- AC DC and Phase are NOT grouped.
TRUE -- Companion Program Settings File CREATED.
FALSE -- AC data not excluded
FALSE -- DC data not excluded
FALSE -- Phase data not excluded
FALSE -- Auxillary Chn. data not excluded
Tab delimiters

#CALIBRATION STATE
TRUE -- Waveform Calibration Values APPLIED.


#AUX CALIBRATION VALUES
Val Type	aux-1	

Term	1.0000e+00	
Factor	0.0000e+00	


#WF CALIBRATION VALUES
A = Detector Channel
Val Type	A-AC1	A-AC2	A-AC3	A-AC4	A-AC5	A-AC6	A-AC7	A-AC8	A-AC9	A-AC10	A-AC11	A-AC12	A-AC13	A-AC14	A-AC15	A-AC16	A-DC1	A-DC2	A-DC3	A-DC4	A-DC5	A-DC6	A-DC7	A-DC8	A-DC9	A-DC10	A-DC11	A-DC12	A-DC13	A-DC14	A-DC15	A-DC16	A-Ph1	A-Ph2	A-Ph3	A-Ph4	A-Ph5	A-Ph6	A-Ph7	A-Ph8	A-Ph9	A-Ph10	A-Ph11	A-Ph12	A-Ph13	A-Ph14	A-Ph15	A-Ph16	

Term	0.00000e+00	0.00000e+00	0.00000e+00	0.00000e+00	0.00000e+00	0.00000e+00	0.00000e+00	0.00000e+00	0.00000e+00	0.00000e+00	0.00000e+00	0.00000e+00	0.00000e+00	0.00000e+00	0.00000e+00	0.00000e+00	0.00000e+00	0.00000e+00	0.00000e+00	0.00000e+00	0.00000e+00	0.00000e+00	0.00000e+00	0.00000e+00	0.00000e+00	0.00000e+00	0.00000e+00	0.00000e+00	0.00000e+00	0.00000e+00	0.00000e+00	0.00000e+00	0.00000e+00	0.00000e+00	0.00000e+00	0.00000e+00	0.00000e+00	0.00000e+00	0.00000e+00	0.00000e+00	0.00000e+00	0.00000e+00	0.00000e+00	0.00000e+00	0.00000e+00	0.00000e+00	0.00000e+00	0.00000e+00	
Factor	1.00000e+00	1.00000e+00	1.00000e+00	1.00000e+00	1.00000e+00	1.00000e+00	1.00000e+00	1.00000e+00	1.00000e+00	1.00000e+00	1.00000e+00	1.00000e+00	1.00000e+00	1.00000e+00	1.00000e+00	1.00000e+00	1.00000e+00	1.00000e+00	1.00000e+00	1.00000e+00	1.00000e+00	1.00000e+00	1.00000e+00	1.00000e+00	1.00000e+00	1.00000e+00	1.00000e+00	1.00000e+00	1.00000e+00	1.00000e+00	1.00000e+00	1.00000e+00	X	X	X	X	X	X	X	X	X	X	X	X	X	X	X	X	

B = Detector Channel
Val Type	B-AC1	B-AC2	B-AC3	B-AC4	B-AC5	B-AC6	B-AC7	B-AC8	B-AC9	B-AC10	B-AC11	B-AC12	B-AC13	B-AC14	B-AC15	B-AC16	B-DC1	B-DC2	B-DC3	B-DC4	B-DC5	B-DC6	B-DC7	B-DC8	B-DC9	B-DC10	B-DC11	B-DC12	B-DC13	B-DC14	B-DC15	B-DC16	B-Ph1	B-Ph2	B-Ph3	B-Ph4	B-Ph5	B-Ph6	B-Ph7	B-Ph8	B-Ph9	B-Ph10	B-Ph11	B-Ph12	B-Ph13	B-Ph14	B-Ph15	B-Ph16	

Term	0.00000e+00	0.00000e+00	0.00000e+00	0.00000e+00	0.00000e+00	0.00000e+00	0.00000e+00	0.00000e+00	0.00000e+00	0.00000e+00	0.00000e+00	0.00000e+00	0.00000e+00	0.00000e+00	0.00000e+00	0.00000e+00	0.00000e+00	0.00000e+00	0.00000e+00	0.00000e+00	0.00000e+00	0.00000e+00	0.00000e+00	0.00000e+00	0.00000e+00	0.00000e+00	0.00000e+00	0.00000e+00	0.00000e+00	0.00000e+00	0.00000e+00	0.00000e+00	2.70886e+01	-1.47570e+02	-1.59823e+02	-1.87769e+02	-7.16749e+01	-1.02766e+02	-1.57019e+02	-1.62015e+02	-1.01898e+02	-8.89711e+01	-1.73571e+02	-1.72116e+02	-1.82981e+02	-1.77625e+02	-1.07765e+02	-1.50887e+02	
Factor	4.90076e-05	9.02078e-05	2.72429e-05	5.41330e-01	1.00772e-06	1.22008e-06	1.72070e-01	5.71424e-02	1.21130e-06	1.00603e-06	1.10401e-01	3.27385e-02	3.12637e-02	9.63839e-03	1.14382e-06	1.41262e-02	4.51512e-07	4.55847e-07	1.26572e-07	2.20301e-01	4.97833e-09	4.98109e-09	7.62968e-02	2.65919e-02	4.98129e-09	4.97910e-09	4.73171e-02	1.42145e-02	1.38173e-02	4.35854e-03	4.97014e-09	6.06963e-03	X	X	X	X	X	X	X	X	X	X	X	X	X	X	X	X	



#DISTANCE SETTINGS
A = Detector Channel
A-1	A-2	A-3	A-4	A-5	A-6	A-7	A-8	A-9	A-10	A-11	A-12	A-13	A-14	A-15	A-16	

2.5000e+00	3.0000e+00	2.5000e+00	3.0000e+00	2.0000e+00	3.0000e+00	1.5000e+00	3.0000e+00	3.0000e+00	3.0000e+00	3.0000e+00	3.0000e+00	3.0000e+00	3.0000e+00	1.5000e+00	3.0000e+00	

B = Detector Channel
B-1	B-2	B-3	B-4	B-5	B-6	B-7	B-8	B-9	B-10	B-11	B-12	B-13	B-14	B-15	B-16	

1.0000e+01	1.0000e+01	1.0000e+01	1.4400e+00	1.0000e+01	1.0000e+01	1.5100e+00	1.9400e+00	1.0000e+01	1.0000e+01	1.9900e+00	2.4900e+00	2.4100e+00	2.9000e+00	1.0000e+01	2.9800e+00	




#DATA BEGINS
time	group	step	mark	flag	A-AC1	A-AC2	A-AC3	A-AC4	A-AC5	A-AC6	A-AC7	A-AC8	A-AC9	A-AC10	A-AC11	A-AC12	A-AC13	A-AC14	A-AC15	A-AC16	A-DC1	A-DC2	A-DC3	A-DC4	A-DC5	A-DC6	A-DC7	A-DC8	A-DC9	A-DC10	A-DC11	A-DC12	A-DC13	A-DC14	A-DC15	A-DC16	A-Ph1	A-Ph2	A-Ph3	A-Ph4	A-Ph5	A-Ph6	A-Ph7	A-Ph8	A-Ph9	A-Ph10	A-Ph11	A-Ph12	A-Ph13	A-Ph14	A-Ph15	A-Ph16	B-AC1	B-AC2	B-AC3	B-AC4	B-AC5	B-AC6	B-AC7	B-AC8	B-AC9	B-AC10	B-AC11	B-AC12	B-AC13	B-AC14	B-AC15	B-AC16	B-DC1	B-DC2	B-DC3	B-DC4	B-DC5	B-DC6	B-DC7	B-DC8	B-DC9	B-DC10	B-DC11	B-DC12	B-DC13	B-DC14	B-DC15	B-DC16	B-Ph1	B-Ph2	B-Ph3	B-Ph4	B-Ph5	B-Ph6	B-Ph7	B-Ph8	B-Ph9	B-Ph10	B-Ph11	B-Ph12	B-Ph13	B-Ph14	B-Ph15	B-Ph16	aux-1	digaux	

1129.255	1	1	0	512	0.13371	0.057368	0.12613	0.2661	0.047689	0.15096	0.20219	0.19978	0.21116	0.14112	0.079873	0.048439	0.11738	0.033227	0.41937	0.3525	-2.0208	-2.4833	-2.3312	-2.6542	-2.3958	-2.4604	-2.4417	-2.1646	-2.6208	-2.4375	-2.3354	-2.4688	-2.4021	-2.4917	-2.5104	-2.3333	221.926	129.803	362.092	197.281	174.136	203.760	388.200	287.531	132.390	172.188	149.997	57.588	353.335	48.356	232.136	93.899	0.00042553	0.00025633	7.6689e-05	573.28	2.9086e-06	1.0562e-06	827.5	140.51	2.4612e-06	2.0373e-06	241.51	54.503	27.053	7.2664	5.2484e-06	20.302	7.1506e-05	6.8767e-05	1.8918e-05	472.17	7.4288e-07	7.2774e-07	739.9	126.18	7.5955e-07	7.336e-07	205.7	47.631	24.167	6.8259	7.4111e-07	17.726	323.868	138.988	295.608	49.834	135.511	115.462	50.079	54.487	288.389	135.421	53.235	59.831	59.730	67.406	59.178	65.850	-8191	255	
1129.351	1	1	0	0	0.070535	0.13004	0.25222	0.40072	0.085069	0.15298	0.31902	0.12063	0.24362	0.13216	0.38622	0.37704	0.2724	0.097291	0.10723	0.30008	-2.0812	-2.2687	-2.2625	-2.5854	-2.1896	-2.425	-2.7188	-2.0083	-2.5354	-2.5563	-2.1667	-2.5354	-2.2896	-2.4708	-2.5812	-2.4229	329.824	135.205	320.841	88.805	133.833	366.874	376.971	316.369	335.539	328.589	329.789	307.462	102.469	190.173	118.104	361.709	0.00049859	0.00017064	1.8292e-05	579.63	1.0925e-06	1.5205e-06	831.41	142.98	2.9472e-06	2.4857e-06	244.77	55.28	27.544	7.2745	3.2288e-06	20.077	6.9762e-05	6.9013e-05	1.8631e-05	471.74	7.4644e-07	7.2714e-07	743.78	127.52	7.3861e-07	7.3234e-07	208.01	48.137	24.528	6.7966	7.5078e-07	17.551	313.453	84.669	378.993	49.836	396.069	131.265	49.830	54.802	135.566	317.410	52.901	59.732	59.033	67.593	161.428	66.004	-8191	255	
1129.470	1	1	0	0	0.048559	0.3226	0.24664	0.14743	0.15365	0.080829	0.15522	0.19584	0.08282	0.22821	0.056235	0.1678	0.17129	0.26769	0.3097	0.42008	-1.8813	-2.4917	-2.3333	-2.5917	-2.3708	-2.4667	-2.7104	-2.2146	-2.45	-2.4875	-2.2917	-2.7687	-2.5062	-2.4167	-2.6104	-2.3125	375.887	212.300	59.517	277.005	97.832	313.077	290.926	311.514	281.749	283.373	386.949	170.645	221.276	390.449	93.233	103.976	0.00033827	0.00044994	1.6533e-05	583.77	2.8679e-06	2.9021e-06	841.08	142.46	2.6153e-06	4.7197e-07	246.69	55.532	27.834	7.4415	1.3665e-06	20.468	6.9387e-05	6.8708e-05	1.9472e-05	475.88	7.3895e-07	7.4776e-07	750.99	128.1	7.5262e-07	7.5826e-07	209.89	48.875	24.918	6.9376	7.6502e-07	17.799	294.795	78.238	69.704	50.248	134.060	141.051	49.908	55.019	138.996	95.282	53.053	59.118	59.912	66.591	231.602	65.596	-8191	255	
1129.566	1	1	0	0	0.34984	0.23261	0.13434	0.057134	0.14777	0.16025	0.24479	0.13638	0.18606	0.28273	0.097547	0.083865	0.2032	0.11665	0.2088	0.11673	-2.0833	-2.5563	-2.0958	-2.6667	-2.4042	-2.3958	-2.6896	-2.2208	-2.6146	-2.4625	-2.3771	-2.6188	-2.5333	-2.3771	-2.6521	-2.2792	65.654	62.731	351.765	50.880	103.522	81.835	369.394	322.760	344.164	107.693	67.508	108.926	182.889	83.835	261.363	344.797	0.00056862	0.00018356	9.4468e-05	584.18	2.667e-06	3.3032e-06	844.84	144.76	3.5438e-06	2.9531e-06	249.27	55.898	28.091	7.3458	3.8294e-06	20.446	7.0709e-05	6.9956e-05	1.9433e-05	479.58	7.6748e-07	7.411e-07	757.35	129.75	7.693e-07	7.6406e-07	211.9	49.295	25.174	6.9538	7.7934e-07	17.896	316.231	393.044	369.515	50.218	347.824	83.004	50.090	54.371	169.679	269.904	52.995	59.351	58.619	66.611	140.957	65.333	-8191	255	
1129.662	1	1	0	0	0.22861	0.15226	0.057617	0.073348	0.091428	0.17909	0.25756	0.23691	0.25163	0.030327	0.39429	0.15616	0.078232	0.17128	0.14794	0.27969	-1.9062	-2.5083	-2.2104	-2.5896	-2.375	-2.1479	-2.7188	-2.4667	-2.5729	-2.7125	-2.2292	-2.7271	-2.4625	-2.2979	-2.8167	-2.2958	386.781	100.307	346.241	342.000	304.048	70.021	355.148	382.255	215.671	215.302	393.314	349.426	84.967	208.734	258.157	142.756	0.00034967	0.00027425	6.0659e-05	594.65	2.1138e-06	3.8152e-06	846.62	142.67	2.3052e-06	2.3501e-06	244.4	56.084	28.19	7.409	2.3688e-06	20.298	7.4162e-05	7.1569e-05	2.0147e-05	484.16	7.8302e-07	7.9431e-07	758.35	128.9	7.6777e-07	7.764e-07	209.59	49.089	25.062	6.9458	7.665e-07	17.705	292.993	191.838	122.039	50.388	206.498	54.988	49.931	54.492	163.974	133.473	52.794	59.261	59.684	66.590	231.293	65.344	-8191	255	
1129.783	1	1	0	0	0.22147	0.17289	0.13728	0.19827	0.088353	0.12646	0.12037	0.30469	0.36302	0.19436	0.14491	0.22838	0.15256	0.064784	0.10892	0.06855	-1.9417	-2.5521	-2.2188	-2.5458	-2.5771	-2.325	-2.7167	-2.3521	-2.2333	-2.6229	-2.4917	-2.5417	-2.6458	-2.2667	-2.7292	-2.3563	322.632	205.105	386.772	293.482	232.446	41.425	356.657	296.979	162.737	50.365	250.963	302.183	306.771	73.259	347.824	272.542	0.00032561	0.00029857	7.2203e-05	589.11	4.339e-06	4.0443e-06	834.11	143.04	4.9125e-06	1.2402e-06	244.67	55.606	27.717	7.2525	2.9833e-06	20.226	7.2602e-05	6.9548e-05	1.9364e-05	477.14	7.6955e-07	7.6326e-07	746.65	128.23	7.8739e-07	7.7307e-07	208.46	48.775	24.708	6.8665	7.6226e-07	17.711	303.164	61.533	395.213	50.640	166.456	123.662	49.611	54.018	229.724	206.984	52.891	58.837	59.682	66.208	253.595	65.370	-8191	255	
1129.854	1	1	0	0	0.18844	0.314	0.11601	0.065311	0.1464	0.19261	0.065733	0.0795	0.034413	0.11481	0.035551	0.11492	0.18141	0.057854	0.20475	0.31319	-1.9833	-2.7208	-2.2042	-2.5167	-2.4792	-2.2313	-2.5708	-2.5854	-2.3396	-2.4062	-2.3979	-2.7188	-2.4688	-2.3896	-2.7354	-2.4208	249.246	49.301	68.222	56.418	65.587	167.316	259.867	255.092	95.249	132.610	278.233	283.425	81.753	205.666	372.517	387.080	0.00033835	9.7947e-05	3.7702e-05	568.26	2.5377e-06	1.2564e-06	825.49	141.81	4.7324e-07	3.2571e-06	242.47	54.813	27.265	7.3647	3.7725e-06	20.449	7.1917e-05	7.0681e-05	1.9415e-05	471.73	7.6161e-07	7.8091e-07	737.83	126.84	7.8184e-07	7.6417e-07	207.15	48.542	24.645	6.9784	7.7681e-07	17.93	345.143	60.300	396.201	50.578	170.697	134.758	49.602	54.407	277.412	43.002	52.825	58.773	59.019	66.760	164.122	66.260	-8191	255	
1129.951	1	1	0	0	0.125	0.12421	0.044416	0.19868	0.21927	0.21674	0.18993	0.29947	0.19037	0.11008	0.10202	0.23317	0.11798	0.25433	0.11631	0.088573	-1.9813	-2.6167	-2.3417	-2.5042	-2.4688	-2.2333	-2.725	-2.5583	-2.4667	-2.7938	-2.3229	-2.4562	-2.5625	-2.3438	-2.6208	-2.4833	292.485	149.490	87.200	143.071	70.347	149.356	42.914	52.981	138.142	222.277	288.306	189.484	104.577	138.173	350.221	354.957	0.00037558	0.00021228	7.0826e-05	571.55	1.5645e-06	3.22e-06	823.78	141.2	1.6156e-06	1.8904e-06	244.85	55.457	27.583	7.3373	1.3384e-06	20.131	7.3021e-05	7.2095e-05	1.9441e-05	470.33	7.8435e-07	7.5928e-07	739.92	127.07	7.8411e-07	7.6978e-07	208.78	48.906	24.918	6.926	7.6457e-07	17.788	316.166	139.129	116.492	50.225	114.417	167.840	49.796	54.692	89.122	211.623	52.737	59.251	59.459	66.899	142.481	65.670	-8191	255	
1130.071	1	1	0	0	0.12339	0.11249	0.13261	0.088303	0.23251	0.21976	0.082049	0.032508	0.25848	0.15369	0.24033	0.050283	0.12516	0.26749	0.25611	0.22164	-1.7917	-2.6667	-2.4354	-2.3021	-2.6188	-2.4375	-2.6333	-2.4396	-2.3125	-2.6208	-2.4813	-2.4521	-2.6063	-2.3979	-2.6021	-2.6542	114.519	184.186	63.600	252.605	40.960	293.988	376.708	111.618	117.663	134.504	47.802	371.479	341.123	44.655	50.749	260.056	0.00017288	0.00024953	4.6606e-05	568.97	5.0683e-06	3.6087e-06	829.26	141.13	3.274e-06	1.641e-06	244.82	55.027	27.211	7.312	2.5942e-07	20.091	7.255e-05	7.1549e-05	1.939e-05	473.34	7.7813e-07	7.5987e-07	740.72	127	7.847e-07	7.6725e-07	207.86	48.436	24.548	6.8768	7.5949e-07	17.634	315.871	49.654	51.357	49.972	205.358	187.372	49.884	54.794	220.540	206.607	52.612	58.746	58.932	66.660	309.609	65.911	-8191	255	
1130.167	1	1	0	0	0.25785	0.079204	0.15354	0.016358	0.23148	0.093238	0.075953	0.19117	0.083505	0.12077	0.20946	0.15784	0.07729	0.11833	0.12928	0.21065	-1.8479	-2.5438	-2.5625	-2.4375	-2.7167	-2.2229	-2.7	-2.6896	-2.2729	-2.5062	-2.4979	-2.3708	-2.6375	-2.2333	-2.4542	-2.6312	355.057	308.387	255.815	142.163	255.355	186.442	281.236	192.073	216.206	171.576	345.052	289.105	163.320	375.462	268.730	96.965	0.00031742	0.00018524	2.3027e-05	564.62	2.2764e-06	7.9288e-07	818.84	141.12	3.5346e-06	2.2693e-06	242.33	55.153	27.326	7.2845	2.7693e-06	20.217	7.3195e-05	6.9022e-05	1.9445e-05	468.34	7.6979e-07	7.5491e-07	735.88	126.43	7.6949e-07	7.5575e-07	207.34	48.576	24.607	6.8383	7.6247e-07	17.722	299.288	80.218	60.164	50.267	140.437	382.665	49.938	54.470	152.266	38.216	53.128	59.354	59.926	66.840	223.266	65.172	-8191	255	
1130.262	1	1	0	0	0.067427	0.29594	0.026048	0.21753	0.029823	0.13142	0.34399	0.10601	0.17428	0.048909	0.074077	0.11449	0.36552	0.043275	0.019734	0.14789	-1.8312	-2.5667	-2.3771	-2.3333	-2.7896	-2.3937	-2.4875	-2.5708	-2.1854	-2.6333	-2.5729	-2.1729	-2.6521	-2.2812	-2.3083	-2.6833	176.962	274.027	236.241	130.255	98.707	123.870	254.932	77.109	371.814	380.604	187.985	214.863	218.325	365.550	208.295	97.135	0.00031433	0.00026996	7.6549e-05	564.91	2.3161e-07	1.7995e-06	819.19	140.96	1.5173e-06	3.2156e-06	241.72	55.347	27.54	7.2614	3.3669e-06	20.084	7.1953e-05	6.9754e-05	1.946e-05	465.95	7.4877e-07	7.5631e-07	734.93	126.35	7.5815e-07	7.5368e-07	206.88	48.544	24.653	6.8669	7.546e-07	17.636	292.550	176.163	105.873	50.042	287.574	81.232	49.841	54.398	301.200	122.331	52.920	59.598	59.096	66.469	123.065	65.197	-8191	255	
1130.358	1	1	0	0	0.61019	0.17881	0.26632	0.11425	0.15178	0.36523	0.27914	0.29847	0.091047	0.1813	0.20524	0.023534	0.15254	0.044594	0.10516	0.10313	-1.825	-2.3563	-2.4979	-2.3354	-2.7208	-2.3563	-2.6104	-2.5042	-2.3688	-2.5375	-2.4604	-2.2167	-2.6396	-2.4292	-2.2938	-2.5479	349.502	76.963	73.760	174.853	327.936	191.876	201.542	257.292	168.306	339.982	94.153	235.423	328.501	51.970	56.017	181.455	0.0004128	0.00022349	5.7337e-05	566.98	3.675e-06	2.3741e-06	815.07	139.56	3.9024e-06	2.8592e-06	240.06	55.115	27.096	7.2642	9.3233e-07	20.092	7.0842e-05	6.9082e-05	1.9257e-05	466.29	7.6071e-07	7.5284e-07	731.92	125.86	7.6119e-07	7.4514e-07	205.59	48.373	24.437	6.8151	7.6861e-07	17.497	302.781	121.452	295.371	50.762	191.688	285.098	50.062	54.541	198.637	169.034	52.698	59.149	59.292	66.411	132.280	65.537	-8191	255	
1130.431	1	1	0	0	0.077239	0.12689	0.076852	0.11014	0.16972	0.13229	0.087479	0.12149	0.12179	0.11077	0.044897	0.39792	0.058963	0.066533	0.41835	0.076132	-1.7583	-2.3604	-2.5667	-2.1188	-2.5833	-2.3896	-2.3354	-2.6479	-2.6458	-2.3833	-2.5396	-2.5521	-2.5792	-2.3542	-2.4062	-2.7438	98.072	90.013	369.018	36.595	52.986	322.820	324.318	39.868	174.395	393.217	107.467	292.060	283.996	81.432	206.061	351.563	0.00052276	0.00033971	0.00012378	563.95	1.6483e-06	1.2996e-06	816.28	139.63	1.7688e-06	4.6912e-06	242.5	54.885	27.231	7.1624	1.6307e-06	20.106	7.1227e-05	6.967e-05	1.9546e-05	465.61	7.6367e-07	7.6462e-07	731.24	125.56	7.7077e-07	7.6577e-07	206.04	48.133	24.411	6.8066	7.6495e-07	17.501	310.494	70.580	168.551	50.217	166.015	134.379	49.802	54.389	364.130	201.375	52.959	59.144	59.678	66.523	157.729	65.611	-8191	255	
1130.550	1	1	0	0	0.21798	0.19826	0.096361	0.15101	0.14646	0.19048	0.18224	0.1595	0.28699	0.30475	0.13082	0.16398	0.088397	0.18353	0.33434	0.1363	-1.9917	-2.4562	-2.7562	-2.1312	-2.5208	-2.4208	-2.3479	-2.8167	-2.4333	-2.4854	-2.6958	-2.2146	-2.5125	-2.5708	-2.1188	-2.6104	335.989	392.943	176.798	276.309	64.563	39.067	129.123	38.927	366.038	220.529	151.155	78.391	362.937	135.466	261.435	76.217	0.00045735	6.4235e-05	5.1523e-05	567.09	1.3864e-06	2.4478e-06	813.83	139.58	2.2539e-06	3.7083e-06	240.12	54.783	27.03	7.2945	3.1071e-06	19.9	7.1763e-05	7.057e-05	1.9371e-05	465.78	7.5541e-07	7.6429e-07	732.84	125.37	7.563e-07	7.5433e-07	205.33	47.994	24.415	6.7869	7.6537e-07	17.495	296.846	248.072	184.890	50.036	387.188	279.462	50.048	54.542	134.604	141.510	52.760	58.998	59.480	66.443	211.239	65.591	-8191	255	
1130.646	1	1	0	0	0.13426	0.13284	0.093796	0.0076859	0.02633	0.14572	0.19056	0.13192	0.083291	0.27617	0.23785	0.1415	0.12137	0.26577	0.077578	0.19428	-1.9417	-2.2938	-2.55	-2.2417	-2.4146	-2.4292	-2.2271	-2.7062	-2.5396	-2.5458	-2.5104	-2.5979	-2.4604	-2.6792	-2.3792	-2.6708	72.522	315.544	350.356	352.833	379.581	211.300	307.667	277.485	53.784	238.134	224.067	300.220	280.961	384.346	78.891	225.065	0.00028681	8.8382e-05	4.1375e-05	566.15	6.2723e-07	3.7997e-06	819.25	140.59	3.8031e-06	1.7973e-06	241.31	54.847	27.657	7.2045	3.3654e-06	19.944	7.05e-05	6.8547e-05	1.8915e-05	464.64	7.3408e-07	7.3859e-07	731.69	126.01	7.3758e-07	7.3459e-07	205.75	48.078	24.548	6.7765	7.2865e-07	17.498	311.577	164.561	368.688	50.072	121.951	106.974	50.029	54.419	111.604	183.541	53.256	59.504	59.349	66.845	174.909	65.459	-8191	255	
1130.742	1	1	0	0	0.075066	0.21283	0.16233	0.10976	0.1839	0.15584	0.10829	0.22305	0.11156	0.087161	0.072045	0.24399	0.22036	0.35573	0.050113	0.076326	-2.1542	-2.4167	-2.6312	-2.3812	-2.5646	-2.8875	-2.3438	-2.6021	-2.5229	-2.3292	-2.8187	-2.4437	-2.6188	-2.6458	-2.4583	-2.5708	341.638	295.727	241.173	302.014	38.000	335.923	331.584	45.713	293.181	204.261	363.648	292.757	312.610	349.824	99.075	48.612	0.00037954	0.0001578	0.00014615	561.83	1.6138e-07	2.2863e-06	808.43	139.93	4.3972e-06	1.7914e-06	240.49	55.072	26.861	7.2	1.1079e-06	19.918	6.8275e-05	6.6639e-05	1.8243e-05	460.29	7.1593e-07	7.2113e-07	723.96	125.53	7.2971e-07	7.2316e-07	205.14	48.068	24.265	6.7424	7.3289e-07	17.484	322.396	40.903	71.643	50.121	137.784	284.322	49.730	54.422	123.565	122.928	52.869	59.211	59.464	66.897	90.092	65.331	-8191	255	
1130.863	1	1	0	0	0.17006	0.10637	0.14335	0.16173	0.19019	0.22149	0.07068	0.042322	0.19804	0.14519	0.13348	0.20683	0.087579	0.063601	0.043318	0.0086092	-2.0271	-2.2313	-2.5104	-2.425	-2.4583	-2.7708	-2.4313	-2.5146	-2.6125	-2.3792	-2.7083	-2.5	-2.6417	-2.6271	-2.4625	-2.5812	159.839	175.667	226.729	292.026	116.322	161.953	72.212	118.518	321.366	156.625	340.037	377.221	372.195	287.316	101.183	102.816	0.00033293	0.00033157	3.3427e-05	557.36	2.1933e-06	4.8805e-06	818.3	140.68	9.1117e-07	7.236e-07	243.81	54.741	27.221	7.1827	3.328e-06	19.812	6.8587e-05	6.7556e-05	1.8209e-05	460.27	7.258e-07	7.2885e-07	728.37	126.41	7.3064e-07	7.3715e-07	207.42	48.144	24.539	6.7201	7.0465e-07	17.368	297.179	61.588	97.117	50.962	156.395	216.074	49.836	54.671	70.004	46.151	53.166	59.353	59.101	66.801	79.306	66.244	-8191	255	
1130.959	1	1	0	0	0.077055	0.15726	0.13805	0.32352	0.056084	0.23096	0.19554	0.14456	0.151	0.097582	0.056288	0.13479	0.2218	0.19617	0.40493	0.20111	-2.0958	-2.2562	-2.675	-2.4979	-2.3354	-2.7167	-2.5292	-2.4104	-2.625	-2.3208	-2.475	-2.5354	-2.2854	-2.6	-2.5312	-2.6625	365.894	196.557	57.287	96.792	303.249	376.599	346.806	390.836	194.432	303.317	47.853	122.641	375.172	391.266	386.986	296.411	0.00032912	0.00010938	5.8092e-05	568.19	1.4323e-06	4.4446e-06	818.37	141.57	7.3429e-07	3.3641e-06	244.25	55.266	27.268	7.1632	7.496e-07	19.937	6.9899e-05	6.7801e-05	1.8848e-05	466.94	7.4898e-07	7.5235e-07	734.54	127.28	7.5252e-07	7.5705e-07	208.3	48.483	24.655	6.7496	7.3935e-07	17.493	313.769	230.018	176.133	50.339	337.703	192.004	50.018	54.519	164.205	195.363	52.860	59.117	59.799	67.275	57.213	65.575	-8191	255	
