BOXY.EXE: ISS Imagent and Oximeter Data Acquisition Program Version 0.80
Ascii Record File

#ACQ INFORMATION
2  Detector Channels 
16  External MUX Channels 
1  Auxiliary Channels 
5000  Waveform (CCF) Frequency (Hz)
1  Waveforms Skipped 
30  Waveforms Averaged 
1  Cycles Averaged 
16  Acquisitions per Waveform 
10.0806  Updata Rate (Hz) 

#FILE INFORMATION
TRUE -- External MUX Channel results are PARSED.
FALSE -- AC DC and Phase are NOT grouped.
TRUE -- Companion Program Settings File CREATED.
FALSE -- AC data not excluded
FALSE -- DC data not excluded
FALSE -- Phase data not excluded
FALSE -- Auxillary Chn. data not excluded
Tab delimiters

#CALIBRATION STATE
TRUE -- Waveform Calibration Values APPLIED.


#AUX CALIBRATION VALUES
Val Type	aux-1	

Term	1.0000e+00	
Factor	0.0000e+00	


#WF CALIBRATION VALUES
A = Detector Channel
Val Type	A-AC1	A-AC2	A-AC3	A-AC4	A-AC5	A-AC6	A-AC7	A-AC8	A-AC9	A-AC10	A-AC11	A-AC12	A-AC13	A-AC14	A-AC15	A-AC16	A-DC1	A-DC2	A-DC3	A-DC4	A-DC5	A-DC6	A-DC7	A-DC8	A-DC9	A-DC10	A-DC11	A-DC12	A-DC13	A-DC14	A-DC15	A-DC16	A-Ph1	A-Ph2	A-Ph3	A-Ph4	A-Ph5	A-Ph6	A-Ph7	A-Ph8	A-Ph9	A-Ph10	A-Ph11	A-Ph12	A-Ph13	A-Ph14	A-Ph15	A-Ph16	

Term	0.00000e+00	0.00000e+00	0.00000e+00	0.00000e+00	0.00000e+00	0.00000e+00	0.00000e+00	0.00000e+00	0.00000e+00	0.00000e+00	0.00000e+00	0.00000e+00	0.00000e+00	0.00000e+00	0.00000e+00	0.00000e+00	0.00000e+00	0.00000e+00	0.00000e+00	0.00000e+00	0.00000e+00	0.00000e+00	0.00000e+00	0.00000e+00	0.00000e+00	0.00000e+00	0.00000e+00	0.00000e+00	0.00000e+00	0.00000e+00	0.00000e+00	0.00000e+00	0.00000e+00	0.00000e+00	0.00000e+00	0.00000e+00	0.00000e+00	0.00000e+00	0.00000e+00	0.00000e+00	0.00000e+00	0.00000e+00	0.00000e+00	0.00000e+00	0.00000e+00	0.00000e+00	0.00000e+00	0.00000e+00	
Factor	1.00000e+00	1.00000e+00	1.00000e+00	1.00000e+00	1.00000e+00	1.00000e+00	1.00000e+00	1.00000e+00	1.00000e+00	1.00000e+00	1.00000e+00	1.00000e+00	1.00000e+00	1.00000e+00	1.00000e+00	1.00000e+00	1.00000e+00	1.00000e+00	1.00000e+00	1.00000e+00	1.00000e+00	1.00000e+00	1.00000e+00	1.00000e+00	1.00000e+00	1.00000e+00	1.00000e+00	1.00000e+00	1.00000e+00	1.00000e+00	1.00000e+00	1.00000e+00	X	X	X	X	X	X	X	X	X	X	X	X	X	X	X	X	

B = Detector Channel
Val Type	B-AC1	B-AC2	B-AC3	B-AC4	B-AC5	B-AC6	B-AC7	B-AC8	B-AC9	B-AC10	B-AC11	B-AC12	B-AC13	B-AC14	B-AC15	B-AC16	B-DC1	B-DC2	B-DC3	B-DC4	B-DC5	B-DC6	B-DC7	B-DC8	B-DC9	B-DC10	B-DC11	B-DC12	B-DC13	B-DC14	B-DC15	B-DC16	B-Ph1	B-Ph2	B-Ph3	B-Ph4	B-Ph5	B-Ph6	B-Ph7	B-Ph8	B-Ph9	B-Ph10	B-Ph11	B-Ph12	B-Ph13	B-Ph14	B-Ph15	B-Ph16	

Term	0.00000e+00	0.00000e+00	0.00000e+00	0.00000e+00	0.00000e+00	0.00000e+00	0.00000e+00	0.00000e+00	0.00000e+00	0.00000e+00	0.00000e+00	0.00000e+00	0.00000e+00	0.00000e+00	0.00000e+00	0.00000e+00	0.00000e+00	0.00000e+00	0.00000e+00	0.00000e+00	0.00000e+00	0.00000e+00	0.00000e+00	0.00000e+00	0.00000e+00	0.00000e+00	0.00000e+00	0.00000e+00	0.00000e+00	0.00000e+00	0.00000e+00	0.00000e+00	-1.15320e+02	-1.13317e+02	-1.29994e+02	-1.83860e+02	-5.53607e+01	-6.69762e+01	-1.56796e+02	-1.62015e+02	-7.26707e+01	-8.01106e+01	-1.74613e+02	-1.71537e+02	-1.87994e+02	-1.77576e+02	-5.10665e+01	-1.50685e+02	
Factor	1.77360e-05	1.02210e-04	3.89324e-05	1.81336e-01	1.20195e-06	1.16854e-06	1.66773e-01	5.86866e-02	9.45196e-07	1.15316e-06	9.31361e-02	3.32984e-02	6.25100e-02	9.88891e-03	1.24106e-06	1.38202e-02	1.42435e-06	1.50024e-06	4.16904e-07	9.28692e-02	1.63489e-08	1.64556e-08	8.04183e-02	3.00520e-02	1.64033e-08	1.65286e-08	4.58731e-02	1.65075e-02	3.06104e-02	5.03739e-03	1.64278e-08	6.80483e-03	X	X	X	X	X	X	X	X	X	X	X	X	X	X	X	X	



#DISTANCE SETTINGS
A = Detector Channel
A-1	A-2	A-3	A-4	A-5	A-6	A-7	A-8	A-9	A-10	A-11	A-12	A-13	A-14	A-15	A-16	

2.5000e+00	3.0000e+00	2.5000e+00	3.0000e+00	2.0000e+00	3.0000e+00	1.5000e+00	3.0000e+00	3.0000e+00	3.0000e+00	3.0000e+00	3.0000e+00	3.0000e+00	3.0000e+00	1.5000e+00	3.0000e+00	

B = Detector Channel
B-1	B-2	B-3	B-4	B-5	B-6	B-7	B-8	B-9	B-10	B-11	B-12	B-13	B-14	B-15	B-16	

1.0000e+01	1.0000e+01	1.0000e+01	1.4400e+00	1.0000e+01	1.0000e+01	1.5100e+00	1.9400e+00	1.0000e+01	1.0000e+01	1.9900e+00	2.4900e+00	2.4100e+00	2.9000e+00	1.0000e+01	2.9800e+00	




#DATA BEGINS
time	group	step	mark	flag	A-AC1	A-AC2	A-AC3	A-AC4	A-AC5	A-AC6	A-AC7	A-AC8	A-AC9	A-AC10	A-AC11	A-AC12	A-AC13	A-AC14	A-AC15	A-AC16	A-DC1	A-DC2	A-DC3	A-DC4	A-DC5	A-DC6	A-DC7	A-DC8	A-DC9	A-DC10	A-DC11	A-DC12	A-DC13	A-DC14	A-DC15	A-DC16	A-Ph1	A-Ph2	A-Ph3	A-Ph4	A-Ph5	A-Ph6	A-Ph7	A-Ph8	A-Ph9	A-Ph10	A-Ph11	A-Ph12	A-Ph13	A-Ph14	A-Ph15	A-Ph16	B-AC1	B-AC2	B-AC3	B-AC4	B-AC5	B-AC6	B-AC7	B-AC8	B-AC9	B-AC10	B-AC11	B-AC12	B-AC13	B-AC14	B-AC15	B-AC16	B-DC1	B-DC2	B-DC3	B-DC4	B-DC5	B-DC6	B-DC7	B-DC8	B-DC9	B-DC10	B-DC11	B-DC12	B-DC13	B-DC14	B-DC15	B-DC16	B-Ph1	B-Ph2	B-Ph3	B-Ph4	B-Ph5	B-Ph6	B-Ph7	B-Ph8	B-Ph9	B-Ph10	B-Ph11	B-Ph12	B-Ph13	B-Ph14	B-Ph15	B-Ph16	aux-1	digaux	

457.474	1	1	0	768	0.096825	0.14506	0.085102	0.22382	0.060361	0.07313	0.069763	0.12414	0.07434	0.16639	0.19306	0.093244	0.13859	0.34842	0.17662	0.10116	-3.8479	-3.4	-3.3354	-4.4042	-3.2979	-3.825	-4.1417	-3.3521	-4.0042	-3.9354	-3.6646	-4.2917	-3.4188	-3.7021	-4.0396	-3.55	99.932	387.284	414.954	364.744	98.505	121.684	436.553	406.603	430.640	324.199	424.620	424.227	380.278	375.294	151.479	354.710	0.00048175	0.00040297	0.00012777	1366	6.0606e-06	4.4415e-06	1359.6	365.69	3.1329e-07	4.2233e-06	421.2	139.69	122.3	41.637	1.1671e-05	51.656	0.00053093	0.00053386	0.00014735	1378.7	5.8055e-06	5.8157e-06	1375	372.87	5.8413e-06	5.8643e-06	426.92	142.5	123.93	42.736	5.7547e-06	52.915	180.105	378.532	118.363	90.773	240.936	295.056	90.584	95.374	132.719	262.156	94.873	99.327	99.523	104.368	239.902	103.436	-8191	255	
457.570	1	1	0	0	0.11376	0.024312	0.22011	0.049514	0.14294	0.14618	0.014326	0.068452	0.041578	0.094673	0.18333	0.25514	0.26567	0.069422	0.14145	0.10655	-3.8417	-3.7646	-3.4417	-4.1896	-3.5229	-3.7292	-4.275	-3.2438	-4.0479	-3.9958	-3.4896	-4.1792	-3.4458	-3.6854	-3.9042	-3.3083	92.529	163.842	200.464	432.092	208.208	363.839	126.231	418.022	137.284	240.076	352.816	333.912	409.745	368.989	412.028	79.295	0.00049539	0.00023402	3.1623e-05	1364.2	6.8294e-06	5.2225e-06	1360.5	368.22	7.9677e-06	3.6068e-06	420.97	139.59	121.1	41.749	2.8506e-06	51.629	0.00051591	0.0005167	0.00014394	1378.9	5.6497e-06	5.6401e-06	1375	374.02	5.569e-06	5.5784e-06	426.95	142.32	123.55	42.681	5.5111e-06	52.833	169.651	148.152	191.890	90.917	224.683	249.793	90.504	95.369	266.329	333.595	94.898	99.451	100.147	104.534	210.188	103.506	-8191	255	
457.666	1	1	0	0	0.095261	0.12887	0.20675	0.19167	0.15872	0.19697	0.1709	0.1325	0.19911	0.10485	0.10272	0.3076	0.27713	0.13853	0.23203	0.15186	-3.7313	-3.9437	-3.1146	-4.375	-3.6583	-3.4313	-4.3604	-3.3875	-3.8271	-3.9375	-3.4708	-4.1417	-3.5958	-3.6833	-3.9708	-3.4	118.071	211.874	219.547	417.811	305.808	102.273	327.474	308.518	97.110	206.864	222.113	373.486	365.383	156.424	286.356	171.213	0.00045946	0.00042127	0.00011298	1360.4	3.4232e-06	1.7262e-06	1356.4	368.92	6.8299e-06	3.7653e-06	421.14	139.63	121.42	41.921	3.6405e-06	51.785	0.00050832	0.00050174	0.00014106	1374.7	5.4974e-06	5.5077e-06	1372.2	373.94	5.4831e-06	5.4628e-06	426.97	142.36	123.42	42.79	5.4258e-06	52.843	185.595	145.482	127.589	90.937	262.435	366.742	90.793	95.286	251.411	167.179	94.911	99.400	99.956	104.581	292.760	103.524	-8191	255	
457.763	1	1	0	0	0.016258	0.32778	0.26816	0.084109	0.1224	0.35605	0.19816	0.2274	0.075463	0.28036	0.1917	0.037093	0.21884	0.23273	0.29919	0.22267	-3.4417	-4.1896	-3.3146	-4.1625	-3.5708	-3.4792	-4.5229	-3.5292	-3.6354	-4.1875	-3.2938	-4.0167	-3.7542	-3.2562	-4.1813	-3.4813	372.945	99.999	215.118	389.562	152.225	327.434	377.318	139.339	294.604	375.491	383.931	370.021	328.282	357.900	347.778	436.407	0.00041663	0.00027397	0.00012788	1363.3	2.7325e-06	4.4716e-06	1358.5	366.98	4.109e-06	1.3883e-06	419.74	139.11	121.61	41.569	1.0275e-05	51.706	0.00050341	0.00049602	0.00013921	1378.3	5.5439e-06	5.6119e-06	1373.5	373.17	5.6247e-06	5.6245e-06	426.52	142.34	123.54	42.628	5.627e-06	52.877	182.051	222.076	131.485	90.789	217.476	151.590	90.770	95.354	207.226	385.278	94.882	99.236	99.766	104.484	241.690	103.366	-8191	255	
457.859	1	1	0	0	0.11073	0.16564	0.23572	0.23185	0.11624	0.11662	0.22118	0.29696	0.15576	0.078904	0.24837	0.11014	0.20122	0.22624	0.16279	0.041868	-3.2854	-4.2042	-3.4021	-4.0833	-3.8438	-3.3771	-4.4458	-3.4771	-3.5208	-4.0938	-3.4708	-4.0292	-3.8688	-3.4583	-3.9521	-3.4333	80.879	97.507	424.970	412.566	127.398	250.031	341.730	383.177	174.859	391.598	289.019	434.734	362.688	108.585	262.365	381.324	0.00039224	0.00032811	0.00035345	1357.1	3.417e-06	4.5809e-06	1357.4	368.05	5.3718e-06	2.9045e-06	419.46	139.46	120.98	41.643	2.6984e-06	51.729	0.00052209	0.00052074	0.00014488	1376.3	5.6668e-06	5.7004e-06	1375.2	372.97	5.729e-06	5.7563e-06	426.77	142.18	123.4	42.678	5.7283e-06	52.895	192.457	211.793	176.812	90.838	295.976	178.486	90.733	95.390	259.803	236.972	94.551	99.259	100.319	104.294	293.910	103.568	-8191	255	
457.955	1	1	0	0	0.16945	0.091077	0.060156	0.26531	0.071908	0.2849	0.11291	0.23978	0.14022	0.14161	0.16244	0.11362	0.16689	0.15557	0.046191	0.17156	-3.1667	-4.3375	-3.2979	-4.0875	-3.8646	-3.2583	-4.2833	-3.7042	-3.2521	-4.1729	-3.2625	-3.9333	-4.0979	-3.2812	-4.0208	-3.7313	369.674	434.657	398.676	405.320	162.029	343.224	342.561	410.832	273.233	258.147	413.303	398.526	343.370	377.484	164.674	124.871	0.0004879	7.9674e-05	9.4574e-05	1366.1	4.0858e-06	4.9436e-06	1360.3	366.9	3.1051e-06	3.4701e-06	419.24	139.15	121.71	41.968	7.3635e-06	51.469	0.00052197	0.00052064	0.00014451	1377.5	5.6557e-06	5.7017e-06	1374.9	372.94	5.6471e-06	5.6594e-06	425.61	142.16	123.32	42.773	5.5176e-06	52.805	178.426	392.890	156.394	90.861	253.258	218.542	90.724	95.342	261.143	245.013	94.825	99.278	100.003	104.260	255.988	103.534	-8191	255	
458.074	1	1	0	0	0.19773	0.082208	0.0082204	0.066418	0.062902	0.31729	0.44976	0.013815	0.16767	0.24329	0.38228	0.26284	0.058356	0.34317	0.073496	0.1347	-3.1125	-4.2688	-3.4313	-3.8042	-3.9271	-3.2167	-4.025	-4.0292	-3.3438	-4.0396	-3.5229	-3.7292	-4.325	-3.3812	-3.8833	-3.9625	323.428	85.799	373.778	327.100	340.112	421.996	361.629	152.675	234.839	111.642	337.552	434.880	246.637	367.536	154.201	422.515	0.00040495	0.00034873	0.00021912	1359.7	3.6069e-06	1.5768e-06	1361.6	368.25	5.7459e-06	2.3912e-06	420.3	139.34	122.69	41.685	3.2349e-06	51.519	0.00050452	0.00050086	0.00013957	1375.6	5.4722e-06	5.4737e-06	1375.9	373.45	5.4676e-06	5.4543e-06	426.27	142.13	123.6	42.695	5.4072e-06	52.82	178.427	411.228	195.855	90.754	266.275	137.504	90.678	95.363	215.405	271.653	94.942	99.315	99.704	104.277	303.863	103.559	-8191	255	
458.170	1	1	0	0	0.18845	0.19019	0.019529	0.15599	0.078436	0.0144	0.067147	0.10171	0.34192	0.21164	0.25517	0.12318	0.11907	0.065599	0.23776	0.058265	-3.1833	-4.1937	-3.4479	-3.6688	-4.0146	-3.2167	-4.0521	-4.0917	-3.175	-4.0729	-3.7208	-3.7188	-4.2708	-3.2812	-3.8167	-3.9021	361.658	349.737	366.397	343.331	261.864	82.982	138.278	390.219	143.655	323.390	337.231	94.814	409.557	140.107	308.559	432.340	0.00047037	0.00059678	8.9997e-05	1365.6	5.563e-06	5.5771e-06	1363.5	368.97	4.0572e-06	2.1604e-06	420.87	139.61	121.27	41.99	6.7314e-06	51.702	0.00049684	0.00049719	0.00013751	1378.7	5.433e-06	5.4504e-06	1377.5	373.83	5.4929e-06	5.4523e-06	426.53	142.56	123.25	42.806	5.4334e-06	52.818	179.847	182.742	127.122	90.751	223.653	202.678	90.822	95.374	261.654	180.390	94.896	99.373	99.711	104.339	217.443	103.620	-8191	255	
458.266	1	1	0	0	0.23801	0.23989	0.11966	0.10799	0.24028	0.090538	0.13109	0.11672	0.13089	0.066433	0.25322	0.066705	0.18039	0.16423	0.063862	0.28065	-2.8812	-4.1458	-3.7042	-3.4125	-4.1792	-3.4021	-4.0062	-4.0604	-3.1167	-3.9167	-3.6312	-3.3208	-4.3229	-3.4313	-3.7062	-4.1354	270.219	260.364	245.267	354.782	251.006	131.685	254.200	312.429	248.189	304.921	433.564	103.242	147.264	120.807	433.909	381.662	0.00054332	0.00032683	4.9162e-05	1366.5	3.0258e-06	7.729e-06	1360.1	366.79	6.2345e-06	5.2641e-06	422.73	138.65	121.14	41.804	4.5832e-06	51.376	0.00049567	0.00049716	0.00013712	1378.4	5.4224e-06	5.4688e-06	1375.5	372.89	5.5898e-06	5.5702e-06	426.81	141.81	123.3	42.653	5.7425e-06	52.601	178.660	141.414	154.516	90.796	274.397	218.962	90.799	95.223	236.531	244.295	94.768	99.632	99.601	104.506	187.394	103.475	-8191	255	
458.362	1	1	0	0	0.28935	0.4056	0.072904	0.095563	0.060005	0.086067	0.13017	0.16053	0.094771	0.061872	0.23192	0.35626	0.064427	0.32164	0.37645	0.19503	-2.8937	-3.9021	-3.6854	-3.4458	-4.1396	-3.2875	-3.7812	-4.0167	-3.3312	-4.0625	-3.9708	-3.5	-4.1083	-3.5792	-3.4313	-4.225	198.147	285.201	379.410	371.706	270.688	409.556	105.491	384.079	149.225	189.307	88.873	418.970	377.759	403.460	264.453	138.983	0.00043871	0.00040964	0.00024041	1356.8	7.2333e-06	3.9746e-06	1356.7	367.41	1.9127e-06	4.9004e-06	419.44	138.94	120.69	41.787	2.8472e-06	51.71	0.00052316	0.00052927	0.00014631	1374.6	5.8467e-06	5.845e-06	1374	372.9	5.8698e-06	5.8805e-06	426.19	142.02	123.51	42.648	5.8776e-06	52.859	174.905	207.587	109.152	90.713	232.818	238.573	90.681	95.386	259.493	206.177	94.600	99.488	100.207	104.268	255.445	103.371	-8191	255	
458.458	1	1	0	0	0.16164	0.16129	0.08308	0.19578	0.22698	0.22321	0.095573	0.11094	0.19083	0.063304	0.1363	0.23017	0.14251	0.045815	0.13572	0.37085	-3.0625	-3.8979	-3.6417	-3.275	-4.1188	-3.6667	-3.7521	-4.3562	-3.1583	-3.7687	-4.0292	-3.4229	-4.1375	-3.6271	-3.1333	-4.1854	398.443	169.789	85.152	410.451	147.240	339.089	342.522	384.127	205.777	254.659	409.413	330.749	121.241	105.226	267.347	394.660	0.00036915	0.00061733	0.00028709	1366.1	3.2387e-06	6.8333e-06	1366.2	367.49	4.8738e-06	5.1627e-06	420.72	139.05	121.58	41.659	4.4711e-07	51.549	0.00053079	0.00052734	0.00014741	1382.1	5.8178e-06	5.7961e-06	1380	374.33	5.8014e-06	5.7814e-06	427.34	142.36	123.75	42.704	5.7945e-06	52.835	183.892	199.738	178.716	90.791	261.225	200.056	90.725	95.534	234.299	306.792	94.739	99.013	99.750	104.273	188.295	103.390	-8191	255	
458.554	1	1	0	0	0.033059	0.073999	0.23358	0.17094	0.16672	0.029288	0.29646	0.19526	0.1523	0.29744	0.27865	0.25719	0.19893	0.22919	0.15834	0.20795	-2.8917	-3.8167	-3.9854	-3.3792	-4.0188	-3.6208	-3.6542	-4.4208	-3.1937	-3.6	-4.2021	-3.3187	-4.0625	-3.9	-3.25	-4.3479	285.902	399.123	272.682	358.993	158.719	319.853	381.100	347.498	92.683	213.647	381.683	397.130	388.935	85.133	296.672	395.388	0.00043302	0.00016723	9.7607e-05	1362	3.7876e-07	6.2251e-06	1361.8	368.53	3.3377e-06	2.3541e-06	420.27	138.89	121.52	41.6	2.7051e-06	51.932	0.00052741	0.00052036	0.00014538	1379.8	5.6895e-06	5.6149e-06	1378.1	374.36	5.5512e-06	5.5315e-06	426.64	141.99	123.46	42.618	5.4452e-06	52.833	177.145	211.065	193.165	90.712	225.199	145.077	90.748	95.280	266.470	244.153	94.757	99.303	100.549	104.292	250.318	103.542	-8191	255	
458.675	1	1	0	0	0.074531	0.24729	0.077976	0.15811	0.066775	0.27816	0.15311	0.27958	0.025209	0.21519	0.056126	0.35964	0.041185	0.16091	0.048176	0.10348	-2.9917	-3.4354	-4.1625	-3.4	-4	-3.9625	-3.5958	-4.2167	-3.5062	-3.5833	-4.2771	-3.3583	-3.7208	-3.9646	-3.1396	-4.2188	436.298	321.956	348.147	390.838	143.224	248.720	320.225	431.260	130.527	424.638	403.259	349.202	262.378	142.798	162.564	417.355	0.00038581	0.00024919	7.9921e-05	1364.9	5.7876e-06	6.9921e-06	1367	369.27	8.1507e-06	5.66e-06	422.57	138.79	122.21	41.674	6.2593e-06	51.858	0.00049919	0.00049408	0.00013784	1380.6	5.4604e-06	5.4029e-06	1379.9	374.84	5.4511e-06	5.5125e-06	427.32	142.18	123.71	42.626	5.5664e-06	52.86	181.438	209.888	122.660	90.756	212.075	297.258	90.609	95.365	207.159	241.207	94.876	99.366	100.254	104.226	225.539	103.641	-8191	255	
458.769	1	1	0	0	0.2324	0.091772	0.18821	0.16388	0.20198	0.23775	0.25083	0.10538	0.25357	0.085348	0.10549	0.13045	0.10526	0.15849	0.066677	0.091835	-3.325	-3.4604	-4.0083	-3.3333	-3.8438	-3.9583	-3.4188	-4.2708	-3.5708	-3.2479	-4.2417	-3.4479	-3.6979	-4.1104	-3.3375	-4.1417	350.816	137.410	371.291	423.355	387.444	410.964	357.725	322.261	152.401	248.067	374.627	227.805	399.610	404.377	207.830	399.856	0.00044354	0.00043041	9.2403e-05	1371.5	1.945e-06	2.9935e-06	1368.5	369.97	6.1948e-06	2.9856e-06	423.49	139.68	121.95	41.711	2.0648e-06	51.455	0.00051318	0.00051441	0.00014331	1385.8	5.6481e-06	5.6117e-06	1383.3	375.33	5.6898e-06	5.6929e-06	427.76	142.77	124.06	42.791	5.6968e-06	52.918	179.119	137.200	197.296	90.639	328.034	214.965	90.541	95.364	266.012	220.984	94.742	99.314	100.380	104.151	209.932	103.373	-8191	255	
458.866	1	1	0	0	0.1149	0.032991	0.18034	0.016663	0.077374	0.24422	0.35768	0.31686	0.24825	0.19685	0.18484	0.085455	0.030339	0.16596	0.15102	0.27179	-3.3563	-3.3792	-4.1042	-3.6125	-3.4792	-4.0896	-3.3333	-3.9958	-3.7625	-3.3125	-4.1708	-3.6792	-3.5438	-4.0979	-3.1667	-4.2021	375.613	363.298	390.011	88.015	409.908	304.287	363.302	413.840	81.153	241.639	383.369	158.215	343.850	431.113	359.642	336.554	0.00044664	9.781e-05	7.7085e-05	1365.1	7.3376e-06	5.8041e-06	1368.1	369.69	2.8712e-06	7.0294e-06	420.97	139.12	121.69	41.741	7.099e-06	51.797	0.00052436	0.00051714	0.00014468	1383.4	5.6807e-06	5.6901e-06	1381.8	375.33	5.6831e-06	5.6972e-06	427.89	142.51	123.79	42.77	5.5962e-06	52.898	174.692	170.606	91.241	90.638	185.023	265.329	90.731	95.682	205.719	205.143	94.977	99.283	100.152	104.199	247.318	103.742	-8191	255	
458.962	1	1	0	0	0.27252	0.10746	0.070824	0.16908	0.27003	0.10002	0.30271	0.034997	0.082717	0.11217	0.082842	0.27867	0.10098	0.14835	0.050269	0.051239	-3.6958	-3.2792	-4.1542	-3.7458	-3.5104	-4.1458	-3.0917	-3.9437	-3.8646	-3.2479	-4.3542	-3.6271	-3.4917	-4.1354	-3.1229	-3.8646	246.733	78.350	177.633	334.485	260.758	193.746	352.548	351.448	313.010	83.944	199.349	437.032	410.144	269.084	143.786	82.128	0.00054434	0.00070956	6.56e-05	1371.2	4.6973e-06	6.7693e-06	1360.7	369.79	4.0421e-06	5.9976e-06	421.18	139.26	120.81	41.604	7.5472e-06	51.766	0.0005048	0.00051036	0.0001419	1380	5.5714e-06	5.543e-06	1377.2	374.3	5.5095e-06	5.5356e-06	426.43	142.03	123.25	42.664	5.5376e-06	52.823	185.318	224.694	242.989	90.617	237.175	176.624	90.709	95.354	235.186	142.435	94.735	99.206	100.542	103.983	232.429	103.439	-8191	255	
459.035	1	1	0	0	0.19245	0.19513	0.016326	0.33155	0.097181	0.13103	0.15662	0.47581	0.19378	0.098815	0.15987	0.3339	0.14444	0.17196	0.1208	0.25061	-3.5583	-3.1063	-4.025	-3.8917	-3.3625	-4.0896	-3.3604	-3.6437	-3.9396	-3.2833	-4.0083	-3.7313	-3.5458	-4.3667	-3.45	-3.6354	426.682	393.265	242.595	405.344	238.035	277.853	399.297	404.253	144.346	238.517	241.872	324.619	348.473	148.471	289.482	221.478	0.0004321	0.00026031	0.00010162	1359.5	6.1581e-06	2.406e-06	1355.4	369.75	4.7694e-06	6.9676e-06	422.74	140.06	122.53	41.951	6.7482e-06	51.898	0.00050679	0.00050626	0.00013999	1377.8	5.5112e-06	5.5326e-06	1374.1	374.35	5.5555e-06	5.5655e-06	427.57	142.35	123.86	42.711	5.5985e-06	52.882	182.390	203.159	188.349	90.621	265.250	223.803	90.502	95.529	269.706	229.045	94.883	99.440	99.639	104.278	276.931	103.779	-8191	255	
459.154	1	1	0	0	0.069411	0.03568	0.011789	0.22065	0.15392	0.087824	0.20738	0.26023	0.21808	0.26569	0.19529	0.13403	0.27744	0.13653	0.25816	0.2641	-3.6646	-3.1354	-3.9958	-4.0479	-3.275	-4.2063	-3.4875	-3.6104	-4.2979	-3.4104	-4.1146	-3.975	-3.2417	-4.0375	-3.4729	-3.65	419.894	184.847	113.366	399.740	230.438	141.763	287.301	383.150	112.757	428.935	89.414	118.441	332.981	380.520	292.111	175.982	0.00053304	0.00033322	3.9411e-05	1371.8	7.7212e-06	1.7571e-06	1360.4	368.53	2.2861e-06	2.5867e-06	422.47	139.37	122.06	41.936	6.1294e-06	51.869	0.00050925	0.00050883	0.00014156	1382.3	5.5393e-06	5.5074e-06	1377.8	374.64	5.5079e-06	5.4948e-06	427.21	142.47	123.6	42.789	5.4585e-06	52.991	179.074	250.933	339.449	90.740	273.939	241.904	90.739	95.750	262.208	128.004	94.845	99.411	100.249	104.241	226.424	103.596	-8191	255	
