BOXY.EXE: ISS Imagent and Oximeter Data Acquisition Program Version 0.80
Ascii Record File

#ACQ INFORMATION
2  Detector Channels 
16  External MUX Channels 
1  Auxiliary Channels 
5000  Waveform (CCF) Frequency (Hz)
1  Waveforms Skipped 
30  Waveforms Averaged 
1  Cycles Averaged 
16  Acquisitions per Waveform 
10.0806  Updata Rate (Hz) 

#FILE INFORMATION
TRUE -- External MUX Channel results are PARSED.
FALSE -- AC DC and Phase are NOT grouped.
TRUE -- Companion Program Settings File CREATED.
FALSE -- AC data not excluded
FALSE -- DC data not excluded
FALSE -- Phase data not excluded
FALSE -- Auxillary Chn. data not excluded
Tab delimiters

#CALIBRATION STATE
TRUE -- Waveform Calibration Values APPLIED.


#AUX CALIBRATION VALUES
Val Type	aux-1	

Term	1.0000e+00	
Factor	0.0000e+00	


#WF CALIBRATION VALUES
A = Detector Channel
Val Type	A-AC1	A-AC2	A-AC3	A-AC4	A-AC5	A-AC6	A-AC7	A-AC8	A-AC9	A-AC10	A-AC11	A-AC12	A-AC13	A-AC14	A-AC15	A-AC16	A-DC1	A-DC2	A-DC3	A-DC4	A-DC5	A-DC6	A-DC7	A-DC8	A-DC9	A-DC10	A-DC11	A-DC12	A-DC13	A-DC14	A-DC15	A-DC16	A-Ph1	A-Ph2	A-Ph3	A-Ph4	A-Ph5	A-Ph6	A-Ph7	A-Ph8	A-Ph9	A-Ph10	A-Ph11	A-Ph12	A-Ph13	A-Ph14	A-Ph15	A-Ph16	

Term	0.00000e+00	0.00000e+00	0.00000e+00	0.00000e+00	0.00000e+00	0.00000e+00	0.00000e+00	0.00000e+00	0.00000e+00	0.00000e+00	0.00000e+00	0.00000e+00	0.00000e+00	0.00000e+00	0.00000e+00	0.00000e+00	0.00000e+00	0.00000e+00	0.00000e+00	0.00000e+00	0.00000e+00	0.00000e+00	0.00000e+00	0.00000e+00	0.00000e+00	0.00000e+00	0.00000e+00	0.00000e+00	0.00000e+00	0.00000e+00	0.00000e+00	0.00000e+00	0.00000e+00	0.00000e+00	0.00000e+00	0.00000e+00	0.00000e+00	0.00000e+00	0.00000e+00	0.00000e+00	0.00000e+00	0.00000e+00	0.00000e+00	0.00000e+00	0.00000e+00	0.00000e+00	0.00000e+00	0.00000e+00	
Factor	1.00000e+00	1.00000e+00	1.00000e+00	1.00000e+00	1.00000e+00	1.00000e+00	1.00000e+00	1.00000e+00	1.00000e+00	1.00000e+00	1.00000e+00	1.00000e+00	1.00000e+00	1.00000e+00	1.00000e+00	1.00000e+00	1.00000e+00	1.00000e+00	1.00000e+00	1.00000e+00	1.00000e+00	1.00000e+00	1.00000e+00	1.00000e+00	1.00000e+00	1.00000e+00	1.00000e+00	1.00000e+00	1.00000e+00	1.00000e+00	1.00000e+00	1.00000e+00	X	X	X	X	X	X	X	X	X	X	X	X	X	X	X	X	

B = Detector Channel
Val Type	B-AC1	B-AC2	B-AC3	B-AC4	B-AC5	B-AC6	B-AC7	B-AC8	B-AC9	B-AC10	B-AC11	B-AC12	B-AC13	B-AC14	B-AC15	B-AC16	B-DC1	B-DC2	B-DC3	B-DC4	B-DC5	B-DC6	B-DC7	B-DC8	B-DC9	B-DC10	B-DC11	B-DC12	B-DC13	B-DC14	B-DC15	B-DC16	B-Ph1	B-Ph2	B-Ph3	B-Ph4	B-Ph5	B-Ph6	B-Ph7	B-Ph8	B-Ph9	B-Ph10	B-Ph11	B-Ph12	B-Ph13	B-Ph14	B-Ph15	B-Ph16	

Term	0.00000e+00	0.00000e+00	0.00000e+00	0.00000e+00	0.00000e+00	0.00000e+00	0.00000e+00	0.00000e+00	0.00000e+00	0.00000e+00	0.00000e+00	0.00000e+00	0.00000e+00	0.00000e+00	0.00000e+00	0.00000e+00	0.00000e+00	0.00000e+00	0.00000e+00	0.00000e+00	0.00000e+00	0.00000e+00	0.00000e+00	0.00000e+00	0.00000e+00	0.00000e+00	0.00000e+00	0.00000e+00	0.00000e+00	0.00000e+00	0.00000e+00	0.00000e+00	-7.86066e+01	-1.31001e+02	-1.24786e+02	-1.83817e+02	-4.99121e+01	-6.53093e+01	-1.58668e+02	-1.62015e+02	-4.89199e+01	-6.62152e+01	-1.74374e+02	-1.69631e+02	-1.81559e+02	-1.77656e+02	-5.84456e+01	-1.50419e+02	
Factor	1.94216e-05	1.68321e-04	4.74969e-05	1.55115e-01	1.43856e-06	2.00494e-06	1.80626e-01	6.10451e-02	1.32424e-06	1.89511e-06	1.00420e-01	3.08861e-02	3.91032e-02	1.03895e-02	1.63570e-06	1.47649e-02	1.30170e-05	2.26506e-05	6.31162e-06	7.96424e-02	2.23240e-07	2.52336e-07	8.66108e-02	3.14689e-02	2.25496e-07	2.50935e-07	5.02129e-02	1.55535e-02	2.03098e-02	5.40091e-03	2.36603e-07	7.42413e-03	X	X	X	X	X	X	X	X	X	X	X	X	X	X	X	X	



#DISTANCE SETTINGS
A = Detector Channel
A-1	A-2	A-3	A-4	A-5	A-6	A-7	A-8	A-9	A-10	A-11	A-12	A-13	A-14	A-15	A-16	

2.5000e+00	3.0000e+00	2.5000e+00	3.0000e+00	2.0000e+00	3.0000e+00	1.5000e+00	3.0000e+00	3.0000e+00	3.0000e+00	3.0000e+00	3.0000e+00	3.0000e+00	3.0000e+00	1.5000e+00	3.0000e+00	

B = Detector Channel
B-1	B-2	B-3	B-4	B-5	B-6	B-7	B-8	B-9	B-10	B-11	B-12	B-13	B-14	B-15	B-16	

1.0000e+01	1.0000e+01	1.0000e+01	1.4400e+00	1.0000e+01	1.0000e+01	1.5100e+00	1.9400e+00	1.0000e+01	1.0000e+01	1.9900e+00	2.4900e+00	2.4100e+00	2.9000e+00	1.0000e+01	2.9800e+00	




#DATA BEGINS
time	group	step	mark	flag	A-AC1	A-AC2	A-AC3	A-AC4	A-AC5	A-AC6	A-AC7	A-AC8	A-AC9	A-AC10	A-AC11	A-AC12	A-AC13	A-AC14	A-AC15	A-AC16	A-DC1	A-DC2	A-DC3	A-DC4	A-DC5	A-DC6	A-DC7	A-DC8	A-DC9	A-DC10	A-DC11	A-DC12	A-DC13	A-DC14	A-DC15	A-DC16	A-Ph1	A-Ph2	A-Ph3	A-Ph4	A-Ph5	A-Ph6	A-Ph7	A-Ph8	A-Ph9	A-Ph10	A-Ph11	A-Ph12	A-Ph13	A-Ph14	A-Ph15	A-Ph16	B-AC1	B-AC2	B-AC3	B-AC4	B-AC5	B-AC6	B-AC7	B-AC8	B-AC9	B-AC10	B-AC11	B-AC12	B-AC13	B-AC14	B-AC15	B-AC16	B-DC1	B-DC2	B-DC3	B-DC4	B-DC5	B-DC6	B-DC7	B-DC8	B-DC9	B-DC10	B-DC11	B-DC12	B-DC13	B-DC14	B-DC15	B-DC16	B-Ph1	B-Ph2	B-Ph3	B-Ph4	B-Ph5	B-Ph6	B-Ph7	B-Ph8	B-Ph9	B-Ph10	B-Ph11	B-Ph12	B-Ph13	B-Ph14	B-Ph15	B-Ph16	aux-1	digaux	

20050.088	1	1	0	768	0.18091	0.2235	0.21415	0.083284	0.065283	0.10882	0.2378	0.33717	0.18635	0.13861	0.18889	0.22731	0.10923	0.18832	0.096648	0.31539	-1.9625	-3.0062	-2.675	-2.5438	-2.8271	-2.4208	-2.8104	-2.8625	-2.2667	-2.8479	-2.7646	-2.3	-2.9667	-2.6333	-2.5167	-3.0687	217.392	272.523	305.553	174.041	188.490	126.033	392.930	285.428	104.994	184.836	313.516	354.773	206.018	405.274	118.834	77.504	0.00057298	0.00057709	0.00010877	826.61	7.1111e-06	6.63e-06	756.26	351.64	4.9749e-06	5.7433e-06	359.59	147	142.6	64.103	7.6748e-06	68.729	0.00068057	0.00067433	0.00019299	814.21	7.0562e-06	7.3561e-06	741.6	347.85	7.4827e-06	7.4198e-06	354.32	145.47	141.29	63.85	7.8833e-06	68.017	211.927	161.014	153.974	77.047	230.370	236.717	76.385	82.195	236.687	222.269	79.953	84.082	86.351	89.448	238.291	87.086	-8191	255	
20050.184	1	1	0	0	0.10467	0.18611	0.061692	0.15362	0.1446	0.17275	0.37985	0.073754	0.1771	0.26874	0.07781	0.01856	0.28495	0.12732	0.10334	0.21402	-1.8833	-2.9167	-2.7708	-2.4229	-2.9229	-2.5271	-2.6188	-3.1333	-2.175	-2.9	-2.8771	-2.3167	-3.0333	-2.8521	-2.3542	-2.9562	316.573	202.034	410.423	410.246	304.762	257.501	311.488	359.249	139.868	374.443	70.361	295.406	109.279	165.636	190.489	304.375	0.00055279	0.00054587	0.00022155	833.04	4.005e-06	2.9587e-06	756.97	351.75	5.5465e-06	4.5953e-06	352.29	144.93	141.55	63.076	5.8291e-06	67.229	0.00069047	0.00067867	0.00019483	816.91	7.1297e-06	7.6721e-06	740.46	346.39	7.3676e-06	7.4894e-06	349.81	143.13	139.91	62.813	7.9647e-06	66.517	215.485	165.206	171.979	76.794	247.241	232.828	76.490	81.975	216.188	186.310	79.687	84.517	86.172	89.770	226.489	87.222	-8191	255	
20050.279	1	1	0	0	0.15765	0.24516	0.24848	0.26343	0.12672	0.12036	0.30911	0.22695	0.052381	0.13222	0.20513	0.30187	0.23875	0.23058	0.092108	0.24177	-1.75	-2.7667	-2.7188	-2.2896	-2.7562	-2.6792	-2.4146	-3.1104	-2.2938	-2.7604	-2.8563	-2.4437	-2.7604	-2.625	-2.1562	-2.9583	179.427	112.004	405.233	382.164	393.953	267.902	338.577	345.905	417.245	365.548	396.803	339.563	99.507	380.396	265.521	396.920	0.00052425	0.00060181	0.00013409	830.85	5.855e-06	6.7922e-06	744.44	346.96	4.5868e-06	7.1848e-06	350.35	142.24	138.97	62.282	6.8587e-06	65.829	0.0006803	0.00071359	0.00019377	813.82	7.5074e-06	7.8456e-06	730.68	342.27	7.6725e-06	8.0184e-06	344.93	141.12	138.12	62.045	8.1465e-06	65.474	213.237	147.726	178.913	77.076	248.548	229.469	76.446	81.845	249.748	205.167	79.947	84.397	86.441	89.616	226.850	87.005	-8191	255	
20050.377	1	1	0	0	0.13359	0.2489	0.16678	0.16406	0.22202	0.18935	0.23107	0.21336	0.12991	0.14829	0.26536	0.14201	0.18223	0.25661	0.16666	0.075728	-1.9417	-2.6083	-2.8479	-2.2854	-2.8708	-2.8208	-2.4417	-3.0104	-2.5354	-2.4167	-3.0687	-2.4562	-2.9167	-2.7687	-2.3167	-3.1083	228.781	309.964	224.374	81.932	345.627	71.326	336.869	387.091	349.437	249.826	386.198	375.209	413.687	70.353	126.021	102.875	0.00052745	0.00065899	0.0001528	830.02	5.2461e-06	7.2343e-06	745.68	345.31	5.3434e-06	6.9231e-06	351.07	142.58	139.39	62.357	8.8938e-06	66.154	0.00069248	0.0007353	0.00019308	813.13	7.2804e-06	7.9381e-06	729.09	341.96	7.5734e-06	7.9933e-06	344.38	141.07	138.31	62.049	8.1037e-06	65.725	211.447	157.719	136.777	77.241	213.560	201.589	76.476	81.968	252.385	209.717	79.867	84.121	86.165	89.422	224.794	87.544	-8191	255	
20050.473	1	1	0	0	0.19972	0.1947	0.15358	0.28086	0.25812	0.065706	0.2506	0.16673	0.036957	0.14492	0.12624	0.053901	0.17445	0.17806	0.051544	0.18566	-1.9438	-2.5187	-2.8354	-2.4875	-2.7021	-2.9125	-2.3333	-3.0479	-2.7	-2.5125	-3.0354	-2.35	-2.7271	-2.9792	-2.1542	-3.0479	186.281	273.136	106.817	385.789	318.285	186.047	390.383	223.964	119.540	67.333	296.114	91.933	395.524	394.523	74.035	255.491	0.0005333	0.00075051	0.00016076	829.6	4.9915e-06	5.2028e-06	748.52	349.24	6.8033e-06	4.8724e-06	352.09	142.8	140.2	62.44	6.7422e-06	66.524	0.00068779	0.00073048	0.00020212	814.34	7.3413e-06	7.7173e-06	732.82	342.97	7.5325e-06	8.0409e-06	347.29	141.64	139.11	62.277	7.8927e-06	65.897	212.611	146.516	157.965	76.771	249.098	181.403	76.298	81.799	241.927	238.098	79.983	84.315	86.159	89.837	210.119	87.138	-8191	255	
20050.568	1	1	0	0	0.24722	0.15315	0.26329	0.15479	0.29951	0.17834	0.13733	0.16743	0.18123	0.14016	0.078609	0.17139	0.16771	0.26641	0.095297	0.3745	-2.1854	-2.3208	-3.0583	-2.5125	-2.7458	-3.025	-2.3729	-2.8021	-2.6063	-2.5646	-3.1312	-2.3958	-2.5604	-2.9979	-2.2938	-3.025	410.367	85.937	85.412	396.422	170.471	68.758	416.254	260.487	278.990	108.475	337.670	127.704	391.108	419.547	274.453	402.967	0.00054801	0.00070842	0.00016437	834.81	3.6786e-06	7.6549e-06	745.4	345.73	4.9675e-06	7.079e-06	350.06	141.92	140.42	62.247	6.6671e-06	66.19	0.00068947	0.00072727	0.00019751	818.54	7.3762e-06	7.7346e-06	732.71	342.35	7.6514e-06	7.8715e-06	344.96	140.87	139.15	61.964	8.1382e-06	65.372	212.023	168.071	157.434	77.071	227.904	207.557	76.469	81.978	251.996	216.197	79.971	84.342	86.110	89.897	223.834	87.021	-8191	255	
20050.689	1	1	0	0	0.23124	0.1078	0.087601	0.21258	0.070655	0.087586	0.13534	0.18968	0.1946	0.16327	0.1427	0.10062	0.089206	0.16024	0.12685	0.079291	-2.4521	-2.3812	-3.0687	-2.6417	-2.6437	-3.1	-2.4562	-2.7896	-2.9313	-2.2875	-2.9458	-2.5875	-2.4521	-2.9729	-2.3375	-2.8521	148.813	248.012	372.011	167.475	275.421	393.508	345.812	407.082	312.097	390.620	78.251	375.641	318.024	148.082	159.353	226.074	0.00052462	0.00062691	0.00017553	834.54	4.5086e-06	5.9949e-06	751.53	347.13	5.5815e-06	6.9691e-06	347.51	141.95	139.83	62.106	6.3652e-06	65.801	0.00068209	0.0007444	0.00019925	817.94	7.5302e-06	7.9307e-06	732.52	342.5	7.5499e-06	7.9044e-06	343.75	140.56	138.87	61.933	7.834e-06	65.275	211.190	162.644	153.283	77.222	237.660	204.045	76.577	82.062	241.785	204.365	80.011	84.310	86.359	89.841	221.655	87.128	-8191	255	
20050.785	1	1	0	0	0.32902	0.3033	0.24847	0.18486	0.10091	0.14841	0.25482	0.47193	0.047481	0.093099	0.085173	0.34211	0.1508	0.066828	0.16435	0.18433	-2.4437	-2.2583	-2.8542	-2.4542	-2.4375	-2.875	-2.2771	-2.4833	-2.7833	-2.3583	-3.0229	-2.7146	-2.3521	-3.0667	-2.4604	-2.8458	65.707	362.362	314.429	71.427	216.180	67.377	352.652	320.941	169.480	348.330	405.183	365.534	319.539	251.270	301.414	297.982	0.00053404	0.00050262	0.00019519	831.11	5.6772e-06	6.557e-06	749.57	346.98	4.4734e-06	6.2292e-06	348.53	142.33	139.65	62.067	5.5661e-06	66.158	0.00067773	0.00071279	0.00020004	816.66	7.4009e-06	7.7162e-06	731.42	342.16	7.339e-06	7.7079e-06	344.57	141.06	138.94	61.835	7.9233e-06	65.434	215.076	150.418	137.794	77.450	222.611	210.307	76.393	81.882	222.811	212.497	79.997	84.342	86.564	89.901	236.519	86.941	-8191	255	
20050.881	1	1	0	0	0.062098	0.099318	0.1321	0.13967	0.15486	0.19477	0.13954	0.10649	0.11738	0.10942	0.15728	0.1919	0.24348	0.20462	0.23733	0.32331	-2.4813	-2.1771	-2.8833	-2.7521	-2.3792	-3.0917	-2.7104	-2.4938	-2.925	-2.2354	-2.7438	-2.8396	-2.3187	-3.2438	-2.5021	-2.5729	124.883	369.488	358.353	379.808	381.623	92.058	180.414	249.516	210.034	160.203	316.979	65.096	363.852	418.826	254.645	398.788	0.00052701	0.00036722	0.00013108	833.93	6.5356e-06	7.0184e-06	748.16	346.64	4.2895e-06	5.0343e-06	348.98	142.8	140.28	62.022	4.8921e-06	65.934	0.00065964	0.00072567	0.00020159	820.66	7.5711e-06	7.7714e-06	734.63	341.73	7.3216e-06	7.8067e-06	344.35	141.32	138.95	61.764	7.7966e-06	65.339	214.062	139.025	162.498	76.981	243.709	244.036	76.688	81.777	246.462	209.569	80.131	84.351	86.263	89.769	200.916	86.961	-8191	255	
20050.979	1	1	0	0	0.10792	0.10895	0.42312	0.14144	0.16561	0.12927	0.088875	0.034503	0.20131	0.22825	0.10618	0.1503	0.23965	0.12597	0.14078	0.15652	-2.5583	-2.2021	-2.6979	-2.9188	-2.1208	-3.0146	-2.7	-2.6167	-2.8875	-2.4813	-2.7438	-2.8396	-2.375	-3.0042	-2.5292	-2.4771	223.106	173.789	308.032	260.879	196.992	67.708	164.071	348.769	406.952	159.948	110.963	69.374	339.145	372.177	140.229	381.631	0.00052352	0.0006635	0.00013205	838.61	5.9481e-06	4.471e-06	750.88	345.65	3.556e-06	3.9079e-06	351.41	141.88	139.43	61.627	3.7706e-06	65.459	0.00067301	0.0007101	0.00019962	821.7	7.533e-06	8.069e-06	734.8	341.26	7.3949e-06	8.0994e-06	344.11	140.74	138.3	61.467	7.9444e-06	64.853	214.814	171.044	150.908	77.223	254.138	229.668	76.639	81.776	230.247	196.845	79.988	84.442	85.945	89.745	227.557	87.098	-8191	255	
20051.072	1	1	0	0	0.060254	0.25256	0.1188	0.17843	0.025573	0.066662	0.31256	0.053316	0.11039	0.15632	0.28496	0.12959	0.28619	0.11161	0.22298	0.33452	-2.4188	-2.3438	-2.4229	-2.9958	-2.2167	-2.8937	-2.7583	-2.3542	-3.0833	-2.2208	-2.4875	-3.0375	-2.1521	-2.9437	-2.5729	-2.4813	105.405	130.554	237.935	370.764	391.086	287.957	335.197	385.941	281.525	223.813	69.507	408.996	251.886	176.254	346.248	77.474	0.00050222	0.00056377	0.00018154	838.53	4.907e-06	7.3597e-06	750.12	343.18	5.4759e-06	5.3032e-06	344.94	140.37	138.56	61.119	5.9993e-06	64.916	0.00067962	0.00071897	0.00019843	820.67	7.4297e-06	8.1005e-06	731.63	339.52	7.5306e-06	7.9233e-06	340.27	139.44	137.21	60.976	7.9366e-06	64.144	212.816	182.107	136.841	76.989	211.757	227.619	76.481	82.001	241.876	205.199	79.545	84.352	86.565	89.662	199.483	86.846	-8191	255	
20051.168	1	1	0	0	0.16404	0.20848	0.12321	0.44929	0.10944	0.10204	0.26169	0.11485	0.090151	0.19864	0.034543	0.056652	0.09427	0.2682	0.13023	0.25416	-2.4167	-2.6458	-2.375	-3.0938	-2.3292	-2.7833	-2.8333	-2.25	-3.05	-2.55	-2.5625	-3.0708	-2.5292	-2.8583	-2.7687	-2.2458	112.175	294.241	275.074	398.649	74.280	75.799	379.718	417.516	213.167	366.709	375.620	321.450	98.718	374.640	162.262	349.957	0.00052433	0.00052839	0.00018319	833.34	6.6197e-06	4.2258e-06	742.91	343.38	5.115e-06	6.2378e-06	345.39	140.84	137.9	61.312	5.6786e-06	64.921	0.00068125	0.00072647	0.00020446	819.58	7.6967e-06	7.7914e-06	728.62	338.81	7.5377e-06	7.7612e-06	339.81	139.37	137.06	61.039	7.8922e-06	64.35	212.337	137.814	166.312	77.104	238.451	209.457	76.749	82.081	223.727	214.848	79.872	84.573	86.245	89.787	238.953	87.208	-8191	255	
20051.289	1	1	0	0	0.26778	0.029001	0.11223	0.17026	0.094594	0.11111	0.017486	0.15096	0.034238	0.21517	0.27279	0.12895	0.1191	0.22264	0.11008	0.04488	-2.5854	-2.5312	-2.4458	-3.0812	-2.3521	-2.6604	-2.9562	-2.3729	-2.9125	-2.5896	-2.3708	-3.0375	-2.3896	-2.8396	-2.8375	-2.2979	142.126	127.378	383.339	378.787	192.672	132.940	110.871	343.257	226.924	129.265	399.592	332.054	87.410	158.158	190.344	203.068	0.00048828	0.00059906	0.0001849	836.95	4.9275e-06	6.8122e-06	747.49	345.49	4.6923e-06	3.5138e-06	344.3	140.85	138.59	61.602	8.0713e-06	65.356	0.00065356	0.00071812	0.00020531	822.09	7.4278e-06	7.9307e-06	732.3	339.39	7.6124e-06	8.0299e-06	340.43	139.96	137.51	61.177	7.9656e-06	64.665	213.026	166.065	152.966	77.065	221.932	222.680	76.545	82.113	244.123	214.631	78.917	83.667	85.738	88.737	243.768	85.886	-8191	255	
20051.385	1	1	0	0	0.17098	0.22933	0.1901	0.1947	0.12914	0.27155	0.24544	0.22972	0.17428	0.12403	0.11762	0.1691	0.11374	0.24105	0.19817	0.10752	-2.4875	-2.5	-2.2375	-2.9667	-2.2458	-2.4458	-2.9583	-2.3479	-2.6417	-2.7646	-2.3458	-3.1437	-2.6229	-2.5708	-2.975	-2.4521	307.833	415.086	157.434	81.094	266.050	280.387	319.109	418.958	256.301	334.509	120.324	367.859	329.977	363.046	101.864	239.177	0.00050984	0.00051414	0.00023512	837.76	3.8365e-06	3.7088e-06	743.6	344.24	4.7035e-06	6.9237e-06	344.31	141.52	139.15	61.588	4.2033e-06	65.497	0.00067987	0.00072992	0.00019937	823.06	7.2762e-06	7.8871e-06	732.7	339.61	7.6011e-06	7.8025e-06	341.15	140.22	138.4	61.352	7.8542e-06	64.729	212.008	172.695	146.102	76.329	228.760	209.661	75.815	81.344	227.494	218.450	79.325	83.903	85.591	89.220	250.047	86.299	-8191	255	
20051.480	1	1	0	0	0.11831	0.21941	0.098105	0.24488	0.34311	0.23734	0.26547	0.11904	0.28306	0.24512	0.10863	0.18908	0.19897	0.17615	0.098508	0.097774	-2.2958	-2.5	-2.2292	-3.1083	-2.5167	-2.55	-3.0021	-2.5375	-2.7104	-2.9437	-2.425	-3.0771	-2.6229	-2.5958	-2.8688	-2.6271	120.502	231.072	400.558	360.823	110.152	286.934	350.442	411.094	202.662	362.464	393.370	373.108	392.077	375.488	206.235	365.901	0.00052568	0.00052497	0.00015248	843.27	4.9889e-06	5.4725e-06	746.43	345.22	5.6124e-06	3.1533e-06	344.25	140.77	138.69	61.379	5.5854e-06	64.985	0.00067371	0.00071604	0.00020255	824.18	7.4255e-06	7.845e-06	732.04	339.95	7.4193e-06	7.6885e-06	339.6	139.68	137.67	61.223	7.7946e-06	64.313	209.747	143.931	156.233	76.869	237.424	212.167	76.850	82.005	229.597	229.011	79.839	84.794	86.372	89.878	228.901	87.324	-8191	255	
20051.576	1	1	0	0	0.16948	0.066835	0.040181	0.084549	0.2447	0.24755	0.19769	0.23044	0.046182	0.098725	0.41134	0.070225	0.17306	0.17144	0.38057	0.10236	-2.2354	-2.8312	-2.3	-3.0292	-2.5958	-2.4542	-3.1562	-2.5312	-2.6188	-2.8458	-2.4625	-3.0292	-2.6958	-2.5167	-2.9458	-2.5417	340.247	338.752	151.711	82.871	151.755	235.753	401.127	314.683	125.801	399.974	357.360	226.206	419.676	358.731	119.666	336.093	0.00050539	0.00071828	0.00013605	838.37	6.1592e-06	4.0776e-06	743.17	342.66	4.6378e-06	5.5744e-06	343.92	140.21	138.82	61.063	4.7425e-06	64.805	0.00067553	0.00074827	0.00020433	823.24	7.3706e-06	7.9817e-06	730.47	338.58	7.8257e-06	8.0628e-06	338.64	138.98	137.72	60.848	8.1337e-06	64.038	211.074	159.736	141.822	77.412	240.837	203.378	76.819	82.431	214.271	232.923	80.277	84.652	86.677	89.997	214.679	87.121	-8191	255	
20051.674	1	1	0	0	0.075457	0.14521	0.16078	0.1642	0.33271	0.14906	0.096076	0.124	0.17112	0.19181	0.14353	0.089574	0.20171	0.081833	0.053641	0.28916	-2.0354	-2.8917	-2.2812	-3.025	-2.7	-2.1375	-3.1667	-2.6542	-2.4604	-3.0375	-2.3042	-2.8604	-2.9313	-2.3875	-2.9479	-2.5667	170.407	249.811	284.622	339.168	349.054	292.996	377.523	216.348	311.458	382.709	276.039	389.720	393.045	70.117	105.222	406.845	0.00051991	0.00063111	0.00013891	841.02	4.5111e-06	6.3077e-06	749.7	344.24	5.7867e-06	4.8973e-06	344.38	140.87	139.1	61.128	5.8395e-06	64.546	0.00068573	0.00072628	0.00020511	825.65	7.3753e-06	8.2251e-06	732.33	339.2	7.6509e-06	7.951e-06	338.84	139.32	137.94	60.863	8.1155e-06	64.044	213.371	158.494	148.275	77.266	221.138	207.168	76.656	82.444	244.614	192.000	80.244	84.655	86.322	89.915	233.359	87.095	-8191	255	
20051.770	1	1	0	0	0.06829	0.2253	0.16592	0.20642	0.074526	0.22174	0.013554	0.16978	0.22122	0.14189	0.36473	0.15129	0.1754	0.24608	0.085011	0.041652	-2.0792	-2.8625	-2.3083	-2.6437	-2.7833	-2.3208	-2.9562	-2.8729	-2.3521	-3.1479	-2.4521	-2.6188	-2.9896	-2.3875	-2.9917	-2.8438	290.288	355.063	220.327	423.176	286.432	243.593	136.744	371.269	144.663	172.910	103.139	159.777	374.802	225.188	99.876	344.533	0.00052113	0.0005221	0.00014192	840.73	4.306e-06	6.5585e-06	748.09	342	5.3449e-06	6.3726e-06	342.02	140.15	138.85	60.602	6.422e-06	64.096	0.00068049	0.00072652	0.00020991	829.09	7.459e-06	8.0543e-06	732.28	337.82	7.7561e-06	7.8302e-06	337.34	138.64	137.65	60.286	7.9578e-06	63.153	213.475	168.393	163.146	77.150	236.909	224.131	76.731	82.148	253.101	227.175	79.759	84.453	86.486	89.709	216.731	87.022	-8191	255	
