BOXY.EXE: ISS Imagent and Oximeter Data Acquisition Program Version 0.80
Ascii Record File

#ACQ INFORMATION
2  Detector Channels 
16  External MUX Channels 
1  Auxiliary Channels 
5000  Waveform (CCF) Frequency (Hz)
1  Waveforms Skipped 
30  Waveforms Averaged 
1  Cycles Averaged 
16  Acquisitions per Waveform 
10.0806  Updata Rate (Hz) 

#FILE INFORMATION
TRUE -- External MUX Channel results are PARSED.
FALSE -- AC DC and Phase are NOT grouped.
TRUE -- Companion Program Settings File CREATED.
FALSE -- AC data not excluded
FALSE -- DC data not excluded
FALSE -- Phase data not excluded
FALSE -- Auxillary Chn. data not excluded
Tab delimiters

#CALIBRATION STATE
TRUE -- Waveform Calibration Values APPLIED.


#AUX CALIBRATION VALUES
Val Type	aux-1	

Term	1.0000e+00	
Factor	0.0000e+00	


#WF CALIBRATION VALUES
A = Detector Channel
Val Type	A-AC1	A-AC2	A-AC3	A-AC4	A-AC5	A-AC6	A-AC7	A-AC8	A-AC9	A-AC10	A-AC11	A-AC12	A-AC13	A-AC14	A-AC15	A-AC16	A-DC1	A-DC2	A-DC3	A-DC4	A-DC5	A-DC6	A-DC7	A-DC8	A-DC9	A-DC10	A-DC11	A-DC12	A-DC13	A-DC14	A-DC15	A-DC16	A-Ph1	A-Ph2	A-Ph3	A-Ph4	A-Ph5	A-Ph6	A-Ph7	A-Ph8	A-Ph9	A-Ph10	A-Ph11	A-Ph12	A-Ph13	A-Ph14	A-Ph15	A-Ph16	

Term	0.00000e+00	0.00000e+00	0.00000e+00	0.00000e+00	0.00000e+00	0.00000e+00	0.00000e+00	0.00000e+00	0.00000e+00	0.00000e+00	0.00000e+00	0.00000e+00	0.00000e+00	0.00000e+00	0.00000e+00	0.00000e+00	0.00000e+00	0.00000e+00	0.00000e+00	0.00000e+00	0.00000e+00	0.00000e+00	0.00000e+00	0.00000e+00	0.00000e+00	0.00000e+00	0.00000e+00	0.00000e+00	0.00000e+00	0.00000e+00	0.00000e+00	0.00000e+00	0.00000e+00	0.00000e+00	0.00000e+00	0.00000e+00	0.00000e+00	0.00000e+00	0.00000e+00	0.00000e+00	0.00000e+00	0.00000e+00	0.00000e+00	0.00000e+00	0.00000e+00	0.00000e+00	0.00000e+00	0.00000e+00	
Factor	1.00000e+00	1.00000e+00	1.00000e+00	1.00000e+00	1.00000e+00	1.00000e+00	1.00000e+00	1.00000e+00	1.00000e+00	1.00000e+00	1.00000e+00	1.00000e+00	1.00000e+00	1.00000e+00	1.00000e+00	1.00000e+00	1.00000e+00	1.00000e+00	1.00000e+00	1.00000e+00	1.00000e+00	1.00000e+00	1.00000e+00	1.00000e+00	1.00000e+00	1.00000e+00	1.00000e+00	1.00000e+00	1.00000e+00	1.00000e+00	1.00000e+00	1.00000e+00	X	X	X	X	X	X	X	X	X	X	X	X	X	X	X	X	

B = Detector Channel
Val Type	B-AC1	B-AC2	B-AC3	B-AC4	B-AC5	B-AC6	B-AC7	B-AC8	B-AC9	B-AC10	B-AC11	B-AC12	B-AC13	B-AC14	B-AC15	B-AC16	B-DC1	B-DC2	B-DC3	B-DC4	B-DC5	B-DC6	B-DC7	B-DC8	B-DC9	B-DC10	B-DC11	B-DC12	B-DC13	B-DC14	B-DC15	B-DC16	B-Ph1	B-Ph2	B-Ph3	B-Ph4	B-Ph5	B-Ph6	B-Ph7	B-Ph8	B-Ph9	B-Ph10	B-Ph11	B-Ph12	B-Ph13	B-Ph14	B-Ph15	B-Ph16	

Term	0.00000e+00	0.00000e+00	0.00000e+00	0.00000e+00	0.00000e+00	0.00000e+00	0.00000e+00	0.00000e+00	0.00000e+00	0.00000e+00	0.00000e+00	0.00000e+00	0.00000e+00	0.00000e+00	0.00000e+00	0.00000e+00	0.00000e+00	0.00000e+00	0.00000e+00	0.00000e+00	0.00000e+00	0.00000e+00	0.00000e+00	0.00000e+00	0.00000e+00	0.00000e+00	0.00000e+00	0.00000e+00	0.00000e+00	0.00000e+00	0.00000e+00	0.00000e+00	-1.12232e+02	-1.31493e+02	-1.26301e+02	-1.82925e+02	-6.61961e+01	-6.93729e+01	-1.56697e+02	-1.62015e+02	-6.64507e+01	-6.47760e+01	-1.69789e+02	-1.71884e+02	-1.87016e+02	-1.77077e+02	-6.21522e+01	-1.49516e+02	
Factor	1.55884e-05	1.50606e-04	4.28834e-05	2.77585e-01	1.30341e-06	1.75495e-06	1.60847e-01	4.74421e-02	1.05426e-06	1.60286e-06	8.23926e-02	2.73325e-02	3.04750e-02	8.53322e-03	1.33339e-06	1.20591e-02	1.05579e-05	1.86671e-05	5.21731e-06	1.46876e-01	1.94660e-07	2.09585e-07	8.03013e-02	2.53644e-02	1.85624e-07	2.07253e-07	4.25778e-02	1.42240e-02	1.63516e-02	4.59333e-03	1.96714e-07	6.29039e-03	X	X	X	X	X	X	X	X	X	X	X	X	X	X	X	X	



#DISTANCE SETTINGS
A = Detector Channel
A-1	A-2	A-3	A-4	A-5	A-6	A-7	A-8	A-9	A-10	A-11	A-12	A-13	A-14	A-15	A-16	

2.5000e+00	3.0000e+00	2.5000e+00	3.0000e+00	2.0000e+00	3.0000e+00	1.5000e+00	3.0000e+00	3.0000e+00	3.0000e+00	3.0000e+00	3.0000e+00	3.0000e+00	3.0000e+00	1.5000e+00	3.0000e+00	

B = Detector Channel
B-1	B-2	B-3	B-4	B-5	B-6	B-7	B-8	B-9	B-10	B-11	B-12	B-13	B-14	B-15	B-16	

1.0000e+01	1.0000e+01	1.0000e+01	1.4400e+00	1.0000e+01	1.0000e+01	1.5100e+00	1.9400e+00	1.0000e+01	1.0000e+01	1.9900e+00	2.4900e+00	2.4100e+00	2.9000e+00	1.0000e+01	2.9800e+00	




#DATA BEGINS
time	group	step	mark	flag	A-AC1	A-AC2	A-AC3	A-AC4	A-AC5	A-AC6	A-AC7	A-AC8	A-AC9	A-AC10	A-AC11	A-AC12	A-AC13	A-AC14	A-AC15	A-AC16	A-DC1	A-DC2	A-DC3	A-DC4	A-DC5	A-DC6	A-DC7	A-DC8	A-DC9	A-DC10	A-DC11	A-DC12	A-DC13	A-DC14	A-DC15	A-DC16	A-Ph1	A-Ph2	A-Ph3	A-Ph4	A-Ph5	A-Ph6	A-Ph7	A-Ph8	A-Ph9	A-Ph10	A-Ph11	A-Ph12	A-Ph13	A-Ph14	A-Ph15	A-Ph16	B-AC1	B-AC2	B-AC3	B-AC4	B-AC5	B-AC6	B-AC7	B-AC8	B-AC9	B-AC10	B-AC11	B-AC12	B-AC13	B-AC14	B-AC15	B-AC16	B-DC1	B-DC2	B-DC3	B-DC4	B-DC5	B-DC6	B-DC7	B-DC8	B-DC9	B-DC10	B-DC11	B-DC12	B-DC13	B-DC14	B-DC15	B-DC16	B-Ph1	B-Ph2	B-Ph3	B-Ph4	B-Ph5	B-Ph6	B-Ph7	B-Ph8	B-Ph9	B-Ph10	B-Ph11	B-Ph12	B-Ph13	B-Ph14	B-Ph15	B-Ph16	aux-1	digaux	

914.868	1	1	0	256	0.38844	0.094347	0.10455	0.15641	0.233	0.21626	0.19326	0.14984	0.13058	0.22398	0.060221	0.22118	0.13782	0.28743	0.13355	0.20172	-0.01875	0.225	0.15208	-0.31875	0.34792	0.0020833	-0.0375	0.41042	-0.28333	0.31667	0.095833	-0.43542	0.41667	-0.13333	-0.19167	0.4	160.706	56.992	58.581	99.278	259.818	90.578	314.523	289.865	-7.552	27.799	276.499	210.294	276.652	280.092	84.599	-11.238	8.5148e-05	0.00075477	0.0001583	438.87	3.4608e-06	2.34e-06	450.93	163.11	2.4371e-06	9.3174e-06	176.1	62.629	59.185	26.452	2.5894e-06	27.424	0.0016207	0.0027968	0.00077879	450.7	2.8238e-05	3.147e-05	449.1	163.65	2.9135e-05	3.1829e-05	178.36	64.304	61.71	26.88	3.1305e-05	27.87	129.091	46.110	45.072	-21.317	188.877	203.032	-21.999	-15.500	120.482	58.528	-18.203	-13.826	-11.375	-6.871	62.734	-10.383	-8191	255	
914.962	1	1	0	0	0.064823	0.18443	0.16404	0.31995	0.2905	0.091952	0.39049	0.076317	0.18452	0.04238	0.31849	0.35456	0.14385	0.19552	0.15622	0.20854	0.025	0.12917	0.26875	-0.43125	0.3375	0.0125	-0.54583	0.42083	-0.42083	-0.21667	0.35833	-0.56875	0.32917	0.095833	-0.20625	0.55208	291.042	39.945	175.532	199.180	191.828	317.367	167.897	51.050	160.013	43.854	211.297	218.995	178.413	294.044	62.921	263.339	4.4365e-05	0.00015249	0.00010089	432.97	1.2848e-06	8.3916e-06	443.55	163.23	6.6857e-07	6.2617e-06	175.87	62.576	59.825	26.342	3.6673e-06	27.03	0.0017226	0.0029747	0.00082021	443.71	3.0191e-05	3.1914e-05	444.64	164.06	2.8401e-05	3.1531e-05	178.02	64.153	61.808	26.839	3.155e-05	27.709	100.775	193.446	-29.521	-21.204	147.322	33.601	-22.349	-15.462	87.820	149.356	-18.216	-14.064	-11.048	-6.493	61.888	-10.642	-8191	255	
915.034	1	1	0	0	0.2546	0.12976	0.093362	0.21685	0.17038	0.10813	0.14608	0.1744	0.11817	0.1176	0.098865	0.27417	0.15312	0.073083	0.057948	0.12883	0.19167	0.010417	0.55833	-0.23333	0.1625	0.20417	-0.66042	0.48958	-0.27917	-0.26458	0.43542	-0.25417	0.23542	0.29167	-0.47708	0.2875	69.893	4.574	319.646	171.374	21.278	159.179	226.569	54.539	318.585	130.722	241.382	45.935	67.073	8.972	5.425	253.320	9.3693e-05	8.2942e-05	0.00020416	435.96	5.8351e-06	2.2824e-06	442.17	161.98	3.143e-06	3.4209e-06	173.21	62.402	59.69	26.282	3.0853e-06	26.971	0.0017594	0.0030151	0.00084568	448.19	3.2014e-05	3.4555e-05	443.59	162.79	3.1119e-05	3.451e-05	176.91	64.086	61.613	26.696	3.2786e-05	27.649	161.618	89.966	29.513	-21.091	189.204	-14.868	-21.999	-15.463	86.911	66.206	-18.145	-13.989	-11.391	-6.691	319.441	-10.644	-8191	255	
915.154	1	1	0	0	0.44648	0.11659	0.23302	0.081683	0.22412	0.27032	0.14757	0.24035	0.074446	0.3377	0.15852	0.036502	0.18667	0.14169	0.18542	0.13701	0.2875	-0.22292	0.56667	-0.20625	0.11875	0.31042	-0.40208	0.37708	0.022917	-0.30833	0.54167	-0.23958	0.15417	0.41667	-0.17917	0.3	201.111	313.198	135.909	187.415	298.974	-33.262	136.091	269.978	314.404	146.971	309.575	42.075	-18.827	232.317	311.419	28.452	5.9597e-05	0.00073916	5.016e-05	426.61	3.6358e-06	6.0382e-06	434.75	158.45	1.6849e-06	2.9197e-06	170.76	62.033	57.759	25.539	6.0255e-06	27.02	0.0018778	0.0031595	0.0008773	439.77	3.0478e-05	3.14e-05	432.71	159.33	2.9063e-05	3.1834e-05	174.32	63.504	60.361	26.183	3.7469e-05	27.586	146.307	56.157	250.953	-21.061	168.662	143.930	-22.219	-15.311	275.039	32.518	-18.234	-13.442	-10.629	-6.624	65.448	-10.642	-8191	255	
915.251	1	1	0	0	0.17198	0.16499	0.21626	0.25954	0.10211	0.19523	0.04286	0.053939	0.16837	0.11188	0.058381	0.2006	0.17384	0.10192	0.18081	0.37534	0.50833	-0.37292	0.38542	-0.17708	0.12292	0.55208	-0.28958	0.38542	0.19375	-0.375	0.5	-0.32083	-0.064583	0.25208	-0.35	-0.05	95.804	167.140	252.436	269.606	199.688	82.450	134.533	99.890	27.422	18.065	174.957	285.413	288.374	43.982	105.476	-21.115	0.00013027	0.00028802	0.0002089	414.92	6.7424e-06	7.9636e-06	415.56	153.94	2.9207e-06	3.4884e-06	170.57	61.491	57.546	25.062	3.9807e-06	26.584	0.0022525	0.0038186	0.0011134	435.52	4.341e-05	4.6547e-05	424.24	157.74	4.2846e-05	4.7537e-05	176.8	64.316	60.314	25.88	4.6171e-05	27.547	160.966	239.949	249.990	-20.920	165.214	139.775	-21.857	-15.311	61.860	-26.792	-18.289	-13.583	-10.988	-6.229	250.614	-10.305	-8191	255	
915.347	1	1	0	0	0.38194	0.089692	0.20705	0.1066	0.17831	0.14567	0.1709	0.40526	0.27351	0.10225	0.37007	0.071904	0.42784	0.2553	0.1243	0.22801	0.63333	-0.35625	0.50208	-0.1875	-0.15417	0.54792	-0.31458	0.13125	0.20208	-0.27708	0.1875	-0.14375	-0.29583	0.22083	-0.4375	0.045833	209.799	302.891	279.011	301.363	18.795	222.760	-0.680	276.565	153.934	34.950	297.745	-22.126	305.568	197.813	8.313	167.400	3.5562e-05	0.00070905	0.00015301	418.16	2.584e-06	1.6708e-06	409.49	151.76	3.655e-07	9.3853e-06	169.15	60.65	55.546	24.622	3.5731e-06	26.117	0.0025396	0.004333	0.0012247	439.55	4.6761e-05	4.9862e-05	416.4	156.28	4.4828e-05	4.9657e-05	175.46	63.301	59.237	25.581	4.6061e-05	27.18	148.048	102.989	53.482	-21.032	247.175	310.855	-21.828	-14.897	217.250	138.103	-18.527	-13.398	-10.895	-5.923	173.385	-10.636	-8191	255	
915.443	1	1	0	0	0.20958	0.19777	0.22384	0.15128	0.16701	0.20978	0.20529	0.14401	0.24571	0.077457	0.17069	0.085827	0.15698	0.19351	0.28175	0.096542	0.70833	-0.4625	0.40417	0.014583	-0.425	0.34583	-0.36042	0.020833	0.2125	-0.48333	0.28125	-0.16042	-0.475	0.11875	-0.24583	-0.225	70.931	233.867	26.324	302.868	129.515	48.207	304.037	278.072	125.785	180.598	-8.531	259.699	170.753	-14.354	236.115	63.701	7.6043e-05	0.00014984	0.00013935	411.67	7.1623e-06	8.6182e-06	401.58	151.93	1.9921e-06	7.7646e-06	168.65	60.655	55.943	24.935	2.5501e-06	26.422	0.002526	0.004282	0.0012121	432.65	4.4789e-05	4.7791e-05	409.73	154.79	4.3902e-05	4.7828e-05	173.81	63.292	59.384	25.736	4.8546e-05	27.694	160.214	-19.153	113.070	-20.907	85.579	255.795	-21.992	-15.442	31.959	98.117	-18.181	-13.508	-10.259	-6.412	80.616	-10.024	-8191	255	
915.539	1	1	0	0	0.053459	0.23813	0.3577	0.26809	0.10889	0.11976	0.13216	0.27731	0.095274	0.25366	0.081731	0.30819	0.20341	0.14143	0.16123	0.20672	0.58125	-0.44167	0.29583	0.21042	-0.16458	0.41458	-0.091667	-0.14375	0.55	-0.43333	0.21875	0.12083	-0.47292	0.41875	-0.095833	-0.14583	233.155	134.594	293.832	251.450	174.208	186.203	104.030	225.551	-12.572	15.225	-8.324	263.013	68.146	186.770	52.546	-11.497	5.2641e-05	0.00071825	0.00012445	403.92	3.6424e-06	3.9299e-06	399.76	150.56	1.0934e-06	4.6941e-06	168.31	61.931	55.654	24.968	5.252e-06	27.31	0.0026678	0.0046604	0.0013274	430.68	4.8385e-05	5.3501e-05	408.81	154.68	4.8064e-05	5.3516e-05	176.46	64.566	59.744	25.993	5.3223e-05	28.413	188.146	78.858	-32.248	-21.058	18.821	66.096	-22.174	-15.295	214.125	68.386	-18.167	-13.286	-10.665	-6.188	156.623	-10.449	-8191	255	
915.658	1	1	0	0	0.26556	0.1973	0.21075	0.093462	0.10246	0.107	0.26006	0.22004	0.19097	0.1312	0.14947	0.10167	0.14275	0.16041	0.18312	0.10442	0.84792	-0.35625	0.1125	0.11667	-0.38333	0.29167	-0.027083	-0.18542	0.2875	-0.14792	-0.066667	0.12708	-0.26042	0.33125	0.0375	-0.39167	202.539	210.554	210.308	154.480	91.951	156.739	325.004	234.533	241.926	265.267	38.104	281.433	313.784	-8.362	113.654	196.789	0.00010746	0.00039547	0.00022585	397.72	5.1714e-06	1.0946e-05	396	149.23	2.4384e-06	5.1963e-06	171.49	62.803	56.63	25.356	4.579e-06	27.81	0.0029975	0.0053529	0.0015326	429.72	5.8201e-05	6.494e-05	410.04	155.67	5.8673e-05	6.7109e-05	182.04	66.766	61.408	26.726	6.5991e-05	29.493	163.823	230.006	-2.283	-20.728	49.979	158.114	-21.692	-14.821	297.258	108.540	-18.440	-13.731	-10.572	-6.000	184.536	-9.759	-8191	255	
915.731	1	1	0	0	0.096438	0.10126	0.23992	0.2628	0.17862	0.24309	0.032143	0.032942	0.13011	0.26886	0.067422	0.23366	0.37107	0.047237	0.077482	0.12335	0.95	-0.2	-0.03125	0.44167	-0.43333	0.2625	0.0625	-0.20208	0.48125	-0.15417	0.0020833	0.4	-0.3625	0.079167	0.12708	-0.39792	255.891	227.804	104.591	279.071	206.723	261.557	11.171	-8.867	196.080	142.078	16.957	268.968	321.804	299.949	117.759	193.223	5.0154e-05	0.00096863	5.3747e-05	393.9	4.2035e-06	6.6822e-06	397.67	151.43	2.9097e-06	7.1655e-06	174.49	63.633	56.804	25.668	5.0277e-06	27.525	0.0036229	0.0063558	0.0017454	431.38	6.538e-05	7.0923e-05	413.15	156.94	6.0181e-05	6.7697e-05	183.59	67.447	61.648	26.955	6.3391e-05	29.319	141.057	30.467	222.754	-21.205	122.570	24.411	-22.035	-15.269	53.541	97.961	-18.573	-13.528	-10.833	-6.105	106.578	-9.878	-8191	255	
915.827	1	1	0	0	0.17994	0.29783	0.1857	0.27143	0.29284	0.15958	0.20787	0.42482	0.17091	0.20181	0.21765	0.148	0.28994	0.26181	0.16085	0.18843	0.78125	-0.13542	-0.12292	0.64792	-0.33542	0.23958	0.26042	-0.32708	0.46458	0.10417	-0.15417	0.6375	-0.52917	0.0875	0.29375	-0.28542	268.201	286.964	80.880	-19.467	-10.284	187.207	213.258	-20.854	161.599	290.868	150.740	40.997	266.241	243.512	38.438	59.418	0.00013316	0.00070757	0.00017881	389.88	6.8555e-06	1.9655e-06	394.42	151.44	5.653e-06	2.2616e-06	173.33	63.191	57.018	25.573	2.5416e-06	27.856	0.0034578	0.0060545	0.0016333	424.08	5.9693e-05	6.3247e-05	405.92	156.21	5.6769e-05	6.344e-05	182.04	66.996	61.872	26.915	5.9926e-05	29.372	154.859	81.038	108.204	-21.356	260.982	173.434	-22.024	-14.897	56.539	18.705	-18.189	-13.987	-10.132	-6.293	150.770	-10.064	-8191	255	
915.948	1	1	0	0	0.106	0.19108	0.063442	0.082095	0.22124	0.064272	0.23645	0.28483	0.20625	0.35943	0.36247	0.16669	0.1541	0.22281	0.060875	0.1386	0.69583	-0.014583	-0.05625	0.4125	-0.2	0.029167	0.26875	-0.6	0.34167	0.09375	-0.39167	0.35417	-0.37917	0.01875	0.45625	-0.24167	233.193	289.519	287.126	29.535	208.033	318.795	225.580	321.401	-32.949	100.664	299.428	78.951	138.461	-0.849	198.719	217.512	0.00010358	0.00025621	9.3284e-05	390.98	9.3595e-06	3.0334e-06	393.76	152.03	5.4169e-07	4.1156e-06	175.82	64.81	58.311	26.35	7.7059e-06	28.968	0.0033592	0.0058687	0.0015721	426.68	6.19e-05	6.6613e-05	409.16	158.15	6.0285e-05	6.6553e-05	184.73	68.55	63.146	27.753	6.3803e-05	30.697	143.037	114.828	74.400	-20.661	50.815	276.036	-22.028	-15.142	127.563	287.813	-18.126	-13.712	-10.541	-5.875	38.210	-10.102	-8191	255	
916.043	1	1	0	0	0.1341	0.31593	0.14438	0.17891	0.19777	0.27779	0.24272	0.33788	0.17585	0.34238	0.15049	0.23632	0.20005	0.080835	0.034061	0.30231	0.85	0.15625	-0.072917	0.56042	-0.17083	0.052083	0.45	-0.5375	0.38125	0.21875	-0.62917	0.5125	-0.15833	-0.21458	0.425	-0.41875	-5.592	268.731	209.589	308.214	61.211	142.971	235.372	286.417	152.458	46.091	293.390	286.785	303.696	96.486	145.184	188.125	1.3449e-05	0.0001417	0.00029083	396.37	5.0346e-06	1.1741e-05	399.8	156.28	1.8554e-06	7.9688e-06	180.28	67.16	60.282	27.834	2.2367e-06	30.633	0.0036681	0.0063404	0.0017256	439.48	6.7457e-05	7.2651e-05	418.39	163.6	6.6822e-05	7.4042e-05	190.73	71.517	65.568	29.203	7.0589e-05	32.49	173.332	3.773	128.461	-20.558	46.661	58.203	-21.833	-15.157	127.491	156.426	-18.572	-13.599	-10.664	-5.612	85.183	-9.841	-8191	255	
916.139	1	1	0	0	0.12794	0.09001	0.33496	0.1569	0.17032	0.20814	0.042497	0.17831	0.050078	0.11937	0.22351	0.1306	0.13976	0.1003	0.23477	0.27864	0.53125	0.14583	-0.30208	0.28125	-0.15	-0.29375	0.33958	-0.020833	0.058333	0.29167	-0.5125	0.33125	-0.060417	-0.28542	0.36875	-0.30833	63.493	310.489	32.271	177.104	88.676	-18.392	208.070	32.296	3.557	284.392	-7.710	-13.917	241.267	-7.420	92.064	-21.809	6.8507e-05	0.00056459	0.00010118	412.32	3.9272e-06	4.3744e-06	409.94	161.3	4.8888e-06	9.1776e-06	182.52	67.881	60.6	28.097	1.8389e-06	30.926	0.0039642	0.0067473	0.0018739	453.96	7.2556e-05	7.5361e-05	426.46	168.57	7.0135e-05	7.5811e-05	193.84	72.534	66.443	29.621	7.3434e-05	32.895	135.478	-10.023	304.774	-21.434	113.800	227.674	-21.708	-14.840	120.976	117.448	-18.026	-13.205	-10.213	-5.810	148.627	-9.908	-8191	255	
916.235	1	1	0	0	0.1278	0.061474	0.1215	0.27918	0.0303	0.16032	0.27952	0.23422	0.11319	0.32543	0.029266	0.18249	0.44249	0.05704	0.057362	0.14328	0.2375	0.45208	-0.26875	0.3375	0.16667	-0.40833	0.56875	-0.33542	-0.020833	0.46667	-0.39375	0.29792	0.18542	-0.50208	0.55417	-0.3375	263.834	-15.264	21.915	58.695	249.516	3.729	18.005	263.578	242.937	30.112	276.705	292.071	54.433	229.879	276.575	150.641	7.9689e-05	0.00071499	0.0002228	410.76	2.101e-06	5.8752e-06	404.52	161.67	6.2498e-06	8.8088e-06	182.06	67.961	60.365	28.043	6.2687e-06	30.423	0.0041226	0.0070624	0.0020188	459.21	7.7212e-05	8.1724e-05	427.35	168.88	7.7476e-05	8.5042e-05	195.51	73.327	67.171	29.751	8.7182e-05	32.886	138.889	31.966	36.274	-21.022	50.725	271.969	-21.630	-14.854	177.310	106.742	-17.686	-13.269	-9.949	-5.623	251.895	-9.559	-8191	255	
916.331	1	1	0	0	0.22282	0.16295	0.1553	0.1852	0.054917	0.12016	0.27596	0.20551	0.12033	0.083862	0.18724	0.074989	0.14341	0.12418	0.44471	0.25882	0.32292	0.39167	-0.38958	0.10208	0.2125	-0.50833	0.41458	-0.10417	-0.14375	0.38125	-0.525	0.125	0.20833	-0.38542	0.4875	-0.11458	201.256	322.262	168.429	318.944	284.953	297.491	287.780	280.284	-9.774	-16.169	215.531	287.728	19.257	225.528	121.382	214.069	9.9763e-05	0.00036488	9.1582e-05	408.96	5.9792e-06	8.0913e-06	403.42	158.72	4.95e-06	3.0611e-06	181.12	68.063	60.714	27.881	7.9424e-06	30.769	0.0047046	0.0079927	0.0022918	462.97	8.3133e-05	8.8132e-05	426.92	167.68	7.6926e-05	8.6275e-05	195.2	73.023	66.945	29.587	8.1483e-05	32.798	130.870	168.133	309.839	-20.618	140.711	95.684	-21.910	-14.682	156.827	260.050	-18.462	-13.151	-10.135	-5.729	242.989	-9.616	-8191	255	
916.427	1	1	0	0	0.10474	0.069349	0.14953	0.1075	0.12918	0.19042	0.16368	0.26289	0.27036	0.35577	0.092859	0.19042	0.071063	0.10403	0.16658	0.21986	0.1875	0.3375	-0.15208	0.097917	0.18542	-0.59167	0.37292	0.035417	-0.2625	0.49583	-0.41458	-0.14792	0.375	-0.45208	0.38542	0.035417	207.306	221.339	268.324	103.811	123.103	165.116	122.595	255.260	14.121	206.955	22.114	43.391	143.556	160.437	274.532	-21.573	0.00016716	0.00018238	7.214e-05	402.69	8.319e-06	7.8069e-06	402.66	157.54	4.4697e-06	6.6809e-06	181.42	67.393	59.993	27.631	4.3373e-06	30.4	0.0042341	0.0073753	0.0021091	452.72	7.4407e-05	8.0152e-05	423.3	165.29	6.697e-05	7.4194e-05	192.34	71.457	65.065	29.056	6.6585e-05	32.141	134.694	210.319	120.026	-20.838	43.674	117.927	-21.658	-14.576	195.133	68.317	-18.015	-13.570	-10.145	-5.873	104.609	-9.669	-8191	255	
916.548	1	1	0	0	0.20315	0.17975	0.17051	0.25014	0.054643	0.32532	0.37757	0.12832	0.17308	0.034478	0.26334	0.30056	0.21446	0.21271	0.22979	0.070945	0.11042	0.55208	-0.10833	0.0041667	0.49375	-0.37708	0.3	0.054167	-0.30625	0.36458	-0.24792	-0.175	0.4625	-0.25833	0.23125	0.27292	48.649	291.197	248.416	201.795	316.471	274.283	313.661	253.098	175.076	12.366	276.821	188.052	151.105	325.767	18.243	220.261	0.00012607	0.00085391	0.0001513	395.52	6.8572e-06	9.6002e-06	396.33	158.05	3.3524e-06	4.9641e-06	180.66	67.968	60.113	27.773	6.6716e-06	30.597	0.0034506	0.0060982	0.0016989	433.6	6.0527e-05	6.5884e-05	414.03	163.24	5.5868e-05	6.274e-05	189.92	71.093	64.281	28.807	5.8427e-05	31.922	144.990	20.599	252.885	-20.565	91.960	172.640	-21.557	-14.963	165.368	280.508	-17.485	-12.810	-10.591	-5.061	141.757	-9.012	-8191	255	
