BOXY.EXE: ISS Imagent and Oximeter Data Acquisition Program Version 0.80
Ascii Record File

#ACQ INFORMATION
2  Detector Channels 
16  External MUX Channels 
1  Auxiliary Channels 
5000  Waveform (CCF) Frequency (Hz)
1  Waveforms Skipped 
30  Waveforms Averaged 
1  Cycles Averaged 
16  Acquisitions per Waveform 
10.0806  Updata Rate (Hz) 

#FILE INFORMATION
TRUE -- External MUX Channel results are PARSED.
FALSE -- AC DC and Phase are NOT grouped.
TRUE -- Companion Program Settings File CREATED.
FALSE -- AC data not excluded
FALSE -- DC data not excluded
FALSE -- Phase data not excluded
FALSE -- Auxillary Chn. data not excluded
Tab delimiters

#CALIBRATION STATE
TRUE -- Waveform Calibration Values APPLIED.


#AUX CALIBRATION VALUES
Val Type	aux-1	

Term	1.0000e+00	
Factor	0.0000e+00	


#WF CALIBRATION VALUES
A = Detector Channel
Val Type	A-AC1	A-AC2	A-AC3	A-AC4	A-AC5	A-AC6	A-AC7	A-AC8	A-AC9	A-AC10	A-AC11	A-AC12	A-AC13	A-AC14	A-AC15	A-AC16	A-DC1	A-DC2	A-DC3	A-DC4	A-DC5	A-DC6	A-DC7	A-DC8	A-DC9	A-DC10	A-DC11	A-DC12	A-DC13	A-DC14	A-DC15	A-DC16	A-Ph1	A-Ph2	A-Ph3	A-Ph4	A-Ph5	A-Ph6	A-Ph7	A-Ph8	A-Ph9	A-Ph10	A-Ph11	A-Ph12	A-Ph13	A-Ph14	A-Ph15	A-Ph16	

Term	0.00000e+00	0.00000e+00	0.00000e+00	0.00000e+00	0.00000e+00	0.00000e+00	0.00000e+00	0.00000e+00	0.00000e+00	0.00000e+00	0.00000e+00	0.00000e+00	0.00000e+00	0.00000e+00	0.00000e+00	0.00000e+00	0.00000e+00	0.00000e+00	0.00000e+00	0.00000e+00	0.00000e+00	0.00000e+00	0.00000e+00	0.00000e+00	0.00000e+00	0.00000e+00	0.00000e+00	0.00000e+00	0.00000e+00	0.00000e+00	0.00000e+00	0.00000e+00	0.00000e+00	0.00000e+00	0.00000e+00	0.00000e+00	0.00000e+00	0.00000e+00	0.00000e+00	0.00000e+00	0.00000e+00	0.00000e+00	0.00000e+00	0.00000e+00	0.00000e+00	0.00000e+00	0.00000e+00	0.00000e+00	
Factor	1.00000e+00	1.00000e+00	1.00000e+00	1.00000e+00	1.00000e+00	1.00000e+00	1.00000e+00	1.00000e+00	1.00000e+00	1.00000e+00	1.00000e+00	1.00000e+00	1.00000e+00	1.00000e+00	1.00000e+00	1.00000e+00	1.00000e+00	1.00000e+00	1.00000e+00	1.00000e+00	1.00000e+00	1.00000e+00	1.00000e+00	1.00000e+00	1.00000e+00	1.00000e+00	1.00000e+00	1.00000e+00	1.00000e+00	1.00000e+00	1.00000e+00	1.00000e+00	X	X	X	X	X	X	X	X	X	X	X	X	X	X	X	X	

B = Detector Channel
Val Type	B-AC1	B-AC2	B-AC3	B-AC4	B-AC5	B-AC6	B-AC7	B-AC8	B-AC9	B-AC10	B-AC11	B-AC12	B-AC13	B-AC14	B-AC15	B-AC16	B-DC1	B-DC2	B-DC3	B-DC4	B-DC5	B-DC6	B-DC7	B-DC8	B-DC9	B-DC10	B-DC11	B-DC12	B-DC13	B-DC14	B-DC15	B-DC16	B-Ph1	B-Ph2	B-Ph3	B-Ph4	B-Ph5	B-Ph6	B-Ph7	B-Ph8	B-Ph9	B-Ph10	B-Ph11	B-Ph12	B-Ph13	B-Ph14	B-Ph15	B-Ph16	

Term	0.00000e+00	0.00000e+00	0.00000e+00	0.00000e+00	0.00000e+00	0.00000e+00	0.00000e+00	0.00000e+00	0.00000e+00	0.00000e+00	0.00000e+00	0.00000e+00	0.00000e+00	0.00000e+00	0.00000e+00	0.00000e+00	0.00000e+00	0.00000e+00	0.00000e+00	0.00000e+00	0.00000e+00	0.00000e+00	0.00000e+00	0.00000e+00	0.00000e+00	0.00000e+00	0.00000e+00	0.00000e+00	0.00000e+00	0.00000e+00	0.00000e+00	0.00000e+00	-1.12232e+02	-1.31493e+02	-1.26301e+02	-1.82925e+02	-6.61961e+01	-6.93729e+01	-1.56697e+02	-1.62015e+02	-6.64507e+01	-6.47760e+01	-1.69789e+02	-1.71884e+02	-1.87016e+02	-1.77077e+02	-6.21522e+01	-1.49516e+02	
Factor	1.55884e-05	1.50606e-04	4.28834e-05	2.77585e-01	1.30341e-06	1.75495e-06	1.60847e-01	4.74421e-02	1.05426e-06	1.60286e-06	8.23926e-02	2.73325e-02	3.04750e-02	8.53322e-03	1.33339e-06	1.20591e-02	1.05579e-05	1.86671e-05	5.21731e-06	1.46876e-01	1.94660e-07	2.09585e-07	8.03013e-02	2.53644e-02	1.85624e-07	2.07253e-07	4.25778e-02	1.42240e-02	1.63516e-02	4.59333e-03	1.96714e-07	6.29039e-03	X	X	X	X	X	X	X	X	X	X	X	X	X	X	X	X	



#DISTANCE SETTINGS
A = Detector Channel
A-1	A-2	A-3	A-4	A-5	A-6	A-7	A-8	A-9	A-10	A-11	A-12	A-13	A-14	A-15	A-16	

2.5000e+00	3.0000e+00	2.5000e+00	3.0000e+00	2.0000e+00	3.0000e+00	1.5000e+00	3.0000e+00	3.0000e+00	3.0000e+00	3.0000e+00	3.0000e+00	3.0000e+00	3.0000e+00	1.5000e+00	3.0000e+00	

B = Detector Channel
B-1	B-2	B-3	B-4	B-5	B-6	B-7	B-8	B-9	B-10	B-11	B-12	B-13	B-14	B-15	B-16	

1.0000e+01	1.0000e+01	1.0000e+01	1.4400e+00	1.0000e+01	1.0000e+01	1.5100e+00	1.9400e+00	1.0000e+01	1.0000e+01	1.9900e+00	2.4900e+00	2.4100e+00	2.9000e+00	1.0000e+01	2.9800e+00	




#DATA BEGINS
time	group	step	mark	flag	A-AC1	A-AC2	A-AC3	A-AC4	A-AC5	A-AC6	A-AC7	A-AC8	A-AC9	A-AC10	A-AC11	A-AC12	A-AC13	A-AC14	A-AC15	A-AC16	A-DC1	A-DC2	A-DC3	A-DC4	A-DC5	A-DC6	A-DC7	A-DC8	A-DC9	A-DC10	A-DC11	A-DC12	A-DC13	A-DC14	A-DC15	A-DC16	A-Ph1	A-Ph2	A-Ph3	A-Ph4	A-Ph5	A-Ph6	A-Ph7	A-Ph8	A-Ph9	A-Ph10	A-Ph11	A-Ph12	A-Ph13	A-Ph14	A-Ph15	A-Ph16	B-AC1	B-AC2	B-AC3	B-AC4	B-AC5	B-AC6	B-AC7	B-AC8	B-AC9	B-AC10	B-AC11	B-AC12	B-AC13	B-AC14	B-AC15	B-AC16	B-DC1	B-DC2	B-DC3	B-DC4	B-DC5	B-DC6	B-DC7	B-DC8	B-DC9	B-DC10	B-DC11	B-DC12	B-DC13	B-DC14	B-DC15	B-DC16	B-Ph1	B-Ph2	B-Ph3	B-Ph4	B-Ph5	B-Ph6	B-Ph7	B-Ph8	B-Ph9	B-Ph10	B-Ph11	B-Ph12	B-Ph13	B-Ph14	B-Ph15	B-Ph16	aux-1	digaux	

930.329	1	1	0	256	0.025372	0.19602	0.16069	0.14479	0.23971	0.1628	0.077477	0.1666	0.18698	0.2391	0.16983	0.11048	0.13283	0.29552	0.33574	0.098433	0.975	0.15208	0.058333	0.73125	-0.14167	0.46875	0.44792	-0.085417	0.6625	0.26458	-0.11458	0.8	0.01875	0.28333	0.62708	-0.060417	290.094	126.859	-8.172	219.907	298.904	321.834	141.357	308.611	37.587	9.727	177.880	39.115	107.622	292.608	143.857	259.208	8.2872e-05	0.00033589	8.3937e-05	440.23	2.1036e-06	3.4143e-06	406.52	162.78	1.967e-06	1.214e-06	172.26	63.574	61.409	24.989	1.823e-06	23.914	0.00044675	0.0006612	0.00017849	432.85	6.9149e-06	7.3185e-06	398.72	160.25	6.3862e-06	6.8216e-06	168.14	63.006	61.102	24.78	6.6071e-06	23.693	152.464	16.832	68.426	-18.672	86.318	106.974	-20.343	-13.777	129.046	96.326	-16.481	-12.938	-9.545	-5.618	222.923	-8.938	-8191	255	
930.423	1	1	0	0	0.11812	0.24549	0.25251	0.14184	0.16361	0.21146	0.080512	0.031713	0.073915	0.30237	0.17025	0.14494	0.10649	0.19844	0.12856	0.23645	0.9875	0.29583	0.00625	0.73542	-0.12292	0.32292	0.45208	-0.39792	0.42917	0.40208	-0.28125	0.72917	0.06875	0.00625	0.67292	-0.22708	192.502	206.985	270.418	25.577	103.697	220.735	137.741	217.551	114.337	259.956	-24.017	240.761	57.351	96.579	61.801	150.629	0.00010084	0.00040527	4.48e-05	436.78	1.4842e-06	4.0116e-06	406.39	161.5	1.7733e-06	2.5419e-06	172.75	63.696	61.397	24.858	3.783e-06	24.102	0.00042432	0.00062196	0.0001677	425.9	6.5803e-06	6.7766e-06	397.04	159.94	6.4733e-06	6.9382e-06	169.01	63.298	61.155	24.702	6.769e-06	23.775	146.633	74.020	93.891	-18.812	144.466	121.325	-20.894	-13.832	94.212	119.157	-17.002	-12.847	-9.888	-5.772	152.396	-8.957	-8191	255	
930.544	1	1	0	0	0.10327	0.029997	0.029818	0.086837	0.038052	0.19135	0.070774	0.22097	0.055283	0.062088	0.112	0.35419	0.15332	0.09263	0.20429	0.011589	0.8	0.33542	-0.25208	0.50833	-0.0020833	-0.13542	0.71875	-0.18542	0.22083	0.55417	-0.15833	0.4375	0.25625	0.03125	0.57292	-0.175	291.178	116.610	14.325	300.545	101.481	217.505	279.551	94.358	142.227	219.455	21.920	247.033	272.658	60.535	34.416	-16.098	8.2994e-05	9.7756e-05	7.3999e-05	435.87	2.2549e-06	2.0415e-06	404.37	163.21	1.0697e-06	1.27e-06	172.61	64.32	60.85	24.905	2.7007e-06	24.048	0.00042067	0.00062651	0.00017279	426.92	6.6959e-06	7.208e-06	395.96	160.56	6.3831e-06	7.171e-06	168.63	63.669	60.806	24.697	6.7665e-06	23.72	139.492	-3.854	39.558	-18.922	149.790	122.385	-20.484	-13.918	271.484	152.086	-17.562	-12.795	-9.574	-5.668	160.603	-9.035	-8191	255	
930.640	1	1	0	0	0.27306	0.12002	0.083686	0.17374	0.21057	0.051459	0.17556	0.23748	0.054073	0.23896	0.19207	0.28923	0.14861	0.049884	0.094746	0.18282	0.61667	0.37708	-0.41458	0.53125	0.15417	0.11042	0.42292	-0.27917	0.2375	0.425	-0.41667	0.425	0.15833	0.0875	0.75	0.052083	1.669	217.933	40.916	-22.277	140.403	-6.311	0.182	-23.029	262.277	297.609	137.606	29.069	223.079	32.230	115.783	216.564	8.2281e-05	0.00026156	5.5554e-05	437.04	3.4563e-06	3.5618e-06	403.92	163.06	2.3368e-06	3.2392e-06	171.51	62.865	60.886	24.745	4.2329e-06	23.664	0.00044086	0.00065074	0.00017702	428.48	6.981e-06	7.5311e-06	394.71	160.26	6.8569e-06	7.3713e-06	168.03	62.678	60.825	24.536	8.014e-06	23.431	170.917	7.408	94.329	-19.039	131.582	78.353	-20.865	-13.846	120.326	114.320	-17.225	-12.801	-9.835	-5.760	117.029	-9.732	-8191	255	
930.736	1	1	0	0	0.2058	0.16845	0.2218	0.063623	0.27378	0.50294	0.10793	0.23496	0.17278	0.10358	0.079997	0.18131	0.13105	0.26708	0.12923	0.13657	0.7375	0.6875	-0.225	0.58958	0.12292	-0.2625	0.66667	0.00625	0.17083	0.54792	-0.23125	0.57292	0.52708	-0.22083	0.74375	-0.0083333	4.021	157.038	-2.911	137.156	43.527	43.033	207.160	231.151	290.395	282.153	162.267	144.771	-21.623	263.304	153.521	35.949	6.2053e-05	0.00019322	5.172e-05	436.89	1.924e-06	1.5036e-06	399.37	162	1.0361e-06	4.2722e-06	170.68	62.493	60.67	24.48	1.1732e-06	23.818	0.00045296	0.00073665	0.00020019	428.52	7.539e-06	8.2393e-06	392.67	159.12	7.5812e-06	8.259e-06	166.66	62.195	60.411	24.381	8.2673e-06	23.446	152.383	25.291	80.567	-19.344	211.471	118.781	-20.874	-13.523	45.158	127.075	-17.115	-12.730	-9.574	-5.878	58.687	-9.388	-8191	255	
930.832	1	1	0	0	0.11049	0.33465	0.20707	0.34936	0.10321	0.18843	0.15823	0.21902	0.066782	0.12941	0.0072044	0.27358	0.1853	0.18398	0.19146	0.032907	0.19375	0.66458	-0.083333	0.48125	0.46458	-0.15417	0.62292	0.11042	0.12917	0.47083	-0.19167	0.2125	0.63958	-0.20625	0.54167	0.24583	267.712	272.657	109.129	176.378	282.810	-2.420	309.152	2.386	120.045	279.901	247.309	109.720	6.511	277.209	283.456	155.408	6.1718e-05	0.00023685	8.2681e-05	430.35	1.761e-06	4.0909e-06	401.64	162.39	1.9478e-06	1.7533e-06	170.36	62.299	60.291	24.569	1.1729e-06	23.531	0.00048542	0.00077795	0.00021345	425.15	7.9373e-06	8.3454e-06	391.25	159.05	7.8051e-06	8.5716e-06	166.18	61.997	60.443	24.39	8.4825e-06	23.358	144.676	113.190	82.131	-19.372	184.298	135.927	-20.478	-13.944	141.227	228.718	-17.255	-12.875	-10.223	-5.505	53.279	-9.277	-8191	255	
930.904	1	1	0	0	0.10723	0.30536	0.18195	0.10878	0.13758	0.24994	0.14523	0.1705	0.36175	0.14365	0.0988	0.066224	0.31876	0.20043	0.072489	0.14093	0.36667	0.60208	-0.0083333	0.1875	0.49792	-0.0625	0.58542	0.23958	-0.0875	0.69792	0.01875	0.1125	0.42708	-0.10417	0.4	0.425	62.077	282.260	3.878	89.660	-7.938	148.550	275.298	219.314	264.060	256.727	264.202	196.907	294.934	-0.973	-0.196	242.989	5.8955e-05	0.00027194	4.2288e-05	434.71	2.0142e-06	4.428e-06	400.7	161.5	1.8147e-06	1.8387e-06	168.75	62.27	60.228	24.577	3.8712e-06	23.555	0.00049138	0.0008084	0.00020615	425.96	8.0695e-06	8.5515e-06	390.73	159.18	7.4969e-06	8.3169e-06	166.43	62.048	60.371	24.287	7.9612e-06	23.315	139.433	16.470	41.068	-19.072	110.182	127.308	-20.330	-13.842	139.360	84.742	-16.772	-12.784	-9.902	-5.581	121.489	-9.475	-8191	255	
931.024	1	1	0	0	0.27051	0.26694	0.14972	0.11331	0.31625	0.19956	0.14326	0.20795	0.26763	0.084591	0.07878	0.15167	0.30315	0.11997	0.21312	0.22369	0.070833	0.61458	0.014583	-0.022917	0.51667	-0.041667	0.35417	0.37708	-0.10625	0.62083	0.10417	0.17917	0.55417	-0.32708	0.62292	0.5375	108.265	269.987	85.548	6.525	-28.409	5.814	158.701	180.541	174.330	12.013	294.290	195.620	-25.477	-9.945	24.816	17.291	5.2552e-05	0.00024401	6.095e-05	430.26	1.7279e-06	2.5639e-06	396.54	160.3	2.5699e-06	3.9988e-06	167.62	62.049	60.451	24.131	4.4814e-06	23.37	0.00047515	0.0007326	0.00020386	423.21	7.6716e-06	8.0131e-06	387.78	158.22	7.2475e-06	8.196e-06	164.55	61.367	59.962	24.023	7.7071e-06	23.05	153.061	6.916	-21.464	-19.359	144.696	37.202	-20.314	-13.991	141.596	170.271	-16.342	-13.325	-9.805	-5.368	121.011	-9.228	-8191	255	
931.121	1	1	0	0	0.1245	0.27557	0.33614	0.19812	0.16553	0.39103	0.12725	0.12268	0.045253	0.19043	0.17972	0.22086	0.18095	0.11373	0.21866	0.052316	0.047917	0.63542	0.20625	-0.027083	0.57917	-0.12083	0.13542	0.61042	-0.31667	0.50208	0.20208	-0.077083	0.68125	-0.095833	0.32708	0.54167	56.821	64.315	318.580	227.515	33.583	142.463	242.086	121.079	235.547	-11.389	314.936	220.405	111.754	76.413	-14.255	77.576	7.8544e-05	0.00032649	0.00011433	428.22	2.0549e-06	2.0587e-06	392.94	161.13	5.9635e-07	1.6349e-06	166.27	61.724	60.317	24.366	3.7676e-06	23.41	0.00044473	0.00070663	0.00018895	421.03	6.8399e-06	7.225e-06	385.61	157.84	6.9276e-06	7.4132e-06	163.32	61.155	59.931	24.197	6.8997e-06	23.057	157.423	51.028	50.436	-19.061	152.011	86.209	-20.096	-13.573	183.664	121.144	-17.048	-12.748	-9.645	-5.568	113.651	-9.496	-8191	255	
931.217	1	1	0	0	0.19861	0.25271	0.075425	0.15279	0.16069	0.13851	0.22743	0.10579	0.15887	0.06459	0.12767	0.17011	0.24248	0.10547	0.10267	0.16593	0.30208	0.66042	0.15625	-0.020833	0.59375	-0.18542	0.24583	0.58125	-0.18333	0.6375	0.26042	-0.24167	0.87083	0.15417	0.1375	0.62292	319.514	210.764	48.075	139.187	120.719	169.408	-21.207	33.222	259.358	260.940	290.497	218.605	278.462	76.314	-26.589	225.295	6.5363e-05	0.00030665	7.8571e-05	430.68	1.6571e-06	4.1848e-06	394.66	160.25	1.685e-06	2.2857e-06	166.26	61.345	60.204	24.592	3.1723e-06	23.428	0.00042212	0.00067443	0.00018457	422.91	7.3196e-06	7.9385e-06	387.07	157.93	7.0974e-06	7.6317e-06	163.08	61.115	60.142	24.327	6.7276e-06	23.134	137.558	63.935	71.716	-19.324	111.575	144.436	-20.513	-13.614	74.025	173.777	-16.624	-13.245	-9.557	-5.519	180.229	-9.314	-8191	255	
931.313	1	1	0	0	0.21615	0.064692	0.081458	0.13621	0.14763	0.087215	0.17698	0.11522	0.077555	0.19058	0.060351	0.1045	0.15388	0.14269	0.14328	0.098874	0.30208	0.48125	0.40208	-0.2875	0.825	-0.025	0.10208	0.4125	-0.11667	0.18125	0.40625	-0.29375	0.64375	0.23125	-0.010417	0.71667	262.311	77.431	110.003	-10.575	70.434	139.876	279.422	82.541	291.214	265.650	104.077	176.856	308.654	10.887	169.538	325.757	7.2744e-05	5.7849e-05	7.8096e-05	436.34	2.7747e-06	1.4471e-06	396.33	161.17	1.5336e-06	3.0696e-06	166.96	61.038	59.697	24.52	1.6473e-06	23.407	0.0004093	0.00062006	0.00017426	426.18	6.8131e-06	7.3508e-06	386.03	158.14	6.5069e-06	7.2124e-06	163	61.026	59.91	24.306	6.7711e-06	23.199	166.370	89.639	64.131	-19.465	145.412	144.252	-20.532	-13.986	140.768	87.154	-17.112	-13.324	-9.673	-5.820	152.281	-9.511	-8191	255	
931.432	1	1	0	0	0.13133	0.18497	0.091064	0.082223	0.17393	0.077597	0.40509	0.14689	0.046548	0.060215	0.21281	0.14848	0.053988	0.18849	0.1324	0.05001	0.22708	0.35625	0.64583	-0.24375	0.575	0.14167	0.047917	0.56042	-0.17083	0.33125	0.60833	-0.31458	0.54375	0.2625	-0.072917	0.72917	5.446	311.479	230.466	190.898	87.324	116.305	269.102	-16.678	278.412	23.209	164.129	-2.512	-25.160	257.700	153.721	87.949	7.5774e-05	0.000268	6.6307e-05	428.58	2.4667e-06	2.1567e-06	393.56	160.58	1.315e-06	2.3806e-06	164.25	61.351	60.087	24.182	1.168e-06	23.198	0.00041836	0.00060808	0.00016895	421.47	6.3427e-06	6.6783e-06	384.77	157.64	6.1851e-06	6.3981e-06	161.91	60.729	59.709	24.051	6.5428e-06	22.985	139.036	41.675	101.633	-19.029	121.382	109.367	-20.525	-13.665	206.043	-27.824	-16.895	-13.345	-9.826	-5.459	74.821	-9.537	-8191	255	
931.528	1	1	0	0	0.12138	0.14615	0.12639	0.13115	0.15656	0.10584	0.24722	0.2023	0.099324	0.11927	0.16204	0.30168	0.23425	0.12255	0.11194	0.10463	0.38333	0.18333	0.75625	-0.075	0.4	0.31458	-0.089583	0.60208	-0.10417	0.275	0.74167	-0.1	0.14583	0.43542	-0.23958	0.475	159.201	-20.411	314.417	175.661	62.252	175.270	29.653	16.874	164.994	121.956	108.643	17.299	-10.506	268.545	58.030	266.562	6.0008e-05	0.00042137	7.3714e-05	430.1	2.5218e-06	6.6416e-06	388.55	158.76	2.5235e-06	8.538e-07	164.88	60.815	59.457	24.249	3.3478e-06	23.455	0.00042093	0.00064534	0.00018001	420.95	6.8581e-06	7.2237e-06	381.34	156.45	6.7799e-06	6.8899e-06	161.29	60.443	59.51	24.015	7.2231e-06	22.984	141.092	39.958	71.414	-19.333	126.281	108.411	-20.201	-13.853	165.070	94.897	-16.405	-12.851	-9.736	-5.276	137.755	-8.961	-8191	255	
931.624	1	1	0	0	0.16945	0.1826	0.14839	0.12102	0.19349	0.29804	0.18044	0.050433	0.22575	0.12684	0.24904	0.10104	0.097374	0.1624	0.1352	0.22736	0.49167	0.16042	0.74583	-0.19167	0.375	0.4125	-0.29375	0.55	0.11458	-0.079167	0.65208	-0.079167	0.24792	0.39167	-0.05625	0.41458	198.574	7.307	60.114	315.810	294.231	236.595	240.348	261.480	41.711	2.485	174.295	27.950	188.414	20.213	81.954	188.036	8.203e-05	0.00018632	0.00010975	427.63	3.5091e-06	1.3271e-06	390.28	158.57	1.1926e-06	1.927e-06	164.62	61.252	59.278	24.025	2.3935e-07	23.352	0.00045802	0.00067905	0.00019112	420.13	7.2426e-06	7.5804e-06	381.76	156.04	6.9578e-06	7.5254e-06	161.91	60.513	59.15	23.884	7.4718e-06	22.986	181.615	78.346	69.496	-19.085	134.775	1.020	-20.027	-13.134	235.046	159.015	-16.544	-12.114	-9.356	-4.983	95.980	-8.994	-8191	255	
931.720	1	1	0	0	0.28646	0.039069	0.18358	0.17688	0.097113	0.25059	0.18984	0.1749	0.25646	0.18255	0.1012	0.14421	0.15499	0.21639	0.29367	0.08041	0.61042	-0.19583	0.75833	-0.0041667	0.17292	0.47708	-0.32917	0.2	0.12292	-0.22292	0.61042	-0.0125	0.25208	0.4375	-0.17708	0.38542	108.265	138.481	243.569	240.815	236.185	223.087	242.322	292.498	257.816	272.458	197.407	241.663	3.733	274.797	82.498	226.179	5.2356e-05	0.00034772	5.4473e-05	428.35	1.3124e-06	2.1747e-06	389.83	159.09	3.4004e-06	1.3199e-06	165.28	61.183	59.3	23.964	3.1595e-06	23.315	0.00043943	0.00068271	0.00019404	419.59	6.9968e-06	7.8298e-06	381.42	156.52	7.0491e-06	6.9715e-06	161.39	60.627	59.035	23.828	7.2981e-06	23.079	138.282	19.628	11.692	-18.998	168.471	95.872	-19.719	-12.987	145.546	18.169	-16.295	-12.293	-9.117	-4.928	142.795	-9.410	-8191	255	
931.816	1	1	0	0	0.1103	0.084671	0.12003	0.27207	0.26461	0.20928	0.16584	0.066853	0.034428	0.10044	0.088264	0.15787	0.10347	0.34376	0.13515	0.20312	0.76042	-0.0875	0.67292	0.13958	0.21667	0.31458	-0.2125	0.40625	0.58958	-0.21667	0.42292	0.054167	0.0041667	0.4875	-0.10833	0.35625	274.419	184.151	98.131	276.539	80.196	276.905	95.085	101.969	152.835	-14.938	287.182	258.386	198.263	310.327	-28.505	235.897	7.0428e-05	0.00023433	8.0046e-05	429.06	2.2558e-06	3.1469e-06	388.64	158.39	1.1975e-06	3.5841e-06	165.04	60.724	59.316	23.936	1.7629e-06	23.056	0.00044264	0.00066859	0.00018456	419.99	6.8825e-06	7.5293e-06	379.55	156.15	6.7366e-06	7.2711e-06	161.53	60.329	59.019	23.757	7.1969e-06	22.901	149.294	120.741	96.309	-19.089	83.244	59.236	-19.350	-13.592	212.889	90.122	-16.731	-12.234	-9.635	-5.251	227.911	-8.962	-8191	255	
931.913	1	1	0	0	0.18452	0.047616	0.13468	0.16606	0.19109	0.078525	0.12678	0.090706	0.18994	0.098874	0.20212	0.13522	0.25472	0.15543	0.04722	0.33613	0.85833	-0.23125	0.57083	-0.0083333	0.045833	0.63958	-0.20833	0.15625	0.48958	-0.27917	0.71875	0.33125	0.1125	0.61875	-0.072917	0.11875	224.641	-19.201	262.060	44.778	144.459	99.466	169.631	132.905	224.986	231.055	38.927	212.162	31.647	293.636	-15.805	308.722	8.0904e-05	0.0004661	4.0916e-05	426.35	9.1892e-07	4.8615e-06	391.34	158.92	1.3233e-06	3.9615e-06	164.21	61.219	59.527	24.113	1.9423e-06	23.407	0.00042291	0.00066474	0.00018693	417.94	6.8095e-06	7.5342e-06	380.21	155.87	6.6999e-06	7.2318e-06	160.96	60.582	59.181	23.949	7.1743e-06	23.114	157.545	68.461	43.883	-18.417	211.753	123.069	-20.208	-13.917	129.894	99.681	-16.890	-12.256	-9.452	-5.175	58.653	-9.654	-8191	255	
932.033	1	1	0	0	0.2597	0.15321	0.2646	0.15698	0.13409	0.07736	0.15985	0.14042	0.12136	0.15274	0.22829	0.37092	0.14231	0.16917	0.3089	0.15819	0.95833	-0.05625	0.51458	0.33958	-0.014583	0.71667	-0.12917	0.28542	0.53125	-0.275	0.45208	0.38958	-0.22292	0.56667	0.060417	-0.1	-6.621	155.137	243.659	152.759	86.877	205.406	175.650	301.375	144.523	62.417	266.097	300.700	42.676	304.943	135.371	221.727	7.1503e-05	0.00014319	9.1434e-05	425.56	1.0082e-06	4.0155e-06	390.79	159.4	8.802e-07	3.2682e-06	164.69	61.046	59.16	24.374	8.7817e-07	23.319	0.00044231	0.00064888	0.00018324	417.47	7.0994e-06	7.6127e-06	380.59	156.13	7.0154e-06	7.3329e-06	160.74	60.552	59.116	24.14	7.2354e-06	23.271	148.636	44.170	63.963	-18.687	65.795	112.131	-19.873	-13.404	253.844	118.813	-17.074	-13.406	-9.992	-6.019	181.407	-9.669	-8191	255	
