BOXY.EXE: ISS Imagent and Oximeter Data Acquisition Program Version 0.80
Ascii Record File

#ACQ INFORMATION
2  Detector Channels 
16  External MUX Channels 
1  Auxiliary Channels 
5000  Waveform (CCF) Frequency (Hz)
1  Waveforms Skipped 
30  Waveforms Averaged 
1  Cycles Averaged 
16  Acquisitions per Waveform 
10.0806  Updata Rate (Hz) 

#FILE INFORMATION
TRUE -- External MUX Channel results are PARSED.
FALSE -- AC DC and Phase are NOT grouped.
TRUE -- Companion Program Settings File CREATED.
FALSE -- AC data not excluded
FALSE -- DC data not excluded
FALSE -- Phase data not excluded
FALSE -- Auxillary Chn. data not excluded
Tab delimiters

#CALIBRATION STATE
TRUE -- Waveform Calibration Values APPLIED.


#AUX CALIBRATION VALUES
Val Type	aux-1	

Term	1.0000e+00	
Factor	0.0000e+00	


#WF CALIBRATION VALUES
A = Detector Channel
Val Type	A-AC1	A-AC2	A-AC3	A-AC4	A-AC5	A-AC6	A-AC7	A-AC8	A-AC9	A-AC10	A-AC11	A-AC12	A-AC13	A-AC14	A-AC15	A-AC16	A-DC1	A-DC2	A-DC3	A-DC4	A-DC5	A-DC6	A-DC7	A-DC8	A-DC9	A-DC10	A-DC11	A-DC12	A-DC13	A-DC14	A-DC15	A-DC16	A-Ph1	A-Ph2	A-Ph3	A-Ph4	A-Ph5	A-Ph6	A-Ph7	A-Ph8	A-Ph9	A-Ph10	A-Ph11	A-Ph12	A-Ph13	A-Ph14	A-Ph15	A-Ph16	

Term	0.00000e+00	0.00000e+00	0.00000e+00	0.00000e+00	0.00000e+00	0.00000e+00	0.00000e+00	0.00000e+00	0.00000e+00	0.00000e+00	0.00000e+00	0.00000e+00	0.00000e+00	0.00000e+00	0.00000e+00	0.00000e+00	0.00000e+00	0.00000e+00	0.00000e+00	0.00000e+00	0.00000e+00	0.00000e+00	0.00000e+00	0.00000e+00	0.00000e+00	0.00000e+00	0.00000e+00	0.00000e+00	0.00000e+00	0.00000e+00	0.00000e+00	0.00000e+00	0.00000e+00	0.00000e+00	0.00000e+00	0.00000e+00	0.00000e+00	0.00000e+00	0.00000e+00	0.00000e+00	0.00000e+00	0.00000e+00	0.00000e+00	0.00000e+00	0.00000e+00	0.00000e+00	0.00000e+00	0.00000e+00	
Factor	1.00000e+00	1.00000e+00	1.00000e+00	1.00000e+00	1.00000e+00	1.00000e+00	1.00000e+00	1.00000e+00	1.00000e+00	1.00000e+00	1.00000e+00	1.00000e+00	1.00000e+00	1.00000e+00	1.00000e+00	1.00000e+00	1.00000e+00	1.00000e+00	1.00000e+00	1.00000e+00	1.00000e+00	1.00000e+00	1.00000e+00	1.00000e+00	1.00000e+00	1.00000e+00	1.00000e+00	1.00000e+00	1.00000e+00	1.00000e+00	1.00000e+00	1.00000e+00	X	X	X	X	X	X	X	X	X	X	X	X	X	X	X	X	

B = Detector Channel
Val Type	B-AC1	B-AC2	B-AC3	B-AC4	B-AC5	B-AC6	B-AC7	B-AC8	B-AC9	B-AC10	B-AC11	B-AC12	B-AC13	B-AC14	B-AC15	B-AC16	B-DC1	B-DC2	B-DC3	B-DC4	B-DC5	B-DC6	B-DC7	B-DC8	B-DC9	B-DC10	B-DC11	B-DC12	B-DC13	B-DC14	B-DC15	B-DC16	B-Ph1	B-Ph2	B-Ph3	B-Ph4	B-Ph5	B-Ph6	B-Ph7	B-Ph8	B-Ph9	B-Ph10	B-Ph11	B-Ph12	B-Ph13	B-Ph14	B-Ph15	B-Ph16	

Term	0.00000e+00	0.00000e+00	0.00000e+00	0.00000e+00	0.00000e+00	0.00000e+00	0.00000e+00	0.00000e+00	0.00000e+00	0.00000e+00	0.00000e+00	0.00000e+00	0.00000e+00	0.00000e+00	0.00000e+00	0.00000e+00	0.00000e+00	0.00000e+00	0.00000e+00	0.00000e+00	0.00000e+00	0.00000e+00	0.00000e+00	0.00000e+00	0.00000e+00	0.00000e+00	0.00000e+00	0.00000e+00	0.00000e+00	0.00000e+00	0.00000e+00	0.00000e+00	-1.12232e+02	-1.31493e+02	-1.26301e+02	-1.82925e+02	-6.61961e+01	-6.93729e+01	-1.56697e+02	-1.62015e+02	-6.64507e+01	-6.47760e+01	-1.69789e+02	-1.71884e+02	-1.87016e+02	-1.77077e+02	-6.21522e+01	-1.49516e+02	
Factor	1.55884e-05	1.50606e-04	4.28834e-05	2.77585e-01	1.30341e-06	1.75495e-06	1.60847e-01	4.74421e-02	1.05426e-06	1.60286e-06	8.23926e-02	2.73325e-02	3.04750e-02	8.53322e-03	1.33339e-06	1.20591e-02	1.05579e-05	1.86671e-05	5.21731e-06	1.46876e-01	1.94660e-07	2.09585e-07	8.03013e-02	2.53644e-02	1.85624e-07	2.07253e-07	4.25778e-02	1.42240e-02	1.63516e-02	4.59333e-03	1.96714e-07	6.29039e-03	X	X	X	X	X	X	X	X	X	X	X	X	X	X	X	X	



#DISTANCE SETTINGS
A = Detector Channel
A-1	A-2	A-3	A-4	A-5	A-6	A-7	A-8	A-9	A-10	A-11	A-12	A-13	A-14	A-15	A-16	

2.5000e+00	3.0000e+00	2.5000e+00	3.0000e+00	2.0000e+00	3.0000e+00	1.5000e+00	3.0000e+00	3.0000e+00	3.0000e+00	3.0000e+00	3.0000e+00	3.0000e+00	3.0000e+00	1.5000e+00	3.0000e+00	

B = Detector Channel
B-1	B-2	B-3	B-4	B-5	B-6	B-7	B-8	B-9	B-10	B-11	B-12	B-13	B-14	B-15	B-16	

1.0000e+01	1.0000e+01	1.0000e+01	1.4400e+00	1.0000e+01	1.0000e+01	1.5100e+00	1.9400e+00	1.0000e+01	1.0000e+01	1.9900e+00	2.4900e+00	2.4100e+00	2.9000e+00	1.0000e+01	2.9800e+00	




#DATA BEGINS
time	group	step	mark	flag	A-AC1	A-AC2	A-AC3	A-AC4	A-AC5	A-AC6	A-AC7	A-AC8	A-AC9	A-AC10	A-AC11	A-AC12	A-AC13	A-AC14	A-AC15	A-AC16	A-DC1	A-DC2	A-DC3	A-DC4	A-DC5	A-DC6	A-DC7	A-DC8	A-DC9	A-DC10	A-DC11	A-DC12	A-DC13	A-DC14	A-DC15	A-DC16	A-Ph1	A-Ph2	A-Ph3	A-Ph4	A-Ph5	A-Ph6	A-Ph7	A-Ph8	A-Ph9	A-Ph10	A-Ph11	A-Ph12	A-Ph13	A-Ph14	A-Ph15	A-Ph16	B-AC1	B-AC2	B-AC3	B-AC4	B-AC5	B-AC6	B-AC7	B-AC8	B-AC9	B-AC10	B-AC11	B-AC12	B-AC13	B-AC14	B-AC15	B-AC16	B-DC1	B-DC2	B-DC3	B-DC4	B-DC5	B-DC6	B-DC7	B-DC8	B-DC9	B-DC10	B-DC11	B-DC12	B-DC13	B-DC14	B-DC15	B-DC16	B-Ph1	B-Ph2	B-Ph3	B-Ph4	B-Ph5	B-Ph6	B-Ph7	B-Ph8	B-Ph9	B-Ph10	B-Ph11	B-Ph12	B-Ph13	B-Ph14	B-Ph15	B-Ph16	aux-1	digaux	

895.108	1	1	0	768	0.13307	0.30509	0.26938	0.15318	0.15817	0.080288	0.22862	0.07606	0.14398	0.031939	0.10244	0.38731	0.18015	0.15869	0.0555	0.16258	0.48542	-0.025	-0.40417	0.2875	-0.0375	-0.3625	0.35833	-0.54167	0.052083	0.0125	-0.45625	0.20833	-0.24167	-0.38958	0.32292	-0.34792	131.082	-2.326	177.316	-3.960	302.004	125.032	164.991	314.013	127.665	-14.027	178.541	31.493	309.250	266.149	167.651	-3.911	0.00013463	0.00073643	0.00019884	396.29	8.7509e-06	1.2682e-05	400.91	162.23	6.6271e-06	8.586e-06	176.59	67.667	62.362	30.348	1.1622e-05	30.826	0.0061825	0.011068	0.0030122	470.23	0.0001127	0.00012228	435.05	173.95	0.00010875	0.00012158	197.66	74.756	71.746	32.803	0.00011384	34.007	183.373	128.742	275.883	-17.434	126.944	-8.578	-18.996	-11.267	5.474	82.452	-14.983	-10.211	-7.350	-2.604	109.496	-6.057	-8191	255	
895.204	1	1	0	0	0.10654	0.097452	0.18441	0.16734	0.25586	0.2082	0.075661	0.2065	0.19502	0.06331	0.24616	0.12729	0.011503	0.26407	0.15763	0.23488	0.35625	0.225	-0.41875	0.21667	-0.28542	-0.30625	0.34375	-0.45208	0.022917	0.35417	-0.57917	0.058333	-0.18958	-0.28333	0.39375	-0.56042	80.080	282.885	94.721	234.424	-20.677	-28.038	43.513	11.485	-25.044	290.606	246.925	-6.909	30.799	9.566	171.292	19.153	0.00011082	0.00099973	0.0002029	400.02	3.3324e-06	7.7545e-06	399.34	162.77	5.7692e-06	6.0796e-06	176.78	67.372	63.407	30.357	6.3016e-06	31.009	0.0062915	0.011094	0.0030506	472.34	0.00011616	0.00012483	435.59	174.58	0.00011115	0.0001237	197.13	74.696	71.956	32.785	0.00011357	34.011	119.092	88.413	111.925	-17.548	200.115	23.739	-18.985	-11.711	149.499	261.434	-14.712	-10.255	-7.463	-2.771	140.326	-6.737	-8191	255	
895.300	1	1	0	0	0.34387	0.15627	0.22814	0.14157	0.1293	0.26383	0.15064	0.025265	0.28239	0.28462	0.15356	0.14811	0.11249	0.10289	0.11774	0.10055	0.1875	0.29167	-0.4125	0.18958	0.039583	-0.52083	0.4375	-0.27083	-0.095833	0.24792	-0.625	0.2625	0.014583	-0.41458	0.20833	-0.2	22.930	231.796	9.225	303.583	-16.462	37.264	140.309	37.436	94.362	45.033	35.271	275.909	319.985	82.047	-27.123	201.409	0.0001406	0.0018701	2.4014e-05	396.95	5.9991e-06	5.7726e-06	398.49	162	5.1962e-06	8.8736e-06	179.64	67.869	63.073	30.559	9.8478e-06	31.192	0.0063399	0.010931	0.0030004	471.01	0.00011514	0.0001213	433.5	173.88	0.00010917	0.00012165	198.1	75.111	71.666	32.793	0.00011447	34.329	141.257	309.795	164.645	-16.928	190.598	110.627	-18.732	-11.319	122.756	27.359	-14.641	-10.094	-7.079	-2.642	108.337	-6.339	-8191	255	
895.396	1	1	0	0	0.22826	0.18573	0.12951	0.4124	0.17073	0.1085	0.096156	0.23773	0.10003	0.23671	0.20044	0.09904	0.086342	0.182	0.098895	0.092449	0.039583	0.30833	-0.51667	0.066667	0.11458	-0.53542	0.37292	-0.34792	-0.24375	0.3125	-0.38125	-0.016667	0.18333	-0.65625	0.27708	-0.27083	284.101	209.348	50.084	258.179	222.724	15.892	172.612	293.690	-18.556	194.386	128.160	33.440	28.254	15.116	327.054	267.137	7.4196e-05	0.00054085	0.00033076	393.67	2.6035e-06	1.081e-05	402.67	162.99	8.8212e-06	2.1388e-06	178.93	67.995	62.305	30.271	2.8806e-06	30.981	0.006382	0.011085	0.0030881	472.85	0.00011815	0.00012427	437.33	174.74	0.00011324	0.00012437	199.38	75.562	71.86	32.894	0.00011843	34.517	320.285	-15.380	63.602	-17.183	35.880	110.335	-18.880	-11.697	100.251	135.431	-14.784	-10.383	-7.344	-2.621	92.207	-6.425	-8191	255	
895.491	1	1	0	0	0.34574	0.34663	0.47412	0.0077973	0.25332	0.25188	0.09219	0.16341	0.36695	0.1227	0.23922	0.072211	0.17298	0.41164	0.30616	0.10311	0.070833	0.34583	-0.35208	-0.15208	0.15	-0.64375	0.18958	0.03125	-0.275	0.18333	-0.42083	-0.18542	0.375	-0.76042	0.2625	-0.26458	260.163	199.214	261.575	37.456	55.324	274.394	264.356	255.866	184.540	32.736	-6.483	249.656	268.169	-14.402	232.483	181.260	9.3821e-05	0.00072117	0.00012393	393.68	8.3269e-06	9.1932e-06	401.66	159.84	6.6138e-06	6.1652e-06	175.64	66.876	62.045	30.217	6.6765e-06	30.566	0.0064694	0.011218	0.0031702	475.57	0.00011905	0.00012476	438.29	174.36	0.00011153	0.000124	198.76	75.267	71.716	32.768	0.00012002	34.214	193.680	185.949	67.471	-17.434	12.483	128.102	-19.254	-11.297	161.277	19.803	-15.547	-9.946	-7.454	-2.640	88.327	-6.587	-8191	255	
895.587	1	1	0	0	0.035587	0.26293	0.19135	0.085641	0.12194	0.25465	0.084164	0.19802	0.23546	0.22617	0.07586	0.1201	0.071975	0.45276	0.068554	0.17094	-0.30417	0.3125	-0.39167	-0.095833	0.23542	-0.55833	-0.14375	-0.095833	-0.81042	0.33333	-0.21875	-0.33333	0.44167	-0.37917	-0.029167	0.047917	307.339	66.320	15.070	9.659	289.225	256.627	311.010	288.486	140.372	300.339	72.516	270.797	120.694	312.056	25.986	252.299	0.00010946	0.00085937	0.00045426	393.52	1.0863e-06	3.4076e-06	398.8	161.06	7.6942e-06	8.1025e-06	177.82	67.379	62.233	30.474	4.9159e-06	30.85	0.0064845	0.01123	0.003208	474.71	0.00011962	0.00012673	437.4	174.25	0.00011345	0.00012651	199.24	75.36	71.879	32.851	0.00012504	34.358	184.004	93.224	159.090	-17.472	179.963	92.672	-19.258	-11.570	146.284	309.729	-14.929	-10.698	-7.870	-3.018	72.983	-6.894	-8191	255	
895.708	1	1	0	0	0.070572	0.049136	0.31537	0.23839	0.17457	0.24676	0.13003	0.19251	0.11215	0.15017	0.22519	0.0358	0.20541	0.15101	0.15754	0.050078	-0.15833	0.3625	-0.075	-0.23333	0.43542	-0.052083	-0.060417	0.13125	-0.55208	0.54792	-0.12708	-0.29583	0.27083	-0.41042	0.05	0.085417	57.115	91.123	214.914	6.913	201.041	-29.616	292.020	238.769	1.676	96.476	133.871	310.189	-14.853	148.344	17.994	9.540	0.00015672	0.0010181	0.00019403	399.52	1.1258e-06	6.7023e-06	398.78	160.79	3.4164e-06	8.6048e-06	177.59	67.104	62.298	30.259	6.195e-06	31.02	0.0065912	0.011687	0.0033505	481.37	0.00012314	0.00013291	441.4	175.02	0.00011952	0.00013594	201.52	75.772	72.394	33.009	0.00013147	34.685	122.379	32.289	223.597	-20.654	33.339	197.855	-21.371	-13.754	15.038	75.052	-17.355	-12.680	-9.648	-4.863	152.295	-9.027	-8191	255	
895.804	1	1	0	0	0.032217	0.093347	0.026737	0.16067	0.36147	0.13066	0.12409	0.17923	0.10373	0.12462	0.089919	0.11658	0.31963	0.073589	0.16738	0.16817	-0.08125	0.23542	-0.041667	-0.51667	0.32917	-0.30833	-0.225	0.16875	-0.32917	0.1875	0.047917	-0.44167	0.30833	-0.4625	-0.32708	0.34167	57.653	45.463	212.879	315.472	203.653	278.581	120.089	66.370	-5.132	199.551	52.734	146.464	11.298	78.359	140.310	163.194	0.00016626	0.001206	0.00012995	401.07	4.2377e-06	9.4185e-06	398.85	159.94	4.1449e-06	5.3614e-06	175.32	66.699	62.052	29.975	3.4129e-06	31.142	0.0070182	0.012499	0.0035147	486.4	0.00012781	0.00014044	444.23	175.31	0.00012143	0.00013776	200.91	75.771	72.691	33.007	0.00012914	34.787	111.641	148.336	81.112	-19.517	86.024	39.977	-21.387	-14.006	133.161	169.665	-16.996	-12.860	-9.815	-4.643	185.806	-7.623	-8191	255	
895.900	1	1	0	0	0.045448	0.12019	0.13981	0.18879	0.13678	0.2045	0.13731	0.068522	0.075411	0.050573	0.10609	0.21113	0.29122	0.10459	0.26824	0.099915	0.041667	0.14375	0.075	-0.34375	0.34375	-0.37708	-0.35208	0.39583	-0.51667	-0.047917	0.15625	-0.62708	0.27083	-0.2	-0.25	0.42292	72.180	122.980	97.672	275.911	321.551	-16.065	121.059	131.246	291.446	4.164	-14.526	90.115	-15.069	7.852	206.561	1.101	0.00012761	0.00054251	0.00025854	399.19	1.292e-06	4.8056e-06	399.93	160.17	3.8592e-06	1.298e-05	176.25	66.587	60.617	29.622	7.4043e-06	30.291	0.0068983	0.012396	0.0033959	482.7	0.00012591	0.00013717	443.08	175.22	0.00012095	0.0001362	201.4	75.809	72.073	32.831	0.00012824	34.417	175.552	18.449	9.817	-18.627	42.868	27.641	-18.960	-11.090	81.701	197.878	-13.551	-8.608	-6.211	-1.430	313.014	-5.288	-8191	255	
895.996	1	1	0	0	0.18018	0.12032	0.26633	0.15826	0.09006	0.21971	0.14893	0.11499	0.076577	0.1784	0.28687	0.16129	0.075008	0.071479	0.092739	0.1511	-0.029167	-0.08125	0.13333	-0.325	0.40833	-0.03125	-0.40625	0.27917	-0.3375	0.097917	0.072917	-0.53125	0.058333	-0.32917	-0.45625	0.36667	71.210	148.997	172.947	16.213	303.219	161.306	211.959	107.137	291.947	51.648	200.903	309.468	227.912	149.380	81.874	18.597	0.00019392	0.00026335	0.0001839	394.28	4.1023e-06	8.001e-06	394.98	161.46	8.4239e-06	2.8591e-06	174.65	65.835	60.796	29.886	5.4458e-06	30.356	0.0069737	0.012287	0.0034087	482.4	0.0001275	0.00013861	441.92	174.93	0.00012265	0.00013654	199.43	75.243	72.181	32.818	0.00012951	34.354	166.027	197.389	220.650	-18.199	180.754	169.059	-20.131	-12.675	185.628	244.025	-13.947	-8.226	-6.811	-2.167	221.000	-5.775	-8191	255	
896.092	1	1	0	0	0.14526	0.038801	0.073067	0.098018	0.21388	0.062165	0.092339	0.1353	0.21249	0.1747	0.32899	0.15644	0.13946	0.30678	0.28353	0.20359	-0.18125	-0.18125	0.48125	-0.72708	0.12917	0.060417	-0.43958	0.28125	-0.17917	-0.34375	0.16875	-0.5375	0.22917	-0.01875	-0.46667	0.12083	212.162	238.408	-11.930	221.102	307.386	169.670	-17.611	202.955	14.190	134.847	259.827	-23.775	-22.519	20.665	259.104	66.695	9.498e-05	7.9534e-05	0.00019352	385.57	8.498e-06	8.6447e-06	387.37	155.55	4.4589e-06	6.7848e-06	169.45	65.075	59.537	29.908	6.2693e-06	29.682	0.0071243	0.012401	0.0034246	480.31	0.00013019	0.00013987	439.26	173.52	0.00012269	0.00013742	198.13	75.429	71.978	32.858	0.00012802	34.275	166.062	298.918	245.484	-14.975	61.290	16.794	-16.955	-9.463	186.985	233.029	-12.358	-7.421	-5.031	-2.203	195.685	-4.491	-8191	255	
896.188	1	1	0	0	0.18689	0.074876	0.12942	0.22426	0.18649	0.14867	0.14038	0.12976	0.24528	0.37174	0.10182	0.12972	0.063875	0.19253	0.061403	0.42029	0.26458	-0.15625	0.23125	-0.71667	0.033333	0.070833	-0.56042	0.2125	-0.30208	-0.36458	0.1875	-0.40417	-0.014583	-0.0375	-0.58125	0.13333	126.481	38.509	38.976	147.741	-19.453	126.535	270.346	303.856	223.115	-23.937	224.021	214.476	167.754	278.216	133.428	280.417	0.00015011	0.00089905	0.00010271	383.42	4.6593e-06	1.5065e-05	391.8	156.75	7.5907e-06	9.4246e-06	171.46	65.409	60.406	29.555	3.1877e-06	30.005	0.0071043	0.012392	0.003398	481.59	0.00012968	0.00013858	442.06	174.17	0.0001234	0.00013662	200.19	75.912	72.212	32.825	0.00012759	34.519	146.926	58.283	147.822	-15.281	257.800	38.530	-16.981	-10.429	57.259	20.930	-12.788	-8.137	-5.652	-1.045	328.001	-4.843	-8191	255	
896.285	1	1	0	0	0.067797	0.13677	0.29204	0.35319	0.052678	0.055472	0.23094	0.20311	0.32952	0.039111	0.16552	0.098556	0.31256	0.3403	0.05617	0.083397	0.225	-0.31458	0.40208	-0.32292	0.06875	0.0625	-0.49583	0.28333	-0.13958	-0.37708	0.23125	-0.31458	-0.12708	0.21667	-0.38542	0.10417	22.086	162.986	211.507	243.107	-17.779	288.018	236.308	291.478	-8.292	206.955	275.023	311.391	262.784	283.034	116.691	242.764	0.00018079	0.0015773	0.0002007	393.11	2.6991e-06	6.0143e-06	390.75	157.81	2.5695e-07	3.6388e-06	172.67	66.879	60.991	29.702	6.3419e-06	30.946	0.0070385	0.012235	0.0033858	485.3	0.00012964	0.00013674	442.94	174.31	0.00012228	0.00013519	200.51	76.434	72.283	32.9	0.00012886	34.851	186.785	56.675	322.346	-16.365	-7.613	0.624	-17.158	-10.304	59.530	47.255	-12.727	-8.915	-5.985	-1.093	111.526	-5.782	-8191	255	
896.403	1	1	0	0	0.11345	0.1359	0.032412	0.46089	0.12602	0.1131	0.25729	0.26703	0.081236	0.13606	0.22746	0.15853	0.043895	0.14883	0.12846	0.12972	0.33125	-0.37292	0.32917	-0.44167	-0.2	0.39583	-0.52083	0.047917	0.0875	-0.64167	0.26667	-0.33333	-0.19792	0.42083	-0.49792	0.11042	127.641	241.500	144.612	3.346	117.829	-10.672	-3.508	311.104	261.031	326.972	322.719	203.919	252.277	203.909	75.290	32.374	3.8658e-05	0.00079931	0.00022293	395.1	5.9536e-06	9.8968e-06	401.67	160.66	8.2777e-06	6.2538e-06	176.69	66.951	61.811	30.045	6.4739e-06	30.767	0.007115	0.01222	0.0034673	486.86	0.00012849	0.00013694	445.03	175.31	0.00012163	0.00013435	201.2	76.085	72.202	32.886	0.00012762	34.482	128.382	126.671	188.222	-17.100	73.034	285.761	-18.226	-11.352	117.322	176.808	-14.212	-9.218	-6.871	-2.021	88.650	-5.981	-8191	255	
896.500	1	1	0	0	0.1061	0.3163	0.34992	0.067922	0.167	0.24608	0.29473	0.074506	0.26893	0.15848	0.29311	0.13223	0.36263	0.27578	0.11796	0.19764	0.58125	-0.45417	0.40208	-0.22917	-0.26042	0.425	-0.53125	0.00625	0.27917	-0.44375	0.37917	-0.15417	-0.3625	0.36042	-0.40833	-0.225	221.674	274.837	326.366	326.623	101.488	65.493	247.684	294.584	47.334	58.627	-24.437	245.763	299.689	293.834	-18.931	270.311	0.00012107	0.0010893	0.00016195	392.89	2.7678e-06	2.8989e-06	399.62	161.59	6.6956e-06	6.4144e-06	177.14	67.323	61.61	30.171	1.0604e-05	31.024	0.0069029	0.011924	0.0033657	481.9	0.00012379	0.00013365	441.87	175.11	0.00011889	0.00013267	200.71	75.94	71.962	32.925	0.00012702	34.606	170.330	48.649	289.511	-16.169	217.789	77.212	-18.469	-11.355	27.033	205.953	-14.598	-9.391	-6.828	-1.930	152.182	-5.598	-8191	255	
896.596	1	1	0	0	0.13484	0.096124	0.11008	0.019859	0.095	0.058855	0.057636	0.12322	0.22952	0.21162	0.031719	0.20895	0.1679	0.12194	0.16081	0.13034	0.75208	-0.49167	0.35208	0.05	-0.375	0.32708	-0.35417	-0.18333	0.10417	-0.55833	0.14167	-0.095833	-0.35208	0.35625	-0.1	-0.35625	-10.935	101.192	71.835	286.227	189.326	129.927	98.544	241.882	293.233	140.672	118.404	157.728	0.662	291.873	138.822	266.378	0.00010978	0.00048806	0.0003048	397.88	2.5545e-06	8.6664e-06	398.94	160.38	3.3888e-06	6.6625e-06	177.73	67.462	61.759	30.004	3.3474e-06	30.728	0.0068288	0.011985	0.0034204	483.6	0.00012458	0.0001346	443.29	174.73	0.00011981	0.00013524	201.65	76.381	72.148	32.81	0.00013033	34.678	134.617	113.460	48.579	-16.388	179.042	267.255	-18.357	-11.053	221.211	189.777	-13.974	-9.426	-6.332	-1.717	83.750	-6.018	-8191	255	
896.669	1	1	0	0	0.12646	0.15716	0.058098	0.11546	0.2081	0.13816	0.27732	0.12973	0.16373	0.29275	0.024797	0.18155	0.24791	0.17557	0.014881	0.23742	0.60833	-0.41875	0.041667	0.03125	-0.2375	0.35	-0.225	-0.22917	0.39375	-0.49792	0.00625	0.16458	-0.45417	0.41042	-0.025	-0.42292	139.550	295.140	39.746	54.742	157.075	312.931	156.684	304.629	-8.710	9.198	27.180	323.680	79.660	159.329	77.613	-10.255	5.57e-05	0.00066427	0.00030818	401.73	8.7062e-06	9.4644e-06	399.88	161.96	5.4984e-06	7.8266e-06	179.18	68.566	61.545	30.25	5.1912e-06	31.113	0.006938	0.012412	0.0034476	483.93	0.00012676	0.00013862	445.8	175.36	0.00012186	0.00013772	202.54	76.788	72.34	33.016	0.00013031	34.847	216.392	100.913	45.867	-16.627	168.675	105.518	-18.755	-11.390	209.959	86.066	-14.273	-9.357	-6.494	-1.973	217.710	-6.034	-8191	255	
896.788	1	1	0	0	0.092125	0.10591	0.19607	0.36314	0.2077	0.043085	0.086933	0.037896	0.1024	0.073769	0.2351	0.21129	0.21976	0.19462	0.18943	0.11191	0.68333	-0.40625	0.1625	0.16042	-0.49375	0.18125	-0.29375	-0.48958	0.4375	-0.44583	-0.18958	0.125	-0.33333	0.175	-0.12292	-0.5	31.431	-10.477	248.568	283.170	-2.025	92.770	9.296	24.179	-4.731	107.021	329.742	9.589	11.697	313.904	283.199	275.986	0.00010442	0.00079889	0.00028788	398.04	2.4631e-06	2.5665e-06	400.86	163.23	3.9464e-06	4.5663e-06	177.35	67.517	61.414	29.791	1.8725e-06	30.907	0.0070634	0.012622	0.0035067	486.63	0.00012939	0.00014071	446.26	175.77	0.00012467	0.00014029	201.96	76.337	72.159	32.765	0.00013181	34.57	129.259	8.325	168.101	-17.250	203.553	192.977	-18.434	-11.141	226.948	-7.885	-14.423	-9.511	-6.529	-2.485	172.904	-6.394	-8191	255	
