BOXY.EXE: ISS Imagent and Oximeter Data Acquisition Program Version 0.80
Ascii Record File

#ACQ INFORMATION
2  Detector Channels 
16  External MUX Channels 
1  Auxiliary Channels 
5000  Waveform (CCF) Frequency (Hz)
1  Waveforms Skipped 
30  Waveforms Averaged 
1  Cycles Averaged 
16  Acquisitions per Waveform 
10.0806  Updata Rate (Hz) 

#FILE INFORMATION
TRUE -- External MUX Channel results are PARSED.
FALSE -- AC DC and Phase are NOT grouped.
TRUE -- Companion Program Settings File CREATED.
FALSE -- AC data not excluded
FALSE -- DC data not excluded
FALSE -- Phase data not excluded
FALSE -- Auxillary Chn. data not excluded
Tab delimiters

#CALIBRATION STATE
TRUE -- Waveform Calibration Values APPLIED.


#AUX CALIBRATION VALUES
Val Type	aux-1	

Term	1.0000e+00	
Factor	0.0000e+00	


#WF CALIBRATION VALUES
A = Detector Channel
Val Type	A-AC1	A-AC2	A-AC3	A-AC4	A-AC5	A-AC6	A-AC7	A-AC8	A-AC9	A-AC10	A-AC11	A-AC12	A-AC13	A-AC14	A-AC15	A-AC16	A-DC1	A-DC2	A-DC3	A-DC4	A-DC5	A-DC6	A-DC7	A-DC8	A-DC9	A-DC10	A-DC11	A-DC12	A-DC13	A-DC14	A-DC15	A-DC16	A-Ph1	A-Ph2	A-Ph3	A-Ph4	A-Ph5	A-Ph6	A-Ph7	A-Ph8	A-Ph9	A-Ph10	A-Ph11	A-Ph12	A-Ph13	A-Ph14	A-Ph15	A-Ph16	

Term	0.00000e+00	0.00000e+00	0.00000e+00	0.00000e+00	0.00000e+00	0.00000e+00	0.00000e+00	0.00000e+00	0.00000e+00	0.00000e+00	0.00000e+00	0.00000e+00	0.00000e+00	0.00000e+00	0.00000e+00	0.00000e+00	0.00000e+00	0.00000e+00	0.00000e+00	0.00000e+00	0.00000e+00	0.00000e+00	0.00000e+00	0.00000e+00	0.00000e+00	0.00000e+00	0.00000e+00	0.00000e+00	0.00000e+00	0.00000e+00	0.00000e+00	0.00000e+00	0.00000e+00	0.00000e+00	0.00000e+00	0.00000e+00	0.00000e+00	0.00000e+00	0.00000e+00	0.00000e+00	0.00000e+00	0.00000e+00	0.00000e+00	0.00000e+00	0.00000e+00	0.00000e+00	0.00000e+00	0.00000e+00	
Factor	1.00000e+00	1.00000e+00	1.00000e+00	1.00000e+00	1.00000e+00	1.00000e+00	1.00000e+00	1.00000e+00	1.00000e+00	1.00000e+00	1.00000e+00	1.00000e+00	1.00000e+00	1.00000e+00	1.00000e+00	1.00000e+00	1.00000e+00	1.00000e+00	1.00000e+00	1.00000e+00	1.00000e+00	1.00000e+00	1.00000e+00	1.00000e+00	1.00000e+00	1.00000e+00	1.00000e+00	1.00000e+00	1.00000e+00	1.00000e+00	1.00000e+00	1.00000e+00	X	X	X	X	X	X	X	X	X	X	X	X	X	X	X	X	

B = Detector Channel
Val Type	B-AC1	B-AC2	B-AC3	B-AC4	B-AC5	B-AC6	B-AC7	B-AC8	B-AC9	B-AC10	B-AC11	B-AC12	B-AC13	B-AC14	B-AC15	B-AC16	B-DC1	B-DC2	B-DC3	B-DC4	B-DC5	B-DC6	B-DC7	B-DC8	B-DC9	B-DC10	B-DC11	B-DC12	B-DC13	B-DC14	B-DC15	B-DC16	B-Ph1	B-Ph2	B-Ph3	B-Ph4	B-Ph5	B-Ph6	B-Ph7	B-Ph8	B-Ph9	B-Ph10	B-Ph11	B-Ph12	B-Ph13	B-Ph14	B-Ph15	B-Ph16	

Term	0.00000e+00	0.00000e+00	0.00000e+00	0.00000e+00	0.00000e+00	0.00000e+00	0.00000e+00	0.00000e+00	0.00000e+00	0.00000e+00	0.00000e+00	0.00000e+00	0.00000e+00	0.00000e+00	0.00000e+00	0.00000e+00	0.00000e+00	0.00000e+00	0.00000e+00	0.00000e+00	0.00000e+00	0.00000e+00	0.00000e+00	0.00000e+00	0.00000e+00	0.00000e+00	0.00000e+00	0.00000e+00	0.00000e+00	0.00000e+00	0.00000e+00	0.00000e+00	-1.12232e+02	-1.31493e+02	-1.26301e+02	-1.82925e+02	-6.61961e+01	-6.93729e+01	-1.56697e+02	-1.62015e+02	-6.64507e+01	-6.47760e+01	-1.69789e+02	-1.71884e+02	-1.87016e+02	-1.77077e+02	-6.21522e+01	-1.49516e+02	
Factor	1.55884e-05	1.50606e-04	4.28834e-05	2.77585e-01	1.30341e-06	1.75495e-06	1.60847e-01	4.74421e-02	1.05426e-06	1.60286e-06	8.23926e-02	2.73325e-02	3.04750e-02	8.53322e-03	1.33339e-06	1.20591e-02	1.05579e-05	1.86671e-05	5.21731e-06	1.46876e-01	1.94660e-07	2.09585e-07	8.03013e-02	2.53644e-02	1.85624e-07	2.07253e-07	4.25778e-02	1.42240e-02	1.63516e-02	4.59333e-03	1.96714e-07	6.29039e-03	X	X	X	X	X	X	X	X	X	X	X	X	X	X	X	X	



#DISTANCE SETTINGS
A = Detector Channel
A-1	A-2	A-3	A-4	A-5	A-6	A-7	A-8	A-9	A-10	A-11	A-12	A-13	A-14	A-15	A-16	

2.5000e+00	3.0000e+00	2.5000e+00	3.0000e+00	2.0000e+00	3.0000e+00	1.5000e+00	3.0000e+00	3.0000e+00	3.0000e+00	3.0000e+00	3.0000e+00	3.0000e+00	3.0000e+00	1.5000e+00	3.0000e+00	

B = Detector Channel
B-1	B-2	B-3	B-4	B-5	B-6	B-7	B-8	B-9	B-10	B-11	B-12	B-13	B-14	B-15	B-16	

1.0000e+01	1.0000e+01	1.0000e+01	1.4400e+00	1.0000e+01	1.0000e+01	1.5100e+00	1.9400e+00	1.0000e+01	1.0000e+01	1.9900e+00	2.4900e+00	2.4100e+00	2.9000e+00	1.0000e+01	2.9800e+00	




#DATA BEGINS
time	group	step	mark	flag	A-AC1	A-AC2	A-AC3	A-AC4	A-AC5	A-AC6	A-AC7	A-AC8	A-AC9	A-AC10	A-AC11	A-AC12	A-AC13	A-AC14	A-AC15	A-AC16	A-DC1	A-DC2	A-DC3	A-DC4	A-DC5	A-DC6	A-DC7	A-DC8	A-DC9	A-DC10	A-DC11	A-DC12	A-DC13	A-DC14	A-DC15	A-DC16	A-Ph1	A-Ph2	A-Ph3	A-Ph4	A-Ph5	A-Ph6	A-Ph7	A-Ph8	A-Ph9	A-Ph10	A-Ph11	A-Ph12	A-Ph13	A-Ph14	A-Ph15	A-Ph16	B-AC1	B-AC2	B-AC3	B-AC4	B-AC5	B-AC6	B-AC7	B-AC8	B-AC9	B-AC10	B-AC11	B-AC12	B-AC13	B-AC14	B-AC15	B-AC16	B-DC1	B-DC2	B-DC3	B-DC4	B-DC5	B-DC6	B-DC7	B-DC8	B-DC9	B-DC10	B-DC11	B-DC12	B-DC13	B-DC14	B-DC15	B-DC16	B-Ph1	B-Ph2	B-Ph3	B-Ph4	B-Ph5	B-Ph6	B-Ph7	B-Ph8	B-Ph9	B-Ph10	B-Ph11	B-Ph12	B-Ph13	B-Ph14	B-Ph15	B-Ph16	aux-1	digaux	

1002.593	1	1	0	256	0.1634	0.30056	0.22377	0.096961	0.10058	0.10757	0.28559	0.23359	0.049229	0.0072973	0.21427	0.091325	0.077819	0.29303	0.03056	0.21375	0.80417	-0.12292	0.65417	-0.1125	-0.43542	0.54167	-0.28333	0.085417	0.57292	-0.44375	0.38125	0.24792	-0.19792	0.51458	-0.11042	0.17917	131.938	106.619	166.874	-24.913	18.605	110.933	43.285	206.331	100.033	21.957	58.103	14.495	167.096	-5.996	18.757	195.791	0.00011863	0.00064738	2.1375e-05	939.25	5.1424e-06	1.2968e-05	645.84	222.22	4.3852e-06	9.7323e-06	176.69	56.832	73.201	27.355	6.7068e-06	23.613	0.0081835	0.01438	0.0039797	1019.4	0.00014907	0.00015911	689.14	237.44	0.00014132	0.00015858	204.52	67.221	84.613	30.455	0.00014773	27.79	179.241	114.481	287.388	-20.501	196.882	71.679	-21.630	-14.825	163.582	147.762	-17.876	-12.768	-10.131	-4.763	166.980	-8.478	-8191	255	
1002.690	1	1	0	0	0.080103	0.10939	0.13905	0.30509	0.19404	0.18578	0.37605	0.2263	0.069603	0.24764	0.18193	0.18713	0.26486	0.031973	0.30026	0.092424	0.79583	-0.19375	0.52708	-0.097917	-0.1625	0.35625	-0.24375	0.035417	0.49375	-0.28333	0.11667	0.19167	-0.48542	0.50625	-0.1	-0.13542	73.141	263.242	283.649	225.258	301.742	190.274	-17.870	221.081	317.823	120.468	-14.234	271.247	295.450	291.427	-17.674	30.643	0.00011966	0.00060834	0.00022119	952.07	4.6078e-06	1.5439e-05	659.84	228.25	3.3324e-06	7.2344e-06	182.3	58.936	74.269	27.257	2.7277e-06	23.601	0.0081047	0.014082	0.0039131	1033.2	0.00014851	0.00015738	702.53	242.1	0.00013989	0.00015618	208.73	68.699	85.611	30.419	0.00014754	27.879	117.880	315.362	85.321	-20.681	150.012	302.884	-21.177	-14.947	109.977	-22.163	-18.047	-13.175	-10.267	-4.732	68.052	-8.609	-8191	255	
1002.761	1	1	0	0	0.059936	0.18793	0.16309	0.13229	0.020838	0.26104	0.23823	0.20856	0.15818	0.26365	0.2816	0.10833	0.13092	0.13645	0.17147	0.22293	0.86667	-0.21875	0.095833	0.18333	-0.32708	0.35	-0.15208	-0.14167	0.51042	-0.25208	0.11667	0.56667	-0.35625	0.19375	0.058333	-0.2	210.738	202.455	217.749	200.507	288.974	297.992	165.841	-0.043	269.908	194.380	19.245	290.833	83.913	178.093	53.385	181.626	9.5711e-05	0.00053358	0.00032507	954.14	3.376e-06	1.6524e-05	676.02	228.72	5.1534e-06	9.7543e-06	185.06	58.32	73.528	27.081	5.7755e-06	23.612	0.008093	0.013862	0.0038961	1039.4	0.00014592	0.00015569	713.83	243.16	0.0001375	0.00015197	210.4	67.992	84.758	30.167	0.00014348	27.712	60.065	109.872	74.434	-20.506	37.958	128.022	-21.603	-14.981	91.418	75.875	-17.679	-12.781	-9.730	-4.435	10.331	-7.848	-8191	255	
1002.857	1	1	0	0	0.065857	0.31666	0.12734	0.32368	0.13683	0.24002	0.18963	0.26104	0.10431	0.15938	0.28481	0.17137	0.44764	0.081239	0.19056	0.23065	1.0042	-0.21875	0.225	0.36042	-0.33958	0.36042	0.13125	-0.1875	0.31042	-0.33125	0.070833	0.34375	-0.43125	0.23542	0.21667	-0.34167	49.708	160.666	232.847	45.133	109.557	-7.529	260.545	316.682	306.051	201.306	-25.172	158.109	-19.699	282.895	83.201	278.224	8.5531e-05	0.0012034	0.00017552	961.58	5.1524e-06	7.842e-06	669.16	229.5	1.4102e-06	9.7132e-06	186.03	57.469	73.92	27.146	6.1751e-06	22.993	0.0077859	0.013405	0.0037474	1034.4	0.00013946	0.00014981	708.44	243.09	0.000134	0.00014832	209.1	66.868	84.493	29.869	0.00014058	26.969	98.173	6.361	60.840	-20.260	37.021	171.135	-21.172	-14.859	-7.384	-26.665	-17.836	-12.565	-9.897	-4.266	116.233	-8.213	-8191	255	
1002.978	1	1	0	0	0.090919	0.14033	0.30982	0.12753	0.0024673	0.14896	0.095112	0.1047	0.25412	0.1459	0.10007	0.088307	0.37109	0.19304	0.31557	0.2032	0.79792	-0.1625	-0.022917	0.58958	-0.39583	0.37083	0.19167	-0.49167	0.55833	-0.020833	-0.18958	0.55417	-0.54375	0.0020833	0.39375	-0.36458	171.170	4.999	202.499	299.270	211.821	156.720	149.392	291.236	49.618	125.771	65.435	206.273	321.107	192.369	-22.320	268.645	0.00014144	0.00025263	0.00035497	956.55	8.4777e-06	4.2684e-06	667.71	231.8	2.5524e-06	4.8098e-06	186.43	58.699	74.218	27.428	1.2448e-05	23.362	0.0075153	0.013106	0.0036509	1030.7	0.0001356	0.00014467	702.96	243.74	0.0001274	0.00014192	208.51	66.913	84.247	30.071	0.00012878	27.199	128.107	59.364	28.537	-19.754	319.552	215.289	-21.410	-14.316	70.405	315.044	-17.473	-12.894	-9.801	-4.278	183.936	-7.631	-8191	255	
1003.074	1	1	0	0	0.060869	0.21785	0.12259	0.14335	0.18735	0.12002	0.070464	0.22181	0.13349	0.24488	0.24847	0.10011	0.032309	0.23847	0.2735	0.3848	0.74375	0.10208	-0.28958	0.48542	-0.1625	0.13333	0.31458	-0.39792	0.42917	0.054167	-0.21042	0.38958	-0.22292	0.075	0.30833	-0.25208	77.770	256.946	181.526	300.639	268.611	236.938	7.415	201.483	155.944	-23.184	246.768	295.883	159.152	326.199	89.123	263.125	7.4927e-05	0.000887	0.00023896	985.9	5.6416e-06	6.0584e-06	705.48	243.6	3.5212e-06	2.258e-06	199.88	62.24	79.09	29.055	7.6203e-06	25.164	0.006847	0.011946	0.0033087	1043.5	0.00012062	0.00012999	732.39	253.62	0.00011022	0.00012327	219.72	69.609	87.783	31.152	0.00011106	28.03	173.569	-4.838	59.459	-20.074	-29.782	96.017	-21.353	-14.628	32.456	68.351	-17.705	-12.593	-9.759	-4.303	312.305	-8.173	-8191	255	
1003.170	1	1	0	0	0.17754	0.049498	0.16223	0.2008	0.1687	0.082646	0.095082	0.17444	0.35444	0.12669	0.2105	0.15959	0.17014	0.075393	0.13253	0.19866	0.73542	0.14167	-0.28542	0.425	-0.089583	0.054167	0.42083	-0.40208	0.52292	0.43125	-0.15833	0.55625	-0.10208	-0.058333	0.55208	-0.29375	191.621	95.446	156.495	208.187	184.686	202.966	152.911	248.966	240.841	73.799	60.725	322.413	283.281	57.140	168.232	279.250	6.0831e-05	0.00063051	0.00042259	1016.2	8.647e-06	5.4941e-06	735.56	260.48	2.0974e-06	7.7502e-06	215.17	65.855	84.307	30.245	4.5598e-07	25.749	0.0058236	0.010282	0.0028263	1063.5	0.0001042	0.00011114	759.09	268.44	9.5501e-05	0.00010606	230.44	72.136	90.704	32.06	0.00010028	28.377	163.712	82.214	72.171	-20.370	180.945	48.000	-21.404	-14.527	293.586	308.063	-17.377	-12.706	-10.003	-4.656	-32.101	-8.532	-8191	255	
1003.267	1	1	0	0	0.09152	0.20742	0.029858	0.16338	0.11159	0.26567	0.010283	0.19555	0.062019	0.27906	0.13933	0.39988	0.085753	0.097688	0.037027	0.045448	0.65	0.275	-0.06875	0.33542	-0.29375	-0.066667	0.49167	-0.30208	0.275	0.32292	-0.39792	0.57708	-0.01875	-0.2	0.4	-0.27917	-28.201	255.991	24.042	291.954	34.179	3.596	295.136	303.773	248.929	310.664	216.319	287.933	306.516	132.835	-13.341	299.680	0.00017494	0.00027728	0.00015042	1033.8	2.1815e-06	4.2957e-06	752.94	268.19	4.4001e-06	1.0287e-05	215.93	66.21	83.694	30.138	6.0463e-06	25.759	0.0053994	0.0095075	0.0026191	1074.4	9.9238e-05	0.00010691	774.08	274.71	9.5805e-05	0.00010716	233.06	72.643	90.984	32.055	0.00010356	28.611	103.924	263.813	72.131	-20.058	105.179	324.548	-21.228	-14.642	303.479	161.267	-17.498	-12.369	-9.357	-4.292	128.906	-8.173	-8191	255	
1003.363	1	1	0	0	0.07907	0.32876	0.36479	0.18701	0.091334	0.20156	0.16906	0.38435	0.29181	0.16805	0.22495	0.1977	0.21595	0.22831	0.24748	0.2337	0.48125	0.46042	-0.4	0.17917	0.077083	-0.19167	0.35625	-0.10625	0.020833	0.41042	-0.39167	0.37708	0.20417	-0.20833	0.5	-0.24792	207.563	22.931	321.676	11.506	237.841	283.264	272.100	261.657	87.671	289.546	253.761	241.259	238.771	240.442	118.117	259.944	0.00010075	0.00012388	0.00021217	1036.2	7.0068e-06	7.7895e-06	756.74	268.44	8.4899e-07	8.497e-06	219.65	67.228	84.825	30.855	5.1775e-06	26.472	0.0055767	0.0097964	0.0027348	1081.6	0.00010213	0.0001112	773.41	275.28	9.8385e-05	0.00011015	235.8	73.495	92.185	32.657	0.00010528	29.3	200.531	298.886	280.753	-20.010	151.211	156.482	-21.122	-14.345	118.162	131.384	-17.381	-12.316	-9.528	-4.050	2.757	-7.731	-8191	255	
1003.459	1	1	0	0	0.065654	0.16571	0.12084	0.13396	0.20613	0.19299	0.23945	0.16221	0.27223	0.089689	0.12548	0.16473	0.072364	0.11244	0.29822	0.069599	0.44167	0.44375	-0.34167	0.24583	0.275	-0.29583	0.37708	-0.23958	-0.047917	0.53958	-0.25	0.066667	0.21667	-0.48958	0.60833	-0.079167	-5.763	46.776	59.102	40.927	-23.446	56.601	215.093	176.433	108.514	188.249	282.711	184.100	287.179	257.325	209.803	79.916	0.00017563	0.00031752	0.00013918	1044.2	6.7888e-07	8.0801e-06	765.04	270.9	5.0957e-06	5.4045e-06	223.27	68.034	85.78	31.094	5.6693e-06	26.831	0.0057577	0.010163	0.0028298	1090.9	0.00010638	0.0001136	784.92	278.78	0.00010086	0.00011089	238.63	74.786	93.435	32.982	0.0001028	29.532	165.224	104.504	104.525	-19.869	210.277	194.316	-20.913	-14.107	119.373	106.003	-17.120	-12.514	-9.455	-4.415	138.689	-7.673	-8191	255	
1003.555	1	1	0	0	0.3008	0.22039	0.23781	0.086995	0.29382	0.16595	0.023472	0.2507	0.1808	0.088429	0.26541	0.17488	0.084592	0.25662	0.13957	0.13584	0.27292	0.64583	-0.25625	-0.085417	0.39167	-0.50208	0.23958	0.12917	-0.28125	0.675	-0.3375	0.01875	0.46458	-0.45625	0.4375	0.05625	164.112	23.860	35.838	183.791	20.125	293.557	261.211	276.900	167.523	50.469	160.954	54.867	235.867	-5.011	-31.230	220.278	0.00017116	0.00081266	0.00019468	1046	3.1498e-06	1.3544e-05	766.74	276.97	1.0605e-05	8.0902e-06	225.7	69.576	88.234	31.871	1.0888e-05	26.891	0.0055785	0.0097018	0.0026681	1090.1	0.00010052	0.00010594	784.08	282.5	9.2212e-05	0.00010205	239.61	75.227	94.723	33.396	8.9444e-05	29.1	162.456	90.434	57.488	-19.579	10.653	-7.502	-20.891	-14.058	117.226	89.157	-17.328	-12.410	-9.276	-4.026	164.462	-7.868	-8191	255	
1003.674	1	1	0	0	0.22133	0.23576	0.14402	0.19213	0.23325	0.13983	0.22579	0.37523	0.24449	0.17616	0.13552	0.0896	0.22581	0.26405	0.20069	0.1924	0.25208	0.41875	-0.19375	-0.06875	0.57292	-0.40208	0.18958	0.083333	-0.42292	0.47292	-0.05	-0.175	0.48958	-0.29167	0.31458	0.23958	201.563	14.301	129.308	222.793	231.519	173.766	0.203	253.785	305.773	168.588	323.574	247.944	22.876	316.909	128.016	253.775	4.7887e-05	0.00093675	0.0001197	1048.2	2.3513e-06	4.0064e-06	744.88	282.03	3.4608e-06	9.1711e-06	226.47	70.189	93.452	33.36	4.444e-06	26.221	0.0047477	0.0081115	0.0022398	1072.6	8.1466e-05	8.5171e-05	757.1	285.71	7.2832e-05	7.8842e-05	234.91	74.248	97.663	34.511	7.0505e-05	27.9	321.248	19.724	288.209	-19.549	109.031	24.324	-21.696	-14.332	135.233	90.228	-16.967	-12.261	-8.683	-3.484	134.089	-7.438	-8191	255	
1003.770	1	1	0	0	0.10509	0.10899	0.17199	0.21396	0.26126	0.23892	0.15555	0.081831	0.086894	0.37065	0.15562	0.3645	0.1777	0.086542	0.22674	0.258	0.13125	0.49792	0.05625	-0.21042	0.63958	-0.24167	0.097917	0.29792	-0.2875	0.34583	-0.17708	-0.52083	0.39375	-0.39167	0.1625	0.39583	-6.781	290.252	70.967	106.978	77.991	8.377	162.831	321.372	215.231	7.990	145.058	3.385	305.520	324.640	195.709	240.913	0.000196	0.00041892	4.6659e-05	1033.5	5.2755e-06	1.0054e-05	731.8	287.3	1.2177e-06	1.1686e-05	225.5	70.367	93.154	33.675	2.202e-06	26.678	0.0038796	0.0066589	0.0018548	1050.8	6.9771e-05	7.3983e-05	739.13	288.08	6.714e-05	7.5248e-05	234.38	74.484	97.943	34.724	7.507e-05	28.602	146.825	324.235	297.554	-19.621	243.349	115.728	-20.599	-13.313	215.048	119.325	-16.600	-11.887	-8.582	-3.368	102.474	-7.471	-8191	255	
1003.866	1	1	0	0	0.3545	0.1812	0.23677	0.1953	0.25383	0.14577	0.10971	0.28066	0.15018	0.3848	0.17054	0.1102	0.034634	0.28365	0.22075	0.097105	0.0875	0.2375	-0.11458	-0.27292	0.57708	-0.33125	-0.275	0.36042	-0.44375	0.21458	0.19583	-0.30208	0.34375	-0.24167	-0.11875	0.32083	66.908	259.285	159.551	-28.228	323.471	151.347	230.747	265.621	123.049	133.771	295.010	99.335	280.317	285.490	269.992	6.458	0.00018922	0.00060723	0.00028539	1049.3	7.41e-06	7.6736e-06	761.63	301.77	4.8503e-06	1.0387e-05	238.49	74.955	97.126	34.298	5.1187e-06	27.397	0.0041415	0.0073185	0.0020874	1076.6	7.885e-05	8.5833e-05	773.59	305.14	7.8613e-05	8.6919e-05	249.44	79.467	102.6	35.576	8.5184e-05	29.563	136.392	-5.539	49.310	-18.842	141.899	143.223	-20.364	-13.767	186.961	62.565	-16.337	-11.743	-10.547	-5.013	225.406	-9.103	-8191	255	
1003.962	1	1	0	0	0.065711	0.14891	0.14485	0.18807	0.15556	0.32354	0.25577	0.13814	0.14373	0.2739	0.13564	0.23374	0.14799	0.35124	0.10831	0.1639	0.14792	0.35	0.20625	-0.44792	0.33125	-0.17708	-0.11458	0.40417	-0.50625	0.36458	0.30417	-0.35417	0.37917	-0.30208	-0.21458	0.42708	107.823	96.881	233.696	319.940	235.832	221.619	188.753	42.915	281.253	187.204	313.915	119.878	326.506	257.816	267.230	213.702	0.0001068	0.00071139	0.00015817	1070.3	2.2578e-06	3.8137e-06	780.15	301.85	3.1376e-06	9.6828e-06	238.27	74.404	96.006	33.379	5.2414e-06	27.634	0.0046583	0.0080834	0.0023036	1100.7	8.704e-05	9.4253e-05	793.23	306.79	8.6372e-05	9.7797e-05	251.61	80.152	102.68	35.227	9.7977e-05	30.164	147.683	118.109	260.614	-20.530	154.156	180.761	-21.718	-15.302	43.519	124.080	-18.169	-13.782	-10.708	-5.470	107.363	-8.749	-8191	255	
1004.058	1	1	0	0	0.067887	0.069169	0.094974	0.063155	0.23215	0.18224	0.30674	0.14891	0.21593	0.15237	0.20749	0.056026	0.10558	0.13789	0.11714	0.1632	0.20625	0.22292	0.46042	-0.425	0.42083	-0.05625	-0.49167	0.33958	-0.21875	0.020833	0.35417	-0.54583	0.39583	0.16042	-0.0625	0.46667	59.034	73.998	219.734	283.266	193.499	238.808	250.040	267.378	151.568	57.044	301.060	221.935	106.348	76.716	235.612	1.585	7.9032e-05	0.0012168	0.00020513	1073.8	8.7344e-06	7.277e-06	776.03	293.71	3.9799e-06	1.4145e-05	230.47	72.173	92.607	32.004	3.316e-06	26.39	0.0053304	0.0094555	0.0026944	1112.6	0.00010031	0.00010857	796.94	301.06	9.7348e-05	0.00010801	246.23	78.184	99.519	34.101	0.00010113	29.086	97.583	299.401	11.573	-20.725	77.548	95.532	-21.745	-15.237	97.842	65.770	-18.031	-13.898	-10.551	-5.129	-22.739	-9.051	-8191	255	
1004.155	1	1	0	0	0.093686	0.042062	0.25247	0.17627	0.094275	0.2034	0.16999	0.28187	0.2418	0.099871	0.18167	0.13756	0.20244	0.13096	0.05459	0.15215	0.225	0.08125	0.5375	-0.2375	0.45208	0.175	-0.41875	0.34792	-0.21875	0.15208	0.70833	-0.37708	0.016667	0.085417	-0.47917	0.45208	233.657	18.286	203.380	283.375	149.257	170.079	262.514	246.903	189.411	105.831	96.752	170.956	13.988	307.726	261.659	204.738	9.9471e-05	0.00042429	0.00016798	1021	3.0549e-06	5.3942e-06	712.19	260.65	1.7201e-06	6.0768e-06	203.67	64.378	83.372	30.642	1.0633e-05	24.955	0.0055048	0.0095806	0.0026775	1063.7	9.7992e-05	0.00010623	732.51	267.49	9.1457e-05	0.00010157	217.68	70.354	90.004	32.247	8.947e-05	27.273	181.132	176.991	116.244	-20.304	237.581	33.085	-21.674	-14.996	125.945	-7.030	-17.884	-13.416	-10.066	-4.710	67.351	-8.834	-8191	255	
1004.275	1	1	0	0	0.067758	0.16774	0.16085	0.17957	0.16849	0.2485	0.21025	0.13056	0.19208	0.24652	0.36136	0.20617	0.32835	0.28468	0.2302	0.20145	0.14375	-0.27083	0.55833	-0.30417	0.26875	0.475	-0.38542	0.52917	-0.10833	-0.34792	0.47292	-0.10833	0.18958	0.24167	-0.26667	0.46875	8.925	14.176	39.740	144.330	173.117	231.421	301.316	290.535	202.189	67.287	-22.333	165.386	63.045	318.248	195.951	278.152	0.00011551	0.00010577	0.00021183	1015.8	7.0818e-06	2.7517e-06	748.4	247.31	3.9217e-06	8.7068e-06	198.72	63.019	84.626	32.229	3.2195e-06	24.991	0.0047028	0.0080868	0.002214	1046.8	8.1641e-05	8.723e-05	756.51	252.43	7.3567e-05	7.9874e-05	209.08	67.471	89.65	33.493	7.1641e-05	26.777	170.720	188.463	43.694	-20.805	216.593	246.007	-21.886	-15.205	254.190	140.588	-18.409	-13.380	-9.922	-4.900	84.619	-9.234	-8191	255	
