BOXY.EXE: ISS Imagent and Oximeter Data Acquisition Program Version 0.80
Ascii Record File

#ACQ INFORMATION
2  Detector Channels 
16  External MUX Channels 
1  Auxiliary Channels 
5000  Waveform (CCF) Frequency (Hz)
1  Waveforms Skipped 
30  Waveforms Averaged 
1  Cycles Averaged 
16  Acquisitions per Waveform 
10.0806  Updata Rate (Hz) 

#FILE INFORMATION
TRUE -- External MUX Channel results are PARSED.
FALSE -- AC DC and Phase are NOT grouped.
TRUE -- Companion Program Settings File CREATED.
FALSE -- AC data not excluded
FALSE -- DC data not excluded
FALSE -- Phase data not excluded
FALSE -- Auxillary Chn. data not excluded
Tab delimiters

#CALIBRATION STATE
TRUE -- Waveform Calibration Values APPLIED.


#AUX CALIBRATION VALUES
Val Type	aux-1	

Term	1.0000e+00	
Factor	0.0000e+00	


#WF CALIBRATION VALUES
A = Detector Channel
Val Type	A-AC1	A-AC2	A-AC3	A-AC4	A-AC5	A-AC6	A-AC7	A-AC8	A-AC9	A-AC10	A-AC11	A-AC12	A-AC13	A-AC14	A-AC15	A-AC16	A-DC1	A-DC2	A-DC3	A-DC4	A-DC5	A-DC6	A-DC7	A-DC8	A-DC9	A-DC10	A-DC11	A-DC12	A-DC13	A-DC14	A-DC15	A-DC16	A-Ph1	A-Ph2	A-Ph3	A-Ph4	A-Ph5	A-Ph6	A-Ph7	A-Ph8	A-Ph9	A-Ph10	A-Ph11	A-Ph12	A-Ph13	A-Ph14	A-Ph15	A-Ph16	

Term	0.00000e+00	0.00000e+00	0.00000e+00	0.00000e+00	0.00000e+00	0.00000e+00	0.00000e+00	0.00000e+00	0.00000e+00	0.00000e+00	0.00000e+00	0.00000e+00	0.00000e+00	0.00000e+00	0.00000e+00	0.00000e+00	0.00000e+00	0.00000e+00	0.00000e+00	0.00000e+00	0.00000e+00	0.00000e+00	0.00000e+00	0.00000e+00	0.00000e+00	0.00000e+00	0.00000e+00	0.00000e+00	0.00000e+00	0.00000e+00	0.00000e+00	0.00000e+00	0.00000e+00	0.00000e+00	0.00000e+00	0.00000e+00	0.00000e+00	0.00000e+00	0.00000e+00	0.00000e+00	0.00000e+00	0.00000e+00	0.00000e+00	0.00000e+00	0.00000e+00	0.00000e+00	0.00000e+00	0.00000e+00	
Factor	1.00000e+00	1.00000e+00	1.00000e+00	1.00000e+00	1.00000e+00	1.00000e+00	1.00000e+00	1.00000e+00	1.00000e+00	1.00000e+00	1.00000e+00	1.00000e+00	1.00000e+00	1.00000e+00	1.00000e+00	1.00000e+00	1.00000e+00	1.00000e+00	1.00000e+00	1.00000e+00	1.00000e+00	1.00000e+00	1.00000e+00	1.00000e+00	1.00000e+00	1.00000e+00	1.00000e+00	1.00000e+00	1.00000e+00	1.00000e+00	1.00000e+00	1.00000e+00	X	X	X	X	X	X	X	X	X	X	X	X	X	X	X	X	

B = Detector Channel
Val Type	B-AC1	B-AC2	B-AC3	B-AC4	B-AC5	B-AC6	B-AC7	B-AC8	B-AC9	B-AC10	B-AC11	B-AC12	B-AC13	B-AC14	B-AC15	B-AC16	B-DC1	B-DC2	B-DC3	B-DC4	B-DC5	B-DC6	B-DC7	B-DC8	B-DC9	B-DC10	B-DC11	B-DC12	B-DC13	B-DC14	B-DC15	B-DC16	B-Ph1	B-Ph2	B-Ph3	B-Ph4	B-Ph5	B-Ph6	B-Ph7	B-Ph8	B-Ph9	B-Ph10	B-Ph11	B-Ph12	B-Ph13	B-Ph14	B-Ph15	B-Ph16	

Term	0.00000e+00	0.00000e+00	0.00000e+00	0.00000e+00	0.00000e+00	0.00000e+00	0.00000e+00	0.00000e+00	0.00000e+00	0.00000e+00	0.00000e+00	0.00000e+00	0.00000e+00	0.00000e+00	0.00000e+00	0.00000e+00	0.00000e+00	0.00000e+00	0.00000e+00	0.00000e+00	0.00000e+00	0.00000e+00	0.00000e+00	0.00000e+00	0.00000e+00	0.00000e+00	0.00000e+00	0.00000e+00	0.00000e+00	0.00000e+00	0.00000e+00	0.00000e+00	-2.28318e+02	-1.28261e+02	-1.22557e+02	-1.79784e+02	-6.98370e+01	-5.69121e+01	-1.58204e+02	-1.62015e+02	-8.96925e+01	-7.94603e+01	-1.70039e+02	-1.72048e+02	-1.82281e+02	-1.76085e+02	-7.57894e+01	-1.48903e+02	
Factor	4.44743e-05	1.16669e-04	3.11420e-05	1.50107e-01	1.44705e-06	1.30124e-06	1.55391e-01	5.73555e-02	1.61794e-06	1.31520e-06	7.33951e-02	2.70137e-02	2.41607e-02	7.75268e-03	1.42893e-06	1.11630e-02	1.56745e-06	1.64600e-06	4.64896e-07	7.58927e-02	1.78137e-08	1.80026e-08	7.42071e-02	2.88859e-02	1.77144e-08	1.80151e-08	3.60562e-02	1.31780e-02	1.21309e-02	3.93631e-03	1.80715e-08	5.48598e-03	X	X	X	X	X	X	X	X	X	X	X	X	X	X	X	X	



#DISTANCE SETTINGS
A = Detector Channel
A-1	A-2	A-3	A-4	A-5	A-6	A-7	A-8	A-9	A-10	A-11	A-12	A-13	A-14	A-15	A-16	

2.5000e+00	3.0000e+00	2.5000e+00	3.0000e+00	2.0000e+00	3.0000e+00	1.5000e+00	3.0000e+00	3.0000e+00	3.0000e+00	3.0000e+00	3.0000e+00	3.0000e+00	3.0000e+00	1.5000e+00	3.0000e+00	

B = Detector Channel
B-1	B-2	B-3	B-4	B-5	B-6	B-7	B-8	B-9	B-10	B-11	B-12	B-13	B-14	B-15	B-16	

1.0000e+01	1.0000e+01	1.0000e+01	1.4400e+00	1.0000e+01	1.0000e+01	1.5100e+00	1.9400e+00	1.0000e+01	1.0000e+01	1.9900e+00	2.4900e+00	2.4100e+00	2.9000e+00	1.0000e+01	2.9800e+00	




#DATA BEGINS
time	group	step	mark	flag	A-AC1	A-AC2	A-AC3	A-AC4	A-AC5	A-AC6	A-AC7	A-AC8	A-AC9	A-AC10	A-AC11	A-AC12	A-AC13	A-AC14	A-AC15	A-AC16	A-DC1	A-DC2	A-DC3	A-DC4	A-DC5	A-DC6	A-DC7	A-DC8	A-DC9	A-DC10	A-DC11	A-DC12	A-DC13	A-DC14	A-DC15	A-DC16	A-Ph1	A-Ph2	A-Ph3	A-Ph4	A-Ph5	A-Ph6	A-Ph7	A-Ph8	A-Ph9	A-Ph10	A-Ph11	A-Ph12	A-Ph13	A-Ph14	A-Ph15	A-Ph16	B-AC1	B-AC2	B-AC3	B-AC4	B-AC5	B-AC6	B-AC7	B-AC8	B-AC9	B-AC10	B-AC11	B-AC12	B-AC13	B-AC14	B-AC15	B-AC16	B-DC1	B-DC2	B-DC3	B-DC4	B-DC5	B-DC6	B-DC7	B-DC8	B-DC9	B-DC10	B-DC11	B-DC12	B-DC13	B-DC14	B-DC15	B-DC16	B-Ph1	B-Ph2	B-Ph3	B-Ph4	B-Ph5	B-Ph6	B-Ph7	B-Ph8	B-Ph9	B-Ph10	B-Ph11	B-Ph12	B-Ph13	B-Ph14	B-Ph15	B-Ph16	aux-1	digaux	

7260.874	1	1	0	512	0.19351	0.049206	0.30815	0.076556	0.13669	0.17766	0.18525	0.12341	0.13871	0.041886	0.22284	0.17446	0.41804	0.17273	0.13884	0.1878	-3.0625	-2.7938	-3.3083	-3.3208	-2.9104	-3.2375	-3.1458	-3.0958	-3.5021	-2.7417	-3.5208	-3.3458	-3.0563	-3.5021	-3.0917	-3.3021	77.451	316.079	212.226	330.375	180.966	308.055	303.224	203.779	240.616	285.873	296.729	346.477	369.408	323.638	346.357	324.093	0.0012345	0.0014195	0.00065396	666.33	1.3367e-05	2.3918e-05	853.56	215.81	2.0214e-05	6.4456e-06	354.97	171.72	90.773	42.878	6.183e-06	96.277	0.0060256	0.0060454	0.0019951	976.99	6.7313e-05	6.5854e-05	1163.9	330.64	6.5145e-05	6.5793e-05	504.41	221.92	133.44	57.129	7.7274e-05	116.95	34.977	77.988	115.302	25.405	154.057	192.152	26.472	30.091	25.105	167.865	30.643	34.002	34.300	38.470	218.241	37.448	-8191	255	
7260.995	1	1	0	0	0.062605	0.26271	0.1082	0.15626	0.13466	0.12683	0.41298	0.13366	0.21174	0.060361	0.31611	0.13047	0.17467	0.29909	0.15853	0.3571	-2.9104	-2.8771	-3.3438	-3.2729	-2.9292	-3.25	-3.325	-3.3021	-3.2875	-2.8646	-3.3417	-3.325	-2.9562	-3.2812	-3.1354	-3.1708	289.360	105.294	65.956	320.721	31.168	161.819	359.572	202.872	53.332	167.886	316.360	311.807	100.771	326.447	333.031	285.845	0.0012956	0.0028698	0.00062279	662.53	8.768e-06	2.8678e-05	847.92	213.26	7.2041e-06	4.6157e-05	353.68	171.04	90.279	42.629	9.5575e-07	95.616	0.0057163	0.0061673	0.0019888	947.68	6.4272e-05	6.7865e-05	1160	321.7	6.3124e-05	6.9336e-05	502.19	218.41	131.74	58.011	7.77e-05	115.8	32.793	178.513	96.032	25.560	334.770	218.714	26.206	30.197	43.262	215.623	30.270	33.975	33.953	38.423	301.337	37.438	-8191	255	
7261.091	1	1	0	0	0.11785	0.13221	0.19305	0.28453	0.12377	0.15155	0.25364	0.18532	0.26914	0.25114	0.14733	0.16157	0.0067955	0.090934	0.083421	0.099406	-3.0229	-3.0417	-3.1146	-3.1292	-3.0375	-3.2292	-3.2104	-3.1688	-3.4792	-3.0625	-3.1396	-3.375	-3.1437	-3.4125	-3.175	-3.1896	72.537	49.565	352.315	23.258	319.321	115.516	46.481	267.415	371.763	138.744	174.046	329.691	126.470	39.231	280.172	334.641	0.0016127	0.0028601	0.00045682	662.6	1.1718e-05	2.1236e-05	844.76	213.42	1.2649e-05	4.9988e-05	351.01	169.88	90.874	43.077	1.7454e-05	95.11	0.0057122	0.0067331	0.0020141	948.16	6.5488e-05	7.5609e-05	1159.2	321.81	6.506e-05	7.736e-05	502.33	218.8	133.76	59.859	7.7768e-05	116.11	27.751	176.660	344.143	25.822	345.640	222.765	25.936	30.442	205.191	192.573	29.967	33.890	34.041	38.303	77.435	37.470	-8191	255	
7261.187	1	1	0	0	0.08495	0.18442	0.22609	0.079525	0.14199	0.050661	0.11486	0.34045	0.25723	0.16003	0.075593	0.24342	0.28372	0.16827	0.02523	0.20343	-2.8063	-2.8417	-3.2792	-3.3833	-2.9354	-3.1896	-3.4208	-2.9979	-3.3479	-3.1208	-3.0458	-3.5896	-3.1021	-3.3417	-3.1417	-3.1063	77.353	251.277	334.133	48.952	76.987	307.635	236.640	310.712	235.356	246.173	218.280	354.259	290.915	19.246	172.760	282.921	0.001928	0.0024651	0.00052516	658.57	3.2883e-05	1.4959e-05	847.34	213.99	4.4172e-05	7.7128e-06	350.34	169.96	90.555	42.883	4.7434e-05	96.318	0.0060139	0.0074126	0.0020031	950.29	6.8737e-05	8.1649e-05	1152.6	321.65	6.7987e-05	8.1075e-05	494.16	217.63	134.96	60.012	7.226e-05	115.39	45.556	128.997	311.619	25.773	223.624	199.540	25.825	30.693	166.995	253.563	29.725	34.135	34.602	38.554	49.981	37.409	-8191	255	
7261.283	1	1	0	0	0.22966	0.11205	0.097705	0.15662	0.11256	0.16677	0.24158	0.22382	0.087408	0.069239	0.29261	0.15319	0.097062	0.13958	0.12444	0.071743	-3.0875	-2.9229	-2.9271	-3.5292	-2.8187	-3.3896	-3.2729	-3.1562	-3.3063	-3.0958	-3.2938	-3.3583	-3.2458	-3.2021	-3.1896	-3.0042	282.964	19.077	305.590	348.346	261.608	245.859	328.976	319.036	225.632	337.463	304.793	202.688	369.812	325.092	57.907	356.916	0.0029073	0.00093772	0.00063269	657.38	3.9504e-05	1.9491e-05	850.52	214.42	4.3407e-05	3.2901e-06	354.24	172.15	91.183	43.342	1.1966e-05	96.467	0.0061147	0.0072976	0.0018547	932.12	7.1474e-05	8.084e-05	1136.4	320.08	7.3001e-05	8.1259e-05	494.37	218.58	140.36	60.532	7.1115e-05	115.97	47.309	41.694	348.709	25.933	199.403	86.529	25.860	30.782	169.637	26.195	29.962	34.153	34.699	37.993	224.729	37.604	-8191	255	
7261.404	1	1	0	0	0.1347	0.11645	0.065611	0.23899	0.11207	0.090123	0.23624	0.208	0.1911	0.18012	0.2366	0.14002	0.27026	0.038029	0.16243	0.22914	-2.7062	-3.0583	-2.8833	-3.3854	-2.9313	-3.0896	-3.5292	-2.7333	-3.4208	-3.1479	-3.0521	-3.3812	-2.8583	-3.1312	-3.2271	-2.9062	93.567	284.036	232.977	148.057	199.444	216.502	288.833	68.171	24.546	78.005	30.218	267.646	365.948	322.324	48.463	321.340	0.0032156	0.0017881	0.00045368	666.15	2.5253e-05	2.6479e-05	846.49	215.65	4.3652e-05	3.1132e-05	352.59	172.16	91.807	43.375	4.1804e-06	96.195	0.0066535	0.0072151	0.0018243	936.24	7.6593e-05	7.8457e-05	1130.5	320.91	7.7309e-05	7.7818e-05	490.49	219.3	143.38	59.61	6.9225e-05	115.85	40.293	336.923	315.678	26.068	209.142	58.639	25.828	30.520	200.891	66.691	30.170	34.049	34.171	37.790	325.302	37.569	-8191	255	
7261.476	1	1	0	0	0.13088	0.15985	0.25955	0.1766	0.14009	0.21839	0.14834	0.32448	0.087493	0.18885	0.20881	0.23255	0.25464	0.11692	0.10742	0.27255	-2.7458	-3.2021	-2.7479	-3.525	-3.1104	-3.2417	-3.2354	-2.7687	-3.3875	-3.2542	-3.0167	-3.5292	-3.1125	-3.2625	-3.4208	-3.0438	104.644	109.477	304.979	311.772	122.691	275.796	281.017	316.252	246.749	348.408	29.761	257.634	343.981	287.593	308.363	329.301	0.0023319	0.0027155	0.00030405	661.52	1.8206e-05	2.4062e-05	851.81	216.51	2.4614e-05	1.576e-05	355.28	172.82	92.55	43.514	3.689e-06	97.102	0.0069337	0.0068168	0.0017551	940.17	7.8747e-05	7.3545e-05	1117.7	323.69	7.883e-05	7.3102e-05	485.97	221.5	144.48	58.999	6.7057e-05	117.99	44.103	44.099	356.038	26.269	168.408	60.201	26.011	31.062	175.359	54.741	30.284	34.386	34.154	37.953	238.532	37.641	-8191	255	
7261.572	1	1	0	0	0.24987	0.13609	0.15371	0.074903	0.18196	0.13089	0.046039	0.21757	0.192	0.10696	0.13458	0.1515	0.15563	0.038696	0.24977	0.29121	-2.8521	-3.1958	-3	-3.3729	-3.0271	-3.1042	-3.2542	-2.9833	-3.1521	-3.4062	-2.9354	-3.425	-3.3625	-3.1688	-3.3833	-3.15	210.844	30.915	61.750	72.326	84.971	86.678	140.255	44.341	285.172	24.784	306.946	352.315	372.734	236.354	136.811	348.258	0.001205	0.0012704	0.00032615	666.32	1.6682e-05	1.7618e-05	848.42	217.01	2.4809e-05	9.0149e-06	356.21	173.86	93.041	44.105	2.5256e-05	98.004	0.0069513	0.0064661	0.0017102	955.82	7.771e-05	6.9969e-05	1109.5	331	7.6894e-05	7.0115e-05	484.2	226.88	144.16	59.154	6.6808e-05	120.96	15.950	352.229	244.160	26.004	89.806	114.462	25.944	31.279	19.734	28.901	30.107	34.433	34.070	38.136	185.994	37.671	-8191	255	
7261.668	1	1	0	131072	0.051777	0.15028	0.13386	0.26487	0.21988	0.07173	0.24158	0.26333	0.17858	0.064346	0.36411	0.049577	0.064298	0.26535	0.073146	0.14809	-2.6562	-3.3125	-2.8	-3.3563	-3.2146	-2.8479	-3.525	-3.1167	-3.2104	-3.2292	-3.0646	-3.45	-3.2833	-3.1667	-3.3854	-3.0187	104.284	329.852	65.289	207.532	153.854	271.541	327.373	40.521	143.834	52.808	273.506	31.712	89.005	321.680	25.003	313.950	0.00098242	0.0013719	0.00019187	670.7	9.746e-06	1.3621e-05	850.31	220.15	3.9558e-05	1.0357e-05	359.85	175.45	93.205	44.216	2.8825e-05	98.48	0.0068616	0.0064408	0.001738	991.21	7.7161e-05	7.07e-05	1123.8	344.31	7.6059e-05	7.023e-05	492.34	232.13	143.39	59.081	6.8962e-05	122.36	68.351	327.717	136.580	26.095	183.098	41.024	26.374	31.058	348.542	49.547	30.152	34.024	33.804	37.811	241.222	37.537	-8191	255	
7261.787	1	1	0	131072	0.026678	0.13689	0.18215	0.048	0.086165	0.30071	0.35608	0.24621	0.06286	0.045332	0.15604	0.25528	0.28184	0.2776	0.10598	0.2281	-2.5187	-3.1792	-2.8021	-3.1937	-3.2271	-2.85	-3.3792	-3.0604	-3.0438	-3.2438	-3.0708	-3.3354	-3.1583	-3.1104	-3.1875	-3.3563	102.124	89.373	282.289	355.847	292.393	126.644	283.935	102.075	224.620	277.218	334.531	289.801	341.581	359.612	221.902	352.175	0.00056248	0.0023753	0.00064481	671.75	1.2035e-05	6.9801e-06	856.26	220.25	2.3196e-05	1.533e-05	359.86	176.06	93.402	44.429	6.1916e-05	98.922	0.0065347	0.0062715	0.0017889	1001.6	7.2745e-05	6.8066e-05	1134.5	346.73	7.1763e-05	6.7992e-05	500.04	233.44	141.04	58.816	7.2819e-05	122.45	57.199	294.927	138.711	25.917	114.698	246.791	26.187	30.239	333.411	34.101	30.241	33.955	33.657	38.020	211.408	37.335	-8191	255	
7261.883	1	1	0	131072	0.069713	0.17082	0.070535	0.15822	0.1685	0.090852	0.11043	0.15568	0.19654	0.21617	0.42076	0.073874	0.21046	0.2025	0.10404	0.19943	-2.375	-3.25	-2.9938	-3.4667	-3.2229	-3.0917	-3.3021	-3.3583	-2.9729	-3.3417	-2.9833	-3.3458	-3.2292	-3.0042	-3.4458	-3.3021	55.742	100.021	241.441	352.179	365.321	178.781	29.843	307.605	149.180	302.055	347.292	353.594	14.696	308.273	262.253	54.650	0.0012721	0.00088879	0.0010888	663.59	1.9706e-05	1.157e-05	855.36	219.58	1.8373e-05	2.166e-05	361.02	176.63	94.238	44.788	3.9927e-05	99.493	0.0062393	0.00608	0.0019059	991.04	6.9577e-05	6.6179e-05	1151.4	342.47	6.8974e-05	6.628e-05	507.86	231.7	139.52	58.984	7.7146e-05	122.13	39.250	136.016	149.837	25.797	90.245	112.959	26.433	30.286	115.803	123.127	30.799	33.707	33.836	38.177	201.122	37.427	-8191	255	
7261.979	1	1	0	131072	0.17574	0.11434	0.18903	0.059686	0.11051	0.23151	0.11953	0.05056	0.18947	0.24049	0.10932	0.33161	0.35518	0.17489	0.04904	0.13314	-2.5708	-3.1271	-2.9729	-3.4	-3.1021	-2.8521	-3.4021	-3.2833	-3.0563	-3.3375	-3.0833	-3.0667	-3.2667	-2.9271	-3.3438	-3.3292	308.101	37.192	292.380	21.515	40.983	197.851	298.209	26.009	331.198	28.343	180.386	368.849	366.636	303.926	283.030	304.612	0.0016681	0.00060403	0.00082299	662.18	3.2835e-05	1.7058e-05	851.86	221.34	1.6477e-05	2.7232e-05	365.73	178.92	95.804	45.51	2.2916e-05	100.12	0.0061157	0.0060996	0.0020337	980.51	6.918e-05	6.85e-05	1181.3	341.99	6.9767e-05	7.0036e-05	527.11	233.56	142.42	60.996	8.4712e-05	123.1	34.504	364.975	157.861	25.924	76.849	154.400	26.355	30.303	98.303	173.542	30.309	34.056	34.107	38.305	225.930	37.188	-8191	255	
7262.075	1	1	0	131072	0.26769	0.15665	0.064831	0.36477	0.1494	0.27963	0.18976	0.035832	0.15024	0.093713	0.19835	0.47192	0.077379	0.20057	0.1843	0.096864	-2.7208	-3.225	-2.8875	-2.9917	-2.9396	-2.9875	-3.3604	-3.0479	-3.0146	-3.2042	-3.1771	-3.1646	-3.1854	-3	-3.2917	-3.2771	143.339	311.914	188.983	354.969	74.536	17.547	361.439	353.510	140.474	12.930	338.815	296.672	314.742	295.485	175.800	38.716	0.0016554	0.0028072	0.0001671	668.02	7.5748e-06	4.0932e-05	850.49	223.51	2.5826e-05	3.0197e-05	364.8	178.82	95.849	45.74	1.3239e-05	100.14	0.0062878	0.0066959	0.0022049	983.27	7.0598e-05	7.5181e-05	1199.7	341.59	7.0735e-05	7.6904e-05	532.52	233.06	142.42	62.606	8.5957e-05	122.85	37.339	121.436	229.519	25.537	154.479	229.719	26.183	30.625	43.071	172.457	29.950	33.864	34.046	38.058	62.281	37.278	-8191	255	
7262.171	1	1	0	131072	0.11275	0.20758	0.035692	0.29218	0.16567	0.19913	0.095248	0.13012	0.12067	0.37841	0.2396	0.13617	0.3219	0.1562	0.29313	0.25803	-2.4771	-3.1437	-3.0062	-3.1479	-3.2271	-2.8333	-3.2062	-3.4854	-2.7417	-3.3458	-3.2396	-3.0458	-3.3167	-3.1083	-3.1688	-3.4896	174.209	55.659	66.032	341.241	280.830	76.618	339.206	288.699	99.884	326.748	324.061	152.051	340.251	71.033	289.624	324.302	0.0014732	0.004125	0.00033411	673.58	7.7823e-06	4.7799e-05	854.03	222.52	1.1366e-05	4.1931e-05	365.79	179.3	96.305	45.818	3.4843e-05	99.954	0.0063131	0.007351	0.0022244	986.78	7.1344e-05	8.2733e-05	1202.8	342.03	7.116e-05	8.375e-05	529.57	232.62	142.97	64.092	8.2972e-05	122.41	55.028	139.578	323.092	25.941	312.636	218.483	25.999	30.566	273.442	204.215	30.188	33.840	33.810	37.931	21.603	37.110	-8191	255	
7262.267	1	1	0	131072	0.1539	0.026301	0.11063	0.32034	0.15209	0.16122	0.29792	0.18669	0.16558	0.05468	0.056504	0.38646	0.35659	0.17693	0.077828	0.068344	-2.5833	-3.2271	-3.0583	-3.0917	-3.3833	-2.8479	-3.1833	-3.4083	-2.9396	-3.1813	-3.1333	-3.1479	-3.4458	-3.0687	-3.0396	-3.6146	166.635	351.233	177.367	323.589	111.527	262.653	270.554	241.171	20.697	284.500	136.812	15.203	368.290	32.649	258.052	124.344	0.0018774	0.0029812	0.00034166	669.34	3.8345e-05	1.0023e-05	857.34	223.04	3.279e-05	5.06e-06	364.91	179.5	98.012	46.222	1.658e-05	101.11	0.0063644	0.0077952	0.0021352	978.47	7.2673e-05	8.7083e-05	1185.9	339.76	7.3103e-05	8.742e-05	524.01	232.79	146.44	65.232	7.9499e-05	122.57	50.102	115.526	354.245	25.621	209.660	197.687	25.763	30.379	200.700	237.204	30.189	34.010	34.225	37.934	90.022	37.180	-8191	255	
7262.388	1	1	0	131072	0.11836	0.19415	0.13487	0.14335	0.13242	0.050076	0.35398	0.26368	0.13716	0.061332	0.17574	0.082331	0.14393	0.18189	0.1076	0.117	-2.2333	-3.0417	-3.2146	-2.9271	-3.1646	-3.2833	-3.0687	-3.2438	-2.8792	-3.3604	-3.2438	-3.1354	-3.3563	-3.2104	-2.8917	-3.3708	329.870	199.980	166.153	363.565	335.045	272.167	299.286	367.270	291.066	365.135	287.355	324.930	213.090	318.818	36.486	341.197	0.0033695	0.0010312	0.00070469	670.78	4.2668e-05	1.7983e-05	855.48	223.38	3.0418e-05	3.4186e-06	366.83	181.07	97.864	46.185	6.4058e-06	100.94	0.0066922	0.0079452	0.0020113	966.07	7.5093e-05	8.5461e-05	1160	333.28	7.537e-05	8.407e-05	511.72	230.25	148.03	64.388	7.4955e-05	121.55	40.869	146.399	57.987	25.653	246.605	75.375	26.099	30.344	180.490	143.867	29.924	34.061	34.428	37.799	191.997	37.198	-8191	255	
7262.484	1	1	0	131072	0.1381	0.3226	0.25703	0.12028	0.44282	0.19581	0.30378	0.14967	0.13748	0.23998	0.10135	0.25713	0.22805	0.29268	0.068713	0.46975	-2.4208	-3.1542	-2.9979	-2.9708	-3.1	-3.0729	-3.0521	-3.2604	-3.0792	-3.2167	-3.1771	-3.0417	-3.425	-3.1146	-2.9188	-3.55	345.279	154.943	89.173	282.458	40.301	176.779	45.764	328.722	262.210	188.302	223.412	371.491	294.353	328.404	167.765	305.165	0.0032012	0.0016837	0.00018738	664.18	4.1497e-05	1.0018e-05	851.71	223.07	1.8795e-05	3.1611e-05	364.09	180.67	96.684	45.775	2.4018e-05	100.52	0.0069778	0.0075889	0.0019114	952.14	7.8855e-05	8.0845e-05	1141.3	328.39	7.8204e-05	7.8732e-05	500.54	227.65	148.36	62.593	6.9969e-05	120.59	50.265	315.724	68.677	25.663	185.674	58.820	26.017	30.851	142.403	25.868	30.083	34.181	34.224	37.974	26.291	37.414	-8191	255	
7262.580	1	1	0	131072	0.038942	0.094714	0.38838	0.23841	0.13423	0.16481	0.10656	0.045459	0.33391	0.069399	0.12817	0.093332	0.25843	0.043316	0.1624	0.27821	-2.3438	-3.1271	-3.0542	-2.8833	-3.1583	-2.9958	-3.0583	-3.0479	-2.7479	-3.1437	-3.0875	-2.9208	-3.2229	-3.25	-2.8312	-3.45	13.742	249.855	340.682	315.384	29.917	102.575	281.383	207.119	36.180	186.497	337.558	295.713	350.875	275.113	93.814	340.344	0.0021324	0.0018485	8.0247e-05	664.44	2.3497e-05	2.8465e-05	850.01	220.9	2.1579e-05	1.3437e-05	361.73	179.51	96.362	45.63	8.1704e-06	101.07	0.0070766	0.0069761	0.0017991	946.49	8.061e-05	7.5796e-05	1127.2	330.03	8.0977e-05	7.4892e-05	495.54	229.61	149.63	61.84	6.913e-05	122.54	39.093	45.273	333.677	26.160	205.130	51.803	26.262	30.506	220.137	47.375	30.032	33.851	33.912	37.774	345.565	37.506	-8191	255	
