BOXY.EXE: ISS Imagent and Oximeter Data Acquisition Program Version 0.80
Ascii Record File

#ACQ INFORMATION
2  Detector Channels 
16  External MUX Channels 
1  Auxiliary Channels 
5000  Waveform (CCF) Frequency (Hz)
1  Waveforms Skipped 
30  Waveforms Averaged 
1  Cycles Averaged 
16  Acquisitions per Waveform 
10.0806  Updata Rate (Hz) 

#FILE INFORMATION
TRUE -- External MUX Channel results are PARSED.
FALSE -- AC DC and Phase are NOT grouped.
TRUE -- Companion Program Settings File CREATED.
FALSE -- AC data not excluded
FALSE -- DC data not excluded
FALSE -- Phase data not excluded
FALSE -- Auxillary Chn. data not excluded
Tab delimiters

#CALIBRATION STATE
TRUE -- Waveform Calibration Values APPLIED.


#AUX CALIBRATION VALUES
Val Type	aux-1	

Term	1.0000e+00	
Factor	0.0000e+00	


#WF CALIBRATION VALUES
A = Detector Channel
Val Type	A-AC1	A-AC2	A-AC3	A-AC4	A-AC5	A-AC6	A-AC7	A-AC8	A-AC9	A-AC10	A-AC11	A-AC12	A-AC13	A-AC14	A-AC15	A-AC16	A-DC1	A-DC2	A-DC3	A-DC4	A-DC5	A-DC6	A-DC7	A-DC8	A-DC9	A-DC10	A-DC11	A-DC12	A-DC13	A-DC14	A-DC15	A-DC16	A-Ph1	A-Ph2	A-Ph3	A-Ph4	A-Ph5	A-Ph6	A-Ph7	A-Ph8	A-Ph9	A-Ph10	A-Ph11	A-Ph12	A-Ph13	A-Ph14	A-Ph15	A-Ph16	

Term	0.00000e+00	0.00000e+00	0.00000e+00	0.00000e+00	0.00000e+00	0.00000e+00	0.00000e+00	0.00000e+00	0.00000e+00	0.00000e+00	0.00000e+00	0.00000e+00	0.00000e+00	0.00000e+00	0.00000e+00	0.00000e+00	0.00000e+00	0.00000e+00	0.00000e+00	0.00000e+00	0.00000e+00	0.00000e+00	0.00000e+00	0.00000e+00	0.00000e+00	0.00000e+00	0.00000e+00	0.00000e+00	0.00000e+00	0.00000e+00	0.00000e+00	0.00000e+00	0.00000e+00	0.00000e+00	0.00000e+00	0.00000e+00	0.00000e+00	0.00000e+00	0.00000e+00	0.00000e+00	0.00000e+00	0.00000e+00	0.00000e+00	0.00000e+00	0.00000e+00	0.00000e+00	0.00000e+00	0.00000e+00	
Factor	1.00000e+00	1.00000e+00	1.00000e+00	1.00000e+00	1.00000e+00	1.00000e+00	1.00000e+00	1.00000e+00	1.00000e+00	1.00000e+00	1.00000e+00	1.00000e+00	1.00000e+00	1.00000e+00	1.00000e+00	1.00000e+00	1.00000e+00	1.00000e+00	1.00000e+00	1.00000e+00	1.00000e+00	1.00000e+00	1.00000e+00	1.00000e+00	1.00000e+00	1.00000e+00	1.00000e+00	1.00000e+00	1.00000e+00	1.00000e+00	1.00000e+00	1.00000e+00	X	X	X	X	X	X	X	X	X	X	X	X	X	X	X	X	

B = Detector Channel
Val Type	B-AC1	B-AC2	B-AC3	B-AC4	B-AC5	B-AC6	B-AC7	B-AC8	B-AC9	B-AC10	B-AC11	B-AC12	B-AC13	B-AC14	B-AC15	B-AC16	B-DC1	B-DC2	B-DC3	B-DC4	B-DC5	B-DC6	B-DC7	B-DC8	B-DC9	B-DC10	B-DC11	B-DC12	B-DC13	B-DC14	B-DC15	B-DC16	B-Ph1	B-Ph2	B-Ph3	B-Ph4	B-Ph5	B-Ph6	B-Ph7	B-Ph8	B-Ph9	B-Ph10	B-Ph11	B-Ph12	B-Ph13	B-Ph14	B-Ph15	B-Ph16	

Term	0.00000e+00	0.00000e+00	0.00000e+00	0.00000e+00	0.00000e+00	0.00000e+00	0.00000e+00	0.00000e+00	0.00000e+00	0.00000e+00	0.00000e+00	0.00000e+00	0.00000e+00	0.00000e+00	0.00000e+00	0.00000e+00	0.00000e+00	0.00000e+00	0.00000e+00	0.00000e+00	0.00000e+00	0.00000e+00	0.00000e+00	0.00000e+00	0.00000e+00	0.00000e+00	0.00000e+00	0.00000e+00	0.00000e+00	0.00000e+00	0.00000e+00	0.00000e+00	-1.65095e+02	-1.36760e+02	-1.28228e+02	-1.79802e+02	-7.58801e+01	-8.06562e+01	-1.58085e+02	-1.62015e+02	-8.34201e+01	-6.02352e+01	-1.69977e+02	-1.71992e+02	-1.83057e+02	-1.76155e+02	-6.30896e+01	-1.48803e+02	
Factor	2.68855e-05	1.33963e-04	4.06587e-05	1.73064e-01	1.18092e-06	1.38058e-06	1.79830e-01	6.39379e-02	1.39152e-06	1.46583e-06	8.33553e-02	3.13931e-02	2.72019e-02	8.97484e-03	1.12261e-06	1.30680e-02	1.59552e-06	1.68252e-06	4.69401e-07	8.55044e-02	1.82819e-08	1.84544e-08	8.38191e-02	3.15264e-02	1.83315e-08	1.84551e-08	3.98753e-02	1.49757e-02	1.33735e-02	4.44832e-03	1.83795e-08	6.25309e-03	X	X	X	X	X	X	X	X	X	X	X	X	X	X	X	X	



#DISTANCE SETTINGS
A = Detector Channel
A-1	A-2	A-3	A-4	A-5	A-6	A-7	A-8	A-9	A-10	A-11	A-12	A-13	A-14	A-15	A-16	

2.5000e+00	3.0000e+00	2.5000e+00	3.0000e+00	2.0000e+00	3.0000e+00	1.5000e+00	3.0000e+00	3.0000e+00	3.0000e+00	3.0000e+00	3.0000e+00	3.0000e+00	3.0000e+00	1.5000e+00	3.0000e+00	

B = Detector Channel
B-1	B-2	B-3	B-4	B-5	B-6	B-7	B-8	B-9	B-10	B-11	B-12	B-13	B-14	B-15	B-16	

1.0000e+01	1.0000e+01	1.0000e+01	1.4400e+00	1.0000e+01	1.0000e+01	1.5100e+00	1.9400e+00	1.0000e+01	1.0000e+01	1.9900e+00	2.4900e+00	2.4100e+00	2.9000e+00	1.0000e+01	2.9800e+00	




#DATA BEGINS
time	group	step	mark	flag	A-AC1	A-AC2	A-AC3	A-AC4	A-AC5	A-AC6	A-AC7	A-AC8	A-AC9	A-AC10	A-AC11	A-AC12	A-AC13	A-AC14	A-AC15	A-AC16	A-DC1	A-DC2	A-DC3	A-DC4	A-DC5	A-DC6	A-DC7	A-DC8	A-DC9	A-DC10	A-DC11	A-DC12	A-DC13	A-DC14	A-DC15	A-DC16	A-Ph1	A-Ph2	A-Ph3	A-Ph4	A-Ph5	A-Ph6	A-Ph7	A-Ph8	A-Ph9	A-Ph10	A-Ph11	A-Ph12	A-Ph13	A-Ph14	A-Ph15	A-Ph16	B-AC1	B-AC2	B-AC3	B-AC4	B-AC5	B-AC6	B-AC7	B-AC8	B-AC9	B-AC10	B-AC11	B-AC12	B-AC13	B-AC14	B-AC15	B-AC16	B-DC1	B-DC2	B-DC3	B-DC4	B-DC5	B-DC6	B-DC7	B-DC8	B-DC9	B-DC10	B-DC11	B-DC12	B-DC13	B-DC14	B-DC15	B-DC16	B-Ph1	B-Ph2	B-Ph3	B-Ph4	B-Ph5	B-Ph6	B-Ph7	B-Ph8	B-Ph9	B-Ph10	B-Ph11	B-Ph12	B-Ph13	B-Ph14	B-Ph15	B-Ph16	aux-1	digaux	

3340.170	1	1	0	512	0.12935	0.27763	0.093542	0.2051	0.30932	0.32936	0.17391	0.098396	0.37097	0.24241	0.12043	0.13231	0.271	0.268	0.045653	0.22363	-2.5708	-3.4854	-3.0729	-3.2104	-3.2979	-3.2229	-3.3063	-3.4021	-2.8792	-3.5062	-3.325	-3.1854	-3.6042	-3.1792	-3.5271	-3.4938	310.719	166.608	358.308	458.039	396.542	192.427	390.925	309.852	133.286	377.017	136.727	453.458	177.164	136.038	355.078	446.952	0.0013783	0.000212	8.6438e-05	658.69	1.3039e-06	4.7016e-06	715.85	266.32	1.0097e-05	4.3946e-06	340.28	155.4	115.19	62.224	7.6277e-06	92.367	0.00087853	0.00084403	0.00026066	701.81	8.9647e-06	9.6799e-06	759.44	281.17	9.2756e-06	9.556e-06	359.76	161.89	120.29	64.531	1.0224e-05	95.383	138.641	140.708	341.366	133.258	160.003	297.338	132.091	138.551	240.574	277.764	136.845	140.527	141.902	146.215	244.019	143.591	-8191	255	
3340.264	1	1	0	0	0.11889	0.11592	0.017361	0.17887	0.10682	0.085432	0.21229	0.24273	0.11926	0.027721	0.22269	0.15545	0.078538	0.26949	0.19955	0.14287	-2.6396	-3.5458	-3.375	-3.0812	-3.4875	-3.0896	-3.5125	-3.4479	-3.0375	-3.5312	-3.4354	-3.2979	-3.5021	-3.3208	-3.3646	-3.5146	256.171	149.256	280.008	362.041	233.916	305.893	425.496	467.181	291.663	460.814	438.864	144.566	432.016	402.677	403.924	357.084	0.0014996	0.00047091	0.00021349	658.41	2.475e-06	8.5684e-06	718.26	266.61	7.4674e-06	9.7924e-06	341.43	155.96	114.88	61.953	3.6303e-06	92.935	0.00088177	0.00089798	0.00025891	701.28	9.0151e-06	1.0016e-05	759.33	280.67	9.3511e-06	1.0018e-05	360.55	162.43	120.25	64.62	1.0018e-05	95.686	146.873	194.512	214.963	133.126	249.814	258.260	132.155	138.552	256.808	237.141	136.845	140.425	141.816	146.080	254.892	143.755	-8191	255	
3340.362	1	1	0	0	0.046049	0.05777	0.26512	0.011782	0.28063	0.08324	0.15617	0.28845	0.053896	0.12169	0.26774	0.20488	0.095678	0.39008	0.17639	0.33802	-2.7958	-3.55	-3.4458	-3.1312	-3.5021	-3.2313	-3.3104	-3.7167	-3.2438	-3.3604	-3.4146	-3.2646	-3.7021	-3.4271	-3.1604	-3.6167	282.148	261.130	406.112	129.713	460.792	455.767	174.856	433.837	325.730	208.638	409.709	392.860	228.681	135.413	180.975	436.011	0.0014435	0.00064788	0.00018663	659.51	5.1741e-06	5.7765e-06	714.75	265.71	8.7126e-06	4.6719e-06	336.35	153.25	114.24	61.418	1.548e-06	90.545	0.00087546	0.00092018	0.00025008	701.26	9.075e-06	1.0164e-05	755.9	278.95	9.3803e-06	1.0115e-05	353.97	159.4	118.94	63.809	9.5305e-06	93.261	146.447	174.410	203.843	133.441	275.179	251.349	132.206	138.505	263.545	262.522	136.978	140.573	141.797	146.250	364.250	143.602	-8191	255	
3340.481	1	1	0	0	0.078108	0.1244	0.074301	0.21282	0.12372	0.063421	0.099318	0.30564	0.20796	0.090023	0.19454	0.23046	0.14235	0.18024	0.074807	0.21252	-2.675	-3.4667	-3.2417	-3.075	-3.5	-3.3667	-3.2625	-3.7479	-3.1875	-3.5938	-3.4854	-3.1375	-3.5958	-3.4313	-3.2146	-3.7771	211.759	238.298	354.229	436.813	447.345	241.713	381.670	435.160	329.882	394.451	478.967	146.868	129.899	401.943	344.037	348.667	0.0013353	0.00080626	0.00028842	648.77	3.2918e-06	4.0673e-06	702.73	261.63	5.8928e-06	5.968e-06	331.69	151.33	113.61	60.94	4.5476e-06	90.286	0.00086849	0.00090681	0.00023386	690.42	9.0851e-06	9.8942e-06	741.48	275.72	9.4738e-06	9.9805e-06	349.29	157.35	118.57	63.217	9.3172e-06	92.589	145.985	217.576	202.766	133.455	260.390	324.206	132.179	138.742	200.947	257.246	136.895	140.642	141.921	146.151	271.331	143.596	-8191	255	
3340.577	1	1	0	0	0.28499	0.21514	0.038991	0.073625	0.20748	0.15232	0.25237	0.13461	0.19462	0.15822	0.18485	0.32751	0.20834	0.18944	0.12731	0.27096	-2.8771	-3.1562	-3.3646	-3.0167	-3.5042	-3.2292	-3.3063	-3.5375	-3.1	-3.2979	-3.7062	-3.0125	-3.5687	-3.4458	-3.0167	-3.7771	205.833	187.559	406.188	139.358	350.669	366.986	459.914	328.484	327.967	324.751	429.474	437.562	142.091	455.797	393.082	389.831	0.0014863	0.00051423	0.00015887	649.14	1.6041e-06	4.1761e-06	704.01	262.64	7.8381e-06	3.0056e-06	334.1	152.77	113.84	61.205	4.4483e-06	91.052	0.00089298	0.00090186	0.00023086	689.55	9.5247e-06	9.6938e-06	741.82	276.2	9.8121e-06	9.7743e-06	350.7	158.59	119.32	63.646	9.3505e-06	93.787	140.382	301.411	248.102	133.087	202.499	279.039	132.375	138.293	274.907	331.317	136.969	140.655	141.762	146.296	297.770	143.649	-8191	255	
3340.673	1	1	0	0	0.096602	0.04597	0.21726	0.20501	0.15917	0.071642	0.28129	0.30092	0.26838	0.11451	0.092478	0.14962	0.21075	0.24217	0.15998	0.24438	-2.7875	-3.275	-3.4229	-3.2	-3.325	-3.3812	-3.1729	-3.7521	-3.3167	-3.0667	-3.775	-3.2146	-3.4646	-3.6125	-3.0167	-3.5729	200.589	408.955	156.136	398.394	142.761	133.088	430.690	463.372	226.436	174.068	265.583	449.857	334.201	476.369	282.046	412.039	0.0014571	0.00053502	0.00021271	651.97	5.3241e-06	8.6716e-06	708.04	264.96	4.229e-06	2.4027e-06	338.42	155.82	114.84	62.096	5.4631e-06	92.672	0.00092707	0.00088943	0.00022889	693.47	9.9451e-06	9.5684e-06	748.79	278.54	1.0167e-05	9.7478e-06	355.75	161.75	120.63	64.426	9.4765e-06	95.45	143.697	206.913	229.265	133.394	245.906	294.008	132.383	138.530	224.356	239.353	136.874	140.675	142.024	146.211	234.070	143.604	-8191	255	
3340.770	1	1	0	0	0.12848	0.41326	0.14881	0.10754	0.36074	0.15395	0.13799	0.20485	0.058463	0.043187	0.18063	0.20034	0.12407	0.15438	0.22092	0.167	-2.7812	-3.2	-3.5792	-3.0479	-3.3667	-3.5146	-3.0229	-3.5771	-3.3417	-3.1083	-3.7583	-3.2104	-3.3125	-3.6958	-3.1042	-3.6146	233.836	391.920	303.046	133.485	313.576	257.311	134.695	475.447	463.837	381.104	150.800	443.458	383.704	121.129	420.764	457.963	0.0015046	0.00073036	0.00016293	650.17	2.997e-06	6.9479e-06	708.83	264.64	6.1992e-06	1.0681e-06	334.68	154.2	114.57	61.546	5.2739e-06	91.379	0.00095454	0.00088818	0.00023122	695.78	1.0179e-05	9.3937e-06	747.46	278.85	1.0038e-05	9.6105e-06	353.26	160.47	120.08	63.927	9.2202e-06	94.263	147.057	237.187	216.632	133.527	309.091	240.999	132.126	138.404	297.119	334.375	137.026	140.504	141.923	146.272	252.392	143.594	-8191	255	
3340.866	1	1	0	0	0.33269	0.33445	0.20495	0.20882	0.15918	0.18238	0.22838	0.087333	0.18478	0.123	0.15263	0.14111	0.21457	0.20003	0.078565	0.47478	-2.7229	-3.0958	-3.5208	-3.1667	-3.2875	-3.2667	-3.15	-3.4417	-3.4833	-2.9833	-3.7021	-3.4188	-3.3646	-3.6583	-3.0125	-3.5229	378.328	159.170	381.772	471.086	380.111	276.047	122.685	441.775	203.756	252.631	131.286	419.928	470.379	139.409	432.062	421.471	0.0015295	0.00065704	0.00025124	649.63	1.6693e-06	8.4924e-06	700.24	264.26	6.8702e-06	6.5438e-06	334.42	154.16	113.81	61.678	6.0846e-06	91.787	0.00092288	0.00086696	0.00023002	695.88	1.0051e-05	9.3298e-06	742.86	279.47	9.9313e-06	9.648e-06	352.54	160.91	119.71	63.925	9.5261e-06	94.828	145.281	243.912	203.890	133.391	236.698	320.236	131.910	138.369	275.362	282.178	137.071	140.652	141.802	146.197	236.465	143.596	-8191	255	
3340.962	1	1	0	0	0.3128	0.048707	0.17001	0.17605	0.27398	0.057081	0.15357	0.29089	0.1211	0.16223	0.26207	0.24006	0.11103	0.1245	0.16919	0.12797	-2.6917	-3.1458	-3.6042	-3.2542	-3.1583	-3.5354	-2.9958	-3.6042	-3.2458	-2.9083	-3.5521	-3.2042	-3.3167	-3.6708	-3.0812	-3.525	325.550	401.995	469.883	148.949	268.902	126.719	432.162	169.910	397.501	192.749	467.308	419.417	414.825	448.691	231.508	466.106	0.0013775	0.00065836	0.0002019	651.6	2.3952e-06	6.2103e-06	707.29	263.62	2.2559e-06	1.8431e-06	337.12	154.46	114.59	61.951	9.4905e-06	92.754	0.00090928	0.00087639	0.00023991	698.12	9.9324e-06	9.2996e-06	748.24	280.3	9.756e-06	9.7297e-06	355.08	161.44	120.01	64.228	9.9004e-06	95.84	145.930	223.075	161.237	133.357	266.618	249.647	132.168	138.676	320.530	475.367	137.122	140.794	141.682	146.083	248.785	143.695	-8191	255	
3341.083	1	1	0	0	0.079058	0.059589	0.19582	0.28916	0.10856	0.23813	0.13687	0.12835	0.21348	0.13877	0.30887	0.11807	0.052536	0.32893	0.18561	0.35605	-2.9896	-2.9979	-3.4604	-3.1646	-3.1562	-3.4188	-3.2562	-3.5062	-3.3979	-3.1271	-3.3854	-3.4062	-3.1437	-3.6646	-3.2479	-3.3396	479.326	422.530	346.695	399.720	220.475	236.297	460.611	131.035	356.212	154.188	388.234	127.590	169.014	464.313	388.247	422.296	0.0014087	0.0008169	0.00011663	652.51	3.9392e-06	1.9353e-06	709.12	263.7	6.2815e-06	2.6096e-06	338.52	155.66	114.5	62.182	8.4671e-06	93.067	0.00089073	0.00086596	0.00024858	697.56	9.7059e-06	9.1246e-06	752.45	280.76	9.4541e-06	9.4984e-06	357.48	162.66	120.08	64.365	1.0103e-05	96.066	142.058	184.754	198.816	133.288	252.538	245.283	132.124	138.499	215.130	250.184	136.747	140.675	141.706	146.217	246.170	143.663	-8191	255	
3341.179	1	1	0	0	0.22013	0.13458	0.15356	0.078788	0.10992	0.088058	0.15143	0.32576	0.2397	0.046814	0.10709	0.2268	0.17066	0.30888	0.070898	0.18192	-3.2604	-3.0104	-3.5167	-3.4271	-2.975	-3.45	-3.3312	-3.1729	-3.5646	-3.1646	-3.6813	-3.3688	-3.3146	-3.5479	-3.2646	-3.5333	344.496	151.522	359.202	146.635	132.985	126.586	460.645	123.720	153.058	286.809	222.922	478.441	449.605	123.690	371.427	448.039	0.0014654	0.00054151	9.4264e-05	649.2	6.637e-06	8.0279e-06	704.03	262.33	3.0737e-06	2.6424e-06	337.03	153.81	113.69	61.692	9.5015e-06	91.777	0.00087435	0.00086131	0.00025685	693.69	9.5521e-06	9.1405e-06	748.4	278.74	9.1549e-06	9.4075e-06	355.39	160.09	119.14	63.897	1.0147e-05	94.605	146.507	207.177	199.101	133.387	281.377	262.565	132.144	138.527	257.062	178.401	136.699	140.438	141.597	146.179	248.169	143.460	-8191	255	
3341.273	1	1	0	0	0.1826	0.081335	0.1352	0.081315	0.25215	0.19215	0.20602	0.069613	0.22499	0.32364	0.17793	0.24131	0.12346	0.062137	0.19929	0.31241	-2.9062	-2.9604	-3.3563	-3.4562	-3.075	-3.6771	-3.2354	-3.1833	-3.5854	-3.1021	-3.5667	-3.575	-2.9833	-3.8167	-3.3354	-3.2313	263.382	298.469	342.527	415.743	249.866	254.479	472.699	401.970	475.745	222.121	363.918	387.586	383.867	385.758	239.420	408.857	0.001386	0.00089728	8.5979e-05	649.66	8.923e-06	3.4953e-06	703.15	262.38	5.5895e-06	6.4082e-06	335.65	153.89	114.08	61.701	6.6495e-06	91.701	0.00084321	0.00086575	0.00025928	691.68	9.3512e-06	9.3606e-06	747.59	277.84	9.0277e-06	9.6788e-06	354.66	159.99	119.3	64.09	1.0219e-05	94.988	145.423	174.632	153.800	133.266	280.057	191.676	132.058	138.786	239.596	229.657	136.842	140.630	141.549	146.150	266.991	143.583	-8191	255	
3341.369	1	1	0	0	0.096663	0.11143	0.26521	0.16129	0.097648	0.27278	0.088733	0.11424	0.12885	0.18513	0.16765	0.2662	0.15486	0.22265	0.074236	0.40446	-3.1917	-3.1792	-3.2792	-3.5563	-3.2271	-3.4729	-3.3958	-3.4604	-3.5479	-3.05	-3.4917	-3.5187	-3.1396	-3.5625	-3.5479	-3.3521	257.083	426.137	452.238	395.280	182.161	209.467	431.632	400.956	401.227	346.142	138.584	412.104	135.531	432.096	359.443	412.406	0.0014716	0.00080469	0.00016093	648.35	4.1737e-06	4.633e-06	703.04	263.04	5.7942e-06	9.5593e-06	335.87	154.88	114.46	61.84	8.9312e-06	92.981	0.00084706	0.00090397	0.00026102	690.91	9.4236e-06	9.8439e-06	747.84	278.08	9.0455e-06	1.0125e-05	355.61	160.94	119.55	64.438	1.0014e-05	95.808	144.372	201.243	268.913	133.475	204.685	243.432	132.146	138.609	298.454	244.899	136.939	140.719	141.784	146.118	247.383	143.484	-8191	255	
3341.465	1	1	0	0	0.36308	0.20371	0.14432	0.050888	0.26114	0.13993	0.20617	0.11228	0.1276	0.10076	0.13477	0.15101	0.17772	0.12863	0.21734	0.028275	-3.2792	-2.9938	-3.3312	-3.5271	-3.0292	-3.5187	-3.425	-3.0958	-3.3771	-3.25	-3.3937	-3.6875	-3	-3.5812	-3.4167	-3.2458	428.864	423.801	480.134	207.385	212.301	434.536	423.049	202.445	344.594	328.784	373.965	342.519	442.910	413.313	289.293	389.202	0.0013522	0.00064239	0.00012454	647.11	6.2363e-06	5.8459e-06	708.3	264.42	1.0759e-05	9.1837e-06	336.44	154.68	113.85	61.732	7.774e-06	92.469	0.00085518	0.00092643	0.00025584	688.96	9.4245e-06	1.019e-05	748.07	278.65	9.2135e-06	1.0336e-05	355.33	160.88	119.61	64.443	9.6795e-06	95.397	141.722	160.967	273.984	133.090	252.892	251.612	132.344	138.426	237.535	189.857	136.975	140.432	141.606	146.080	275.944	143.346	-8191	255	
3341.562	1	1	0	0	0.066421	0.16557	0.21602	0.28861	0.23458	0.038415	0.1092	0.16229	0.081406	0.12728	0.076291	0.10283	0.14755	0.13997	0.23606	0.3059	-3.1208	-3.2229	-3.1646	-3.5229	-3.2792	-3.4813	-3.4521	-3.0958	-3.7771	-3.4167	-3.2708	-3.7792	-3.4083	-3.3083	-3.4646	-3.0812	290.338	398.995	192.431	124.570	126.627	226.480	395.917	430.500	432.200	435.260	256.436	343.482	438.306	148.489	413.904	409.656	0.0014888	0.00054365	0.00012414	646.32	4.7961e-06	1.035e-05	700.38	260.58	4.7239e-06	8.8615e-06	333.39	153.02	113.88	61.456	8.2406e-06	91.529	0.00086551	0.00093716	0.00024907	685.78	9.5361e-06	1.022e-05	740.54	276.04	9.4993e-06	1.0211e-05	351.85	158.97	119.18	64.05	9.3581e-06	94.313	144.201	479.027	169.298	133.261	224.851	257.632	132.293	138.566	238.163	284.877	136.715	140.520	141.661	146.113	281.687	143.616	-8191	255	
3341.658	1	1	0	0	0.044108	0.24034	0.15511	0.15357	0.19652	0.097289	0.28322	0.24858	0.010415	0.17497	0.16086	0.070039	0.092048	0.16532	0.12461	0.2775	-3.1875	-3.2812	-3.0375	-3.4917	-3.2833	-3.2979	-3.4125	-3.1708	-3.4396	-3.3604	-3.2979	-3.4646	-3.2208	-3.5125	-3.4271	-3.0875	290.668	442.437	361.237	400.287	428.541	214.795	376.943	444.573	347.817	336.335	221.416	191.950	448.927	386.904	136.294	381.103	0.0015099	0.00039362	5.3176e-05	644.8	7.591e-06	3.116e-06	698.06	260.86	7.9259e-06	6.2472e-07	334.94	153.93	113.54	61.765	5.5369e-06	91.894	0.00089827	0.00091807	0.00024589	687.28	1.0013e-05	1.0285e-05	739.69	276.59	9.9541e-06	1.0143e-05	352.71	159.59	119.49	64.17	9.3831e-06	94.774	147.789	127.022	281.653	133.288	218.794	165.922	132.027	138.473	207.071	430.905	136.950	140.683	141.648	146.090	295.562	143.385	-8191	255	
3341.754	1	1	0	0	0.18671	0.25162	0.17452	0.23756	0.37559	0.21161	0.13577	0.30509	0.14449	0.069817	0.11461	0.064908	0.076808	0.11878	0.076146	0.17862	-3.1208	-3.25	-3.1542	-3.6562	-3.0979	-3.2417	-3.4458	-3.0687	-3.4896	-3.3937	-3.2583	-3.3854	-3.3292	-3.4188	-3.5979	-3.3083	242.131	449.083	255.042	390.698	219.902	348.570	278.501	450.714	347.669	420.861	377.824	338.120	381.281	121.311	238.145	161.108	0.0013507	0.00059297	0.00032813	645.47	4.2301e-06	1.8908e-06	701.07	262.79	9.223e-06	8.4143e-06	334.62	154	114.05	61.814	3.6769e-06	92.501	0.00094952	0.00091946	0.00024915	688.6	1.0317e-05	1.0163e-05	742.83	277.38	1.038e-05	9.9076e-06	354.19	160.28	119.85	64.312	9.369e-06	95.62	144.898	176.884	175.202	133.225	193.893	371.239	132.171	138.648	236.775	445.109	136.911	140.677	141.699	146.136	285.969	143.539	-8191	255	
3341.874	1	1	0	0	0.094298	0.34016	0.12946	0.091373	0.13698	0.093378	0.15585	0.12547	0.23354	0.26648	0.26036	0.17101	0.32833	0.15896	0.097808	0.11678	-3.0104	-3.4354	-2.9083	-3.7875	-3.3354	-3.2104	-3.6979	-3.0854	-3.3333	-3.4729	-3.0542	-3.5396	-3.4688	-3.3563	-3.4104	-3.1104	464.135	321.046	255.433	131.076	479.216	262.659	458.646	351.269	182.481	331.134	346.003	412.281	403.928	385.992	374.081	124.538	0.0015137	0.00018387	0.00025942	646.31	3.925e-06	6.3426e-06	700.49	261.8	3.6421e-06	5.8068e-06	333.52	153.79	113.77	61.472	8.7597e-06	92.009	0.00097507	0.00089789	0.00024866	690.82	1.0416e-05	9.991e-06	742.01	277.09	1.0442e-05	9.6293e-06	352.12	160.18	119.53	64.02	9.2099e-06	94.669	143.862	232.598	224.903	133.511	151.612	340.574	132.286	138.620	189.855	277.276	136.879	140.540	141.754	146.115	262.510	143.580	-8191	255	
