BOXY.EXE: ISS Imagent and Oximeter Data Acquisition Program Version 0.80
Ascii Record File

#ACQ INFORMATION
2  Detector Channels 
16  External MUX Channels 
1  Auxiliary Channels 
5000  Waveform (CCF) Frequency (Hz)
1  Waveforms Skipped 
30  Waveforms Averaged 
1  Cycles Averaged 
16  Acquisitions per Waveform 
10.0806  Updata Rate (Hz) 

#FILE INFORMATION
TRUE -- External MUX Channel results are PARSED.
FALSE -- AC DC and Phase are NOT grouped.
TRUE -- Companion Program Settings File CREATED.
FALSE -- AC data not excluded
FALSE -- DC data not excluded
FALSE -- Phase data not excluded
FALSE -- Auxillary Chn. data not excluded
Tab delimiters

#CALIBRATION STATE
TRUE -- Waveform Calibration Values APPLIED.


#AUX CALIBRATION VALUES
Val Type	aux-1	

Term	1.0000e+00	
Factor	0.0000e+00	


#WF CALIBRATION VALUES
A = Detector Channel
Val Type	A-AC1	A-AC2	A-AC3	A-AC4	A-AC5	A-AC6	A-AC7	A-AC8	A-AC9	A-AC10	A-AC11	A-AC12	A-AC13	A-AC14	A-AC15	A-AC16	A-DC1	A-DC2	A-DC3	A-DC4	A-DC5	A-DC6	A-DC7	A-DC8	A-DC9	A-DC10	A-DC11	A-DC12	A-DC13	A-DC14	A-DC15	A-DC16	A-Ph1	A-Ph2	A-Ph3	A-Ph4	A-Ph5	A-Ph6	A-Ph7	A-Ph8	A-Ph9	A-Ph10	A-Ph11	A-Ph12	A-Ph13	A-Ph14	A-Ph15	A-Ph16	

Term	0.00000e+00	0.00000e+00	0.00000e+00	0.00000e+00	0.00000e+00	0.00000e+00	0.00000e+00	0.00000e+00	0.00000e+00	0.00000e+00	0.00000e+00	0.00000e+00	0.00000e+00	0.00000e+00	0.00000e+00	0.00000e+00	0.00000e+00	0.00000e+00	0.00000e+00	0.00000e+00	0.00000e+00	0.00000e+00	0.00000e+00	0.00000e+00	0.00000e+00	0.00000e+00	0.00000e+00	0.00000e+00	0.00000e+00	0.00000e+00	0.00000e+00	0.00000e+00	0.00000e+00	0.00000e+00	0.00000e+00	0.00000e+00	0.00000e+00	0.00000e+00	0.00000e+00	0.00000e+00	0.00000e+00	0.00000e+00	0.00000e+00	0.00000e+00	0.00000e+00	0.00000e+00	0.00000e+00	0.00000e+00	
Factor	1.00000e+00	1.00000e+00	1.00000e+00	1.00000e+00	1.00000e+00	1.00000e+00	1.00000e+00	1.00000e+00	1.00000e+00	1.00000e+00	1.00000e+00	1.00000e+00	1.00000e+00	1.00000e+00	1.00000e+00	1.00000e+00	1.00000e+00	1.00000e+00	1.00000e+00	1.00000e+00	1.00000e+00	1.00000e+00	1.00000e+00	1.00000e+00	1.00000e+00	1.00000e+00	1.00000e+00	1.00000e+00	1.00000e+00	1.00000e+00	1.00000e+00	1.00000e+00	X	X	X	X	X	X	X	X	X	X	X	X	X	X	X	X	

B = Detector Channel
Val Type	B-AC1	B-AC2	B-AC3	B-AC4	B-AC5	B-AC6	B-AC7	B-AC8	B-AC9	B-AC10	B-AC11	B-AC12	B-AC13	B-AC14	B-AC15	B-AC16	B-DC1	B-DC2	B-DC3	B-DC4	B-DC5	B-DC6	B-DC7	B-DC8	B-DC9	B-DC10	B-DC11	B-DC12	B-DC13	B-DC14	B-DC15	B-DC16	B-Ph1	B-Ph2	B-Ph3	B-Ph4	B-Ph5	B-Ph6	B-Ph7	B-Ph8	B-Ph9	B-Ph10	B-Ph11	B-Ph12	B-Ph13	B-Ph14	B-Ph15	B-Ph16	

Term	0.00000e+00	0.00000e+00	0.00000e+00	0.00000e+00	0.00000e+00	0.00000e+00	0.00000e+00	0.00000e+00	0.00000e+00	0.00000e+00	0.00000e+00	0.00000e+00	0.00000e+00	0.00000e+00	0.00000e+00	0.00000e+00	0.00000e+00	0.00000e+00	0.00000e+00	0.00000e+00	0.00000e+00	0.00000e+00	0.00000e+00	0.00000e+00	0.00000e+00	0.00000e+00	0.00000e+00	0.00000e+00	0.00000e+00	0.00000e+00	0.00000e+00	0.00000e+00	-2.70192e+02	-1.46154e+02	-1.44971e+02	-1.83982e+02	-8.96959e+01	-7.84589e+01	-1.56979e+02	-1.62015e+02	-1.31917e+02	-8.21254e+01	-1.70881e+02	-1.81594e+02	-1.85791e+02	-1.77433e+02	-8.97468e+01	-1.49719e+02	
Factor	5.01170e-05	1.32014e-04	3.27272e-05	4.14055e-01	1.25435e-06	1.99250e-06	1.53742e-01	4.68002e-02	1.88427e-06	1.45911e-06	8.44637e-02	4.28283e-01	3.92267e-02	8.40360e-03	1.45620e-06	1.23250e-02	1.31062e-06	1.34861e-06	3.74948e-07	2.01947e-01	1.47447e-08	1.47689e-08	7.28953e-02	2.37801e-02	1.46852e-08	1.47755e-08	4.10814e-02	1.28830e-01	1.93371e-02	4.25015e-03	1.47475e-08	5.99750e-03	X	X	X	X	X	X	X	X	X	X	X	X	X	X	X	X	



#DISTANCE SETTINGS
A = Detector Channel
A-1	A-2	A-3	A-4	A-5	A-6	A-7	A-8	A-9	A-10	A-11	A-12	A-13	A-14	A-15	A-16	

2.5000e+00	3.0000e+00	2.5000e+00	3.0000e+00	2.0000e+00	3.0000e+00	1.5000e+00	3.0000e+00	3.0000e+00	3.0000e+00	3.0000e+00	3.0000e+00	3.0000e+00	3.0000e+00	1.5000e+00	3.0000e+00	

B = Detector Channel
B-1	B-2	B-3	B-4	B-5	B-6	B-7	B-8	B-9	B-10	B-11	B-12	B-13	B-14	B-15	B-16	

1.0000e+01	1.0000e+01	1.0000e+01	1.4400e+00	1.0000e+01	1.0000e+01	1.5100e+00	1.9400e+00	1.0000e+01	1.0000e+01	1.9900e+00	2.4900e+00	2.4100e+00	2.9000e+00	1.0000e+01	2.9800e+00	




#DATA BEGINS
time	group	step	mark	flag	A-AC1	A-AC2	A-AC3	A-AC4	A-AC5	A-AC6	A-AC7	A-AC8	A-AC9	A-AC10	A-AC11	A-AC12	A-AC13	A-AC14	A-AC15	A-AC16	A-DC1	A-DC2	A-DC3	A-DC4	A-DC5	A-DC6	A-DC7	A-DC8	A-DC9	A-DC10	A-DC11	A-DC12	A-DC13	A-DC14	A-DC15	A-DC16	A-Ph1	A-Ph2	A-Ph3	A-Ph4	A-Ph5	A-Ph6	A-Ph7	A-Ph8	A-Ph9	A-Ph10	A-Ph11	A-Ph12	A-Ph13	A-Ph14	A-Ph15	A-Ph16	B-AC1	B-AC2	B-AC3	B-AC4	B-AC5	B-AC6	B-AC7	B-AC8	B-AC9	B-AC10	B-AC11	B-AC12	B-AC13	B-AC14	B-AC15	B-AC16	B-DC1	B-DC2	B-DC3	B-DC4	B-DC5	B-DC6	B-DC7	B-DC8	B-DC9	B-DC10	B-DC11	B-DC12	B-DC13	B-DC14	B-DC15	B-DC16	B-Ph1	B-Ph2	B-Ph3	B-Ph4	B-Ph5	B-Ph6	B-Ph7	B-Ph8	B-Ph9	B-Ph10	B-Ph11	B-Ph12	B-Ph13	B-Ph14	B-Ph15	B-Ph16	aux-1	digaux	

2348.354	1	1	0	512	0.11302	0.057102	0.085767	0.14861	0.098264	0.18187	0.16354	0.21327	0.15087	0.14155	0.21534	0.10071	0.097677	0.24619	0.042995	0.099224	-2.0771	-2.2687	-2.2396	-2.7208	-2.2375	-2.3792	-2.4688	-2.1146	-2.5167	-2.3917	-2.1542	-2.6708	-2.2375	-2.325	-2.6458	-2.1896	379.469	231.942	280.880	131.402	223.728	242.621	260.400	398.778	328.706	339.450	422.730	106.481	317.718	380.992	309.809	123.199	0.00058365	0.00024022	2.8481e-05	196.13	9.3643e-07	1.5508e-06	312.04	51.397	8.1879e-07	1.2263e-06	109.42	55.631	21.297	9.3419	2.3929e-06	24.542	7.932e-05	6.7445e-05	1.8905e-05	198.54	7.4264e-07	7.3743e-07	313.86	52.634	7.2169e-07	7.3499e-07	109.13	39.931	21.41	9.5223	7.3873e-07	24.563	386.810	175.136	427.257	90.030	331.251	211.134	89.444	95.738	397.509	182.798	94.691	97.955	99.356	105.177	157.585	102.325	-8191	255	
2348.450	1	1	0	0	0.33942	0.15534	0.088576	0.2006	0.17887	0.16083	0.2211	0.15498	0.087824	0.14426	0.14214	0.092993	0.15687	0.22507	0.17721	0.17999	-1.9562	-2.3104	-1.9896	-2.5938	-2.4	-2.25	-2.5854	-2.0729	-2.4521	-2.4646	-2.2375	-2.5312	-2.2292	-2.1813	-2.5062	-2.1688	355.923	265.492	173.243	112.143	416.773	130.663	111.969	424.805	107.389	107.198	222.805	191.026	308.891	118.946	133.772	293.762	0.00066543	0.00020653	2.5013e-05	196.91	6.2453e-07	3.3906e-06	311.61	51.492	2.7374e-06	6.8733e-07	108.29	55.383	20.972	9.1848	1.1616e-06	24.223	7.8782e-05	6.8167e-05	1.8733e-05	197.97	7.3686e-07	7.3091e-07	313.9	52.631	7.2585e-07	7.3013e-07	108.84	39.578	21.319	9.3382	7.272e-07	24.276	381.179	143.498	182.915	89.996	196.935	279.146	89.570	95.644	189.975	281.552	94.592	97.715	98.779	105.116	130.855	102.805	-8191	255	
2348.546	1	1	0	0	0.23855	0.13746	0.10918	0.020703	0.086192	0.19743	0.28176	0.12219	0.33585	0.20371	0.092524	0.13749	0.083493	0.13783	0.23045	0.18915	-2.0146	-2.4125	-2.075	-2.6042	-2.2979	-2.1792	-2.5646	-1.8792	-2.3688	-2.2417	-2.1813	-2.4792	-2.4833	-2.2333	-2.6583	-2.1667	293.002	159.557	144.707	159.062	303.985	230.966	301.305	364.200	126.002	217.401	270.401	204.908	135.273	155.786	260.621	363.092	0.00058941	0.00011618	2.9599e-05	193.28	1.1831e-06	1.1392e-06	311.21	51.504	2.4845e-06	2.5849e-06	107.55	54.883	20.185	8.5037	1.886e-06	23.134	7.8512e-05	6.7773e-05	1.8597e-05	195.9	7.3315e-07	7.1525e-07	313.67	52.445	7.2542e-07	7.2603e-07	108.23	38.597	20.468	8.731	7.3519e-07	23.142	387.859	266.884	147.003	88.840	185.627	168.093	89.621	95.574	430.245	130.055	94.203	99.299	98.877	104.659	165.845	103.200	-8191	255	
2348.667	1	1	0	0	0.25246	0.29066	0.12808	0.10711	0.050074	0.24532	0.3006	0.099	0.21343	0.073607	0.11952	0.16752	0.29067	0.03434	0.20607	0.070782	-1.8604	-2.3479	-2.0542	-2.5354	-2.3875	-2.2042	-2.725	-2.2458	-2.1229	-2.675	-2.2729	-2.2833	-2.5021	-2.0833	-2.6167	-2.3917	381.484	173.535	382.168	151.642	342.350	379.474	340.535	356.005	245.021	272.589	142.856	205.822	324.535	414.211	142.174	332.911	0.00048579	0.00018464	7.4781e-06	196.21	3.7156e-07	2.0824e-06	308.69	51.482	4.6983e-06	2.4381e-06	107.67	53.409	20.16	8.4386	1.7745e-06	22.697	7.7403e-05	6.6374e-05	1.8241e-05	196.27	7.2467e-07	7.1823e-07	309.86	52.151	7.2319e-07	6.9205e-07	107.23	38.073	20.193	8.5901	7.2127e-07	22.741	386.443	202.553	151.837	89.010	320.451	198.393	89.259	95.704	111.385	137.496	94.410	99.072	98.623	105.032	239.475	103.176	-8191	255	
2348.761	1	1	0	0	0.16297	0.17923	0.070075	0.17743	0.2918	0.13216	0.12922	0.06457	0.14584	0.17626	0.17378	0.1518	0.14857	0.24603	0.24415	0.065528	-1.9729	-2.5938	-2.1417	-2.3542	-2.5812	-2.125	-2.6021	-2.3438	-2.2146	-2.6562	-2.2438	-2.2833	-2.3604	-2.1688	-2.45	-2.4021	374.192	375.687	205.367	304.921	339.373	378.586	284.318	91.337	156.946	253.689	285.152	286.304	97.392	122.480	143.581	241.851	0.00059502	0.00012963	5.2017e-05	191.89	1.7338e-06	1.5072e-06	306.99	51.545	1.9479e-06	1.38e-06	106.8	54.473	19.928	8.3428	2.4759e-06	22.663	7.6054e-05	6.5368e-05	1.846e-05	195.98	7.2642e-07	7.2466e-07	309.33	52.186	7.1639e-07	7.0895e-07	107	38.331	20.264	8.5948	7.2561e-07	22.817	393.981	161.241	187.567	89.376	233.599	229.814	89.445	95.617	283.246	150.702	94.538	98.272	98.930	105.147	235.907	103.048	-8191	255	
2348.858	1	1	0	0	0.033799	0.11873	0.27032	0.08996	0.2365	0.22568	0.16701	0.25381	0.14193	0.075843	0.20665	0.19123	0.062246	0.25499	0.19932	0.11706	-1.775	-2.6167	-2.2958	-2.3167	-2.5354	-2.2083	-2.5542	-2.375	-2.1292	-2.5229	-2.1604	-2.4062	-2.6458	-2.0042	-2.5938	-2.6562	325.319	313.050	163.316	165.497	122.279	122.776	403.196	421.625	80.508	403.556	403.844	411.641	215.055	253.403	245.762	436.083	0.00058205	0.00010399	2.9642e-05	193.41	1.6799e-06	5.1356e-07	310.51	51.452	2.6626e-06	2.2138e-06	107.93	55.382	20.122	8.7296	7.2794e-07	23.428	7.5424e-05	6.3913e-05	1.8362e-05	196.08	7.325e-07	7.1392e-07	311.79	52.541	7.2508e-07	7.1471e-07	108.21	38.388	20.61	8.8819	7.3479e-07	23.449	380.015	124.807	104.538	89.833	222.067	188.409	89.729	95.433	198.892	191.906	94.095	100.757	98.989	104.716	328.823	102.583	-8191	255	
2348.954	1	1	0	0	0.11984	0.20648	0.20105	0.22822	0.20187	0.071052	0.29141	0.19749	0.16871	0.16634	0.066279	0.11401	0.29465	0.19324	0.096075	0.24214	-1.8062	-2.5146	-2.2354	-2.2896	-2.4938	-1.9771	-2.3479	-2.3708	-2.075	-2.6021	-2.2771	-2.3458	-2.5125	-2.0687	-2.3875	-2.3542	204.186	420.234	287.818	155.364	306.673	151.567	304.879	99.553	432.938	330.544	83.674	396.965	261.285	361.556	406.256	429.741	0.00062766	0.00024993	5.9983e-05	197.01	5.0749e-07	2.5371e-06	312.08	51.707	1.4157e-06	7.572e-07	107.27	56.186	20.947	9.1506	3.195e-06	24.227	7.7185e-05	6.4607e-05	1.847e-05	199.52	7.1383e-07	7.2792e-07	314.42	52.9	7.3567e-07	7.1126e-07	108.08	39.298	21.142	9.3383	7.3882e-07	24.313	382.147	121.636	214.922	89.946	201.693	257.034	89.393	95.404	152.890	220.376	94.494	99.801	99.506	104.782	190.338	102.269	-8191	255	
2349.027	1	1	0	0	0.12754	0.12024	0.081209	0.16591	0.049971	0.18652	0.17643	0.2135	0.12116	0.082765	0.24812	0.11326	0.23037	0.23709	0.3327	0.14021	-1.6313	-2.6021	-2.0958	-2.1875	-2.475	-2.0875	-2.4083	-2.4167	-1.9979	-2.5479	-2.1917	-2.1958	-2.3417	-2.1854	-2.2604	-2.6146	271.560	218.270	278.191	372.716	296.285	228.350	295.418	205.370	412.297	308.936	252.198	134.321	318.489	112.773	83.876	363.876	0.0007201	0.00014981	2.6101e-05	200.48	1.4052e-06	5.3508e-06	314.21	52.881	3.1067e-06	5.0524e-07	108.87	56.064	21.27	9.3363	2.3888e-06	24.565	7.7226e-05	6.5869e-05	1.7902e-05	201.46	7.3668e-07	7.4211e-07	315.71	53.603	7.3154e-07	6.9753e-07	108.99	39.443	21.387	9.494	7.4733e-07	24.598	387.681	132.695	191.336	89.132	191.650	180.959	89.411	95.727	102.211	222.215	94.820	98.768	98.672	104.658	212.775	102.808	-8191	255	
2349.146	1	1	0	0	0.3554	0.15466	0.15065	0.14792	0.11787	0.21275	0.075723	0.25894	0.099555	0.13715	0.075804	0.10322	0.21702	0.30482	0.10785	0.19323	-1.6729	-2.5521	-2.5062	-2.0812	-2.6688	-2.3563	-2.3187	-2.5708	-2.0979	-2.4938	-2.35	-2.0104	-2.6083	-2.2958	-2.1771	-2.6896	211.327	376.931	399.026	319.954	237.471	111.206	105.923	373.066	271.060	229.522	207.567	380.709	103.527	405.679	215.993	334.959	0.00061851	3.7585e-05	3.9119e-05	200.42	2.6096e-06	1.8065e-06	317.3	52.404	3.7942e-06	1.5205e-06	110.56	58.524	21.434	9.5133	1.8809e-06	24.924	7.7436e-05	6.6717e-05	1.8212e-05	201.22	7.3146e-07	7.1122e-07	318.17	53.544	7.345e-07	7.2831e-07	110.01	40.087	21.708	9.7044	7.0914e-07	25.042	390.161	191.373	410.125	88.632	387.390	223.174	89.364	95.531	169.144	248.479	94.481	99.252	98.723	104.415	176.851	102.746	-8191	255	
2349.242	1	1	0	0	0.18791	0.18821	0.17235	0.17499	0.029411	0.1609	0.19548	0.19675	0.15987	0.13751	0.25386	0.085573	0.11607	0.14542	0.093146	0.051343	-1.825	-2.3542	-2.4458	-2.0187	-2.6042	-2.4917	-2.2313	-2.4896	-2.2542	-2.4375	-2.4062	-2.0812	-2.5687	-2.4125	-2.2146	-2.7396	208.122	148.741	147.636	174.086	193.378	118.841	376.930	302.670	379.290	414.195	145.925	212.557	154.661	207.099	164.711	375.294	0.00069743	0.00016613	4.215e-05	202.38	2.7484e-06	2.7681e-06	317.31	52.855	5.3853e-06	9.5024e-07	110.18	58.15	21.634	9.5897	1.0354e-06	24.954	7.8607e-05	6.6495e-05	1.8174e-05	202.44	7.2777e-07	7.2315e-07	319.92	54.037	7.2444e-07	7.3425e-07	110.72	40.385	21.844	9.799	7.4389e-07	25.12	391.782	184.684	105.135	89.223	197.429	212.350	89.660	95.631	195.150	255.818	94.601	98.693	98.634	104.380	146.185	102.885	-8191	255	
2349.338	1	1	0	0	0.18465	0.091235	0.25218	0.22706	0.10021	0.1427	0.13975	0.081682	0.093793	0.23743	0.13686	0.19041	0.1091	0.25573	0.22169	0.041365	-1.7167	-2.5229	-2.4938	-2.0438	-2.375	-2.2375	-2.2292	-2.5917	-2.1104	-2.4417	-2.4667	-2.125	-2.2458	-2.4042	-2.2271	-2.6021	176.968	168.220	378.878	93.131	331.067	274.046	379.141	429.423	378.004	413.674	180.634	148.093	141.196	406.397	429.478	155.522	0.00070282	0.00022845	4.0461e-05	201.21	1.4504e-06	3.0301e-08	313.36	52.849	1.6158e-06	2.3292e-06	107.94	55.057	20.824	8.9063	6.1945e-07	23.779	7.9205e-05	6.6475e-05	1.814e-05	202.42	7.3564e-07	7.1395e-07	317.37	53.585	7.457e-07	7.2259e-07	108.45	38.754	20.921	9.0826	7.3107e-07	23.671	391.074	116.530	154.514	89.299	188.905	376.761	89.473	95.037	395.375	207.890	94.327	99.744	99.368	104.897	125.681	102.549	-8191	255	
2349.459	1	1	0	0	0.07497	0.092828	0.083848	0.22037	0.11356	0.29179	0.063115	0.046532	0.19647	0.21902	0.12008	0.26579	0.068682	0.24329	0.16091	0.13108	-1.6437	-2.0521	-2.5479	-2.0667	-2.5104	-2.4	-2.1	-2.7229	-2.0854	-2.1375	-2.4771	-1.9479	-2.3729	-2.3438	-2.0729	-2.5833	108.711	203.074	139.191	226.473	327.303	390.614	410.668	238.644	189.146	270.528	144.587	141.594	147.231	402.471	362.065	326.841	0.00062836	0.00020844	5.825e-05	198.74	1.878e-06	8.4367e-07	313.69	52.311	5.6108e-07	1.2303e-06	107.32	53.597	20.527	8.7443	3.3132e-06	23.322	7.8916e-05	6.7847e-05	1.8278e-05	199.36	7.1788e-07	7.1881e-07	315.09	53.093	7.2285e-07	7.1341e-07	108.08	38.615	20.721	8.9265	7.1448e-07	23.349	391.283	137.126	128.114	89.323	327.619	432.482	89.459	95.672	179.432	278.732	94.707	98.419	98.086	104.908	227.801	102.848	-8191	255	
2349.555	1	1	0	0	0.090445	0.23163	0.17385	0.08832	0.27436	0.16144	0.25714	0.13649	0.18317	0.045903	0.18031	0.077604	0.21313	0.069893	0.35337	0.25556	-1.7542	-2.0917	-2.4021	-1.9979	-2.3979	-2.4688	-2.2333	-2.5542	-2.4062	-2.1958	-2.5396	-2.0792	-2.2938	-2.5479	-2.15	-2.4958	436.939	256.820	378.123	376.548	287.440	269.150	400.282	171.465	303.416	166.615	111.575	90.473	117.812	193.931	200.271	271.663	0.00065387	0.0001052	4.786e-05	197.32	5.5106e-07	4.0453e-06	311.21	52.097	3.4478e-06	8.8743e-07	107.1	56.267	20.254	8.6164	3.6159e-06	23.133	7.707e-05	6.5793e-05	1.825e-05	199.66	7.3266e-07	7.1275e-07	314.88	52.872	7.1024e-07	7.1664e-07	107.94	38.967	20.497	8.7987	7.2103e-07	23.267	387.674	96.881	109.934	89.621	118.684	248.361	89.734	95.717	160.720	191.862	94.445	99.368	99.049	104.379	234.799	102.947	-8191	255	
2349.627	1	1	0	0	0.023161	0.1998	0.044562	0.044578	0.24027	0.31677	0.0075119	0.22072	0.26704	0.025693	0.090177	0.26723	0.073031	0.17408	0.2436	0.22546	-1.7792	-1.9438	-2.4458	-2.2021	-2.0104	-2.4271	-2.2938	-2.4	-2.2188	-2.0146	-2.5083	-2.0917	-2.4208	-2.6479	-2.1375	-2.4292	411.644	169.673	369.761	426.856	86.347	332.390	299.899	346.566	133.143	140.003	360.335	399.669	101.212	381.729	287.743	408.588	0.00062944	0.00010352	8.2814e-05	197.47	3.3338e-07	1.5155e-06	316.83	51.961	1.478e-06	1.2887e-06	108.56	54.754	20.497	8.6294	1.5032e-06	23.231	7.5489e-05	6.4922e-05	1.7673e-05	200.77	7.2986e-07	7.3328e-07	318.1	52.979	7.1633e-07	7.0036e-07	108.26	38.664	20.596	8.8322	7.2797e-07	23.26	386.933	104.983	195.553	89.807	131.968	208.459	89.845	95.107	425.397	238.433	94.817	100.507	99.030	104.928	211.669	102.688	-8191	255	
2349.747	1	1	0	0	0.11624	0.18024	0.18688	0.19277	0.12745	0.17263	0.16994	0.30512	0.15104	0.16521	0.1902	0.07198	0.22078	0.20491	0.16859	0.30557	-1.8188	-2.0625	-2.6312	-2.0271	-2.1375	-2.5958	-2.1937	-2.2771	-2.2229	-2.1146	-2.45	-2.2583	-2.2104	-2.5042	-2.0563	-2.5125	346.810	86.784	179.761	83.714	145.113	405.161	424.232	332.750	431.323	174.344	384.931	308.812	160.331	349.566	116.832	347.319	0.00058321	0.00020528	7.4754e-05	198.9	1.138e-06	4.1502e-06	314.56	52.203	5.9474e-07	6.1288e-07	108.17	54.836	20.747	8.8541	7.2106e-07	23.719	7.4853e-05	6.5335e-05	1.7869e-05	200.65	7.1684e-07	7.0315e-07	316.07	52.929	7.0544e-07	7.0932e-07	107.95	38.265	20.864	9.0577	7.1144e-07	23.729	392.269	159.647	167.353	89.009	190.017	208.653	89.598	95.364	437.197	391.496	94.488	96.832	99.053	104.823	210.617	102.978	-8191	255	
2349.842	1	1	0	0	0.18511	0.33722	0.03373	0.24538	0.15122	0.19559	0.30861	0.20007	0.060575	0.10953	0.24327	0.26311	0.13661	0.15973	0.1742	0.10646	-1.8896	-1.9021	-2.6771	-2.1979	-2.2375	-2.5229	-2.0083	-2.4771	-2.3771	-2.1188	-2.4354	-2.3083	-2.0938	-2.3625	-2.1083	-2.3333	120.805	414.791	150.220	208.174	375.906	129.429	100.608	143.565	280.411	366.743	175.202	341.756	196.745	107.902	295.606	250.766	0.00060976	0.00022005	2.4407e-05	198.16	2.7782e-06	3.6441e-06	314.25	52.063	1.6407e-06	2.1385e-06	107.76	54.475	20.547	8.889	1.1354e-06	23.972	7.633e-05	6.5883e-05	1.8274e-05	200.44	7.2028e-07	7.0848e-07	315.88	52.939	7.0091e-07	7.1344e-07	108.08	38.624	20.901	9.1506	7.1688e-07	23.909	383.311	201.445	94.679	88.946	154.781	132.584	89.601	95.039	418.659	195.639	94.378	98.578	98.723	104.698	142.455	102.929	-8191	255	
2349.940	1	1	0	0	0.16384	0.19663	0.22375	0.092854	0.23077	0.027146	0.17772	0.21475	0.12625	0.13253	0.10629	0.32445	0.050317	0.12092	0.10087	0.34808	-2.0354	-2.1312	-2.3708	-2.2375	-2.0792	-2.6104	-2.3542	-2.2521	-2.5479	-2.1688	-2.4708	-2.1583	-2.2562	-2.4813	-2.3208	-2.1083	135.865	372.763	433.226	286.311	415.299	284.266	382.599	199.238	158.162	301.287	138.390	202.704	246.240	190.978	309.359	355.428	0.00068602	9.1869e-05	2.4325e-05	197.72	2.1106e-06	5.4122e-06	313.48	52.102	2.1967e-06	4.8233e-07	107.66	54.965	20.964	9.072	2.9255e-06	23.979	7.6079e-05	6.7167e-05	1.7632e-05	200.08	7.2753e-07	7.1386e-07	315.63	52.971	7.1529e-07	7.3044e-07	108.32	39.197	21.134	9.2185	7.3482e-07	24.037	385.138	168.427	157.774	88.513	226.547	217.611	89.601	95.682	123.478	110.668	94.693	98.154	98.351	105.038	155.325	102.821	-8191	255	
2350.059	1	1	0	0	0.16285	0.16549	0.10764	0.083047	0.091111	0.13958	0.25785	0.0095087	0.21887	0.18955	0.16422	0.13797	0.14397	0.097148	0.091929	0.083952	-2.0917	-1.9229	-2.2188	-2.5333	-2.1375	-2.4646	-2.3812	-2.0083	-2.5229	-2.0958	-2.3583	-2.5083	-2.0521	-2.4729	-2.3812	-2.2146	150.198	94.347	152.605	139.907	318.215	255.711	278.526	296.517	110.550	294.219	254.776	209.091	212.365	153.300	302.466	254.881	0.00055343	0.00013086	2.1733e-05	199.68	1.6222e-06	2.2469e-06	315.22	52.135	3.0888e-06	1.6784e-06	108.16	56.539	21.09	9.2834	4.591e-07	24.168	7.6093e-05	6.6363e-05	1.8508e-05	200.76	7.0952e-07	7.2269e-07	316	53.276	7.2132e-07	7.1394e-07	108.58	39.632	21.404	9.3857	7.1842e-07	24.275	385.773	96.357	135.379	89.233	201.098	245.146	89.455	95.313	120.755	242.790	94.218	99.300	98.979	104.524	222.230	102.891	-8191	255	
