BOXY.EXE: ISS Imagent and Oximeter Data Acquisition Program Version 0.80
Ascii Record File

#ACQ INFORMATION
2  Detector Channels 
16  External MUX Channels 
1  Auxiliary Channels 
5000  Waveform (CCF) Frequency (Hz)
1  Waveforms Skipped 
30  Waveforms Averaged 
1  Cycles Averaged 
16  Acquisitions per Waveform 
10.0806  Updata Rate (Hz) 

#FILE INFORMATION
TRUE -- External MUX Channel results are PARSED.
FALSE -- AC DC and Phase are NOT grouped.
TRUE -- Companion Program Settings File CREATED.
FALSE -- AC data not excluded
FALSE -- DC data not excluded
FALSE -- Phase data not excluded
FALSE -- Auxillary Chn. data not excluded
Tab delimiters

#CALIBRATION STATE
TRUE -- Waveform Calibration Values APPLIED.


#AUX CALIBRATION VALUES
Val Type	aux-1	

Term	1.0000e+00	
Factor	0.0000e+00	


#WF CALIBRATION VALUES
A = Detector Channel
Val Type	A-AC1	A-AC2	A-AC3	A-AC4	A-AC5	A-AC6	A-AC7	A-AC8	A-AC9	A-AC10	A-AC11	A-AC12	A-AC13	A-AC14	A-AC15	A-AC16	A-DC1	A-DC2	A-DC3	A-DC4	A-DC5	A-DC6	A-DC7	A-DC8	A-DC9	A-DC10	A-DC11	A-DC12	A-DC13	A-DC14	A-DC15	A-DC16	A-Ph1	A-Ph2	A-Ph3	A-Ph4	A-Ph5	A-Ph6	A-Ph7	A-Ph8	A-Ph9	A-Ph10	A-Ph11	A-Ph12	A-Ph13	A-Ph14	A-Ph15	A-Ph16	

Term	0.00000e+00	0.00000e+00	0.00000e+00	0.00000e+00	0.00000e+00	0.00000e+00	0.00000e+00	0.00000e+00	0.00000e+00	0.00000e+00	0.00000e+00	0.00000e+00	0.00000e+00	0.00000e+00	0.00000e+00	0.00000e+00	0.00000e+00	0.00000e+00	0.00000e+00	0.00000e+00	0.00000e+00	0.00000e+00	0.00000e+00	0.00000e+00	0.00000e+00	0.00000e+00	0.00000e+00	0.00000e+00	0.00000e+00	0.00000e+00	0.00000e+00	0.00000e+00	0.00000e+00	0.00000e+00	0.00000e+00	0.00000e+00	0.00000e+00	0.00000e+00	0.00000e+00	0.00000e+00	0.00000e+00	0.00000e+00	0.00000e+00	0.00000e+00	0.00000e+00	0.00000e+00	0.00000e+00	0.00000e+00	
Factor	1.00000e+00	1.00000e+00	1.00000e+00	1.00000e+00	1.00000e+00	1.00000e+00	1.00000e+00	1.00000e+00	1.00000e+00	1.00000e+00	1.00000e+00	1.00000e+00	1.00000e+00	1.00000e+00	1.00000e+00	1.00000e+00	1.00000e+00	1.00000e+00	1.00000e+00	1.00000e+00	1.00000e+00	1.00000e+00	1.00000e+00	1.00000e+00	1.00000e+00	1.00000e+00	1.00000e+00	1.00000e+00	1.00000e+00	1.00000e+00	1.00000e+00	1.00000e+00	X	X	X	X	X	X	X	X	X	X	X	X	X	X	X	X	

B = Detector Channel
Val Type	B-AC1	B-AC2	B-AC3	B-AC4	B-AC5	B-AC6	B-AC7	B-AC8	B-AC9	B-AC10	B-AC11	B-AC12	B-AC13	B-AC14	B-AC15	B-AC16	B-DC1	B-DC2	B-DC3	B-DC4	B-DC5	B-DC6	B-DC7	B-DC8	B-DC9	B-DC10	B-DC11	B-DC12	B-DC13	B-DC14	B-DC15	B-DC16	B-Ph1	B-Ph2	B-Ph3	B-Ph4	B-Ph5	B-Ph6	B-Ph7	B-Ph8	B-Ph9	B-Ph10	B-Ph11	B-Ph12	B-Ph13	B-Ph14	B-Ph15	B-Ph16	

Term	0.00000e+00	0.00000e+00	0.00000e+00	0.00000e+00	0.00000e+00	0.00000e+00	0.00000e+00	0.00000e+00	0.00000e+00	0.00000e+00	0.00000e+00	0.00000e+00	0.00000e+00	0.00000e+00	0.00000e+00	0.00000e+00	0.00000e+00	0.00000e+00	0.00000e+00	0.00000e+00	0.00000e+00	0.00000e+00	0.00000e+00	0.00000e+00	0.00000e+00	0.00000e+00	0.00000e+00	0.00000e+00	0.00000e+00	0.00000e+00	0.00000e+00	0.00000e+00	-2.42741e+02	-1.55801e+02	-1.30442e+02	-1.82481e+02	-9.91373e+01	-5.97705e+01	-1.57793e+02	-1.62015e+02	-9.26830e+01	-6.05605e+01	-1.71410e+02	-1.70576e+02	-1.81136e+02	-1.76213e+02	-8.41416e+01	-1.49482e+02	
Factor	4.89592e-05	1.01473e-04	2.92524e-05	1.62080e-01	9.51960e-07	1.04877e-06	1.53107e-01	3.99569e-02	1.07762e-06	9.79278e-07	7.00297e-02	2.41918e-02	1.94195e-02	6.96819e-03	1.13135e-06	1.01434e-02	1.01517e-06	1.04419e-06	2.90279e-07	8.40594e-02	1.13893e-08	1.14537e-08	7.45432e-02	2.08403e-02	1.13918e-08	1.14551e-08	3.47523e-02	1.20131e-02	1.01154e-02	3.62274e-03	1.14149e-08	5.06097e-03	X	X	X	X	X	X	X	X	X	X	X	X	X	X	X	X	



#DISTANCE SETTINGS
A = Detector Channel
A-1	A-2	A-3	A-4	A-5	A-6	A-7	A-8	A-9	A-10	A-11	A-12	A-13	A-14	A-15	A-16	

2.5000e+00	3.0000e+00	2.5000e+00	3.0000e+00	2.0000e+00	3.0000e+00	1.5000e+00	3.0000e+00	3.0000e+00	3.0000e+00	3.0000e+00	3.0000e+00	3.0000e+00	3.0000e+00	1.5000e+00	3.0000e+00	

B = Detector Channel
B-1	B-2	B-3	B-4	B-5	B-6	B-7	B-8	B-9	B-10	B-11	B-12	B-13	B-14	B-15	B-16	

1.0000e+01	1.0000e+01	1.0000e+01	1.4400e+00	1.0000e+01	1.0000e+01	1.5100e+00	1.9400e+00	1.0000e+01	1.0000e+01	1.9900e+00	2.4900e+00	2.4100e+00	2.9000e+00	1.0000e+01	2.9800e+00	




#DATA BEGINS
time	group	step	mark	flag	A-AC1	A-AC2	A-AC3	A-AC4	A-AC5	A-AC6	A-AC7	A-AC8	A-AC9	A-AC10	A-AC11	A-AC12	A-AC13	A-AC14	A-AC15	A-AC16	A-DC1	A-DC2	A-DC3	A-DC4	A-DC5	A-DC6	A-DC7	A-DC8	A-DC9	A-DC10	A-DC11	A-DC12	A-DC13	A-DC14	A-DC15	A-DC16	A-Ph1	A-Ph2	A-Ph3	A-Ph4	A-Ph5	A-Ph6	A-Ph7	A-Ph8	A-Ph9	A-Ph10	A-Ph11	A-Ph12	A-Ph13	A-Ph14	A-Ph15	A-Ph16	B-AC1	B-AC2	B-AC3	B-AC4	B-AC5	B-AC6	B-AC7	B-AC8	B-AC9	B-AC10	B-AC11	B-AC12	B-AC13	B-AC14	B-AC15	B-AC16	B-DC1	B-DC2	B-DC3	B-DC4	B-DC5	B-DC6	B-DC7	B-DC8	B-DC9	B-DC10	B-DC11	B-DC12	B-DC13	B-DC14	B-DC15	B-DC16	B-Ph1	B-Ph2	B-Ph3	B-Ph4	B-Ph5	B-Ph6	B-Ph7	B-Ph8	B-Ph9	B-Ph10	B-Ph11	B-Ph12	B-Ph13	B-Ph14	B-Ph15	B-Ph16	aux-1	digaux	

1869.584	1	1	0	512	0.19154	0.19604	0.22535	0.1281	0.18247	0.23064	0.03846	0.20901	0.0888	0.24848	0.18993	0.14806	0.1647	0.37936	0.0084534	0.15534	-0.9875	-1.2667	-1.8813	-1.3292	-1.5229	-1.8604	-1.3167	-2.0979	-1.6208	-1.2146	-2.1604	-1.2188	-1.8292	-1.9188	-1.0958	-2.1729	309.762	315.304	355.603	471.389	183.504	348.191	138.931	473.590	172.604	273.394	378.598	142.376	472.203	441.355	377.442	456.277	0.001701	0.0003457	0.00010145	437.69	3.0647e-06	9.2903e-07	508.14	173.9	3.4654e-06	2.7969e-06	227.65	89.682	70.023	39.586	2.6548e-06	46.805	0.00015708	0.0001403	3.7871e-05	398.9	1.563e-06	1.51e-06	461.25	159.17	1.4835e-06	1.4797e-06	203.86	80.403	63.516	35.941	1.4971e-06	41.931	433.299	232.718	288.857	143.587	491.931	330.955	141.675	149.957	271.532	263.290	145.439	149.923	154.710	158.953	297.267	153.187	-8191	255	
1869.704	1	1	0	0	0.31461	0.070699	0.23597	0.12198	0.21913	0.18904	0.070546	0.18602	0.16684	0.10426	0.23202	0.040423	0.17286	0.18811	0.25704	0.18221	-1.0771	-1.3208	-2.1375	-1.2188	-1.4708	-1.8333	-0.98542	-1.9396	-1.6833	-1.2208	-2.0021	-1.35	-1.6729	-2.0604	-1.175	-2.0771	215.342	141.799	315.311	373.432	269.537	260.879	139.634	318.333	164.087	187.483	397.491	296.278	440.131	206.344	365.272	171.276	0.001454	0.00045996	4.1838e-05	440.49	4.5003e-06	2.2602e-06	516.37	176.08	6.1096e-06	2.9246e-06	227.78	90.731	69.933	39.87	6.2443e-06	46.833	0.00015903	0.00013411	3.857e-05	400.09	1.5032e-06	1.5196e-06	466.56	160.14	1.4749e-06	1.4994e-06	204.83	80.973	63.509	36.157	1.5025e-06	42.025	436.098	184.021	242.312	143.754	232.006	218.565	141.717	149.796	256.837	239.965	144.779	149.821	154.395	158.474	248.323	152.308	-8191	255	
1869.800	1	1	0	0	0.10484	0.27467	0.16465	0.042292	0.24472	0.06173	0.090393	0.27371	0.13241	0.15432	0.035558	0.067714	0.31437	0.25895	0.1143	0.12962	-1.4396	-1.1625	-1.9792	-1.4333	-1.4875	-2.0125	-1.1583	-1.9813	-1.7625	-1.2021	-2.0104	-1.5792	-1.525	-2.2979	-1.2604	-1.8417	449.982	154.742	260.819	431.569	332.243	395.770	480.861	244.511	407.764	276.446	368.144	398.382	461.777	464.138	257.645	419.283	0.0018437	0.00038763	0.00024401	437.27	4.041e-06	3.5083e-06	508.63	175.53	3.4387e-06	6.2397e-06	223.88	89.709	69.735	39.385	6.5203e-06	46.187	0.00015771	0.00013491	3.8062e-05	399.31	1.5207e-06	1.4757e-06	461.9	159.14	1.5282e-06	1.4269e-06	202.53	80.021	63.376	35.784	1.4802e-06	41.306	422.685	139.251	213.804	143.837	214.735	300.250	140.708	148.991	265.555	255.177	145.262	149.416	154.046	158.178	213.889	152.218	-8191	255	
1869.872	1	1	0	0	0.18191	0.15249	0.1741	0.17755	0.047461	0.21033	0.13223	0.17504	0.23142	0.046191	0.11009	0.2209	0.26326	0.14554	0.22572	0.31452	-1.5708	-1.0979	-1.8813	-1.5021	-1.2771	-2.1604	-1.5292	-1.8458	-1.8937	-1.0688	-1.8729	-1.6521	-1.3021	-2.0792	-1.2938	-1.6812	441.173	238.528	146.877	380.175	411.114	390.496	292.728	171.435	479.506	313.472	153.519	456.137	434.207	379.087	463.764	397.330	0.0015953	0.00041903	0.00021441	433.51	7.17e-06	1.9298e-06	504.03	174.01	8.7624e-06	2.8138e-06	222.5	88.854	69.46	39.336	3.373e-06	45.984	0.00015553	0.00013552	3.7401e-05	396.5	1.4892e-06	1.4877e-06	455.4	157.98	1.479e-06	1.4663e-06	200.08	79.147	62.76	35.702	1.5094e-06	41.157	434.028	167.256	184.305	143.462	268.748	426.283	141.034	149.718	238.523	320.000	145.252	148.921	154.210	158.214	268.531	152.571	-8191	255	
1869.968	1	1	0	0	0.10363	0.29391	0.13646	0.13075	0.19957	0.23062	0.23594	0.091912	0.072857	0.34257	0.32416	0.13954	0.093349	0.28988	0.18741	0.15311	-1.4917	-1.15	-1.8729	-1.6229	-1.125	-1.9625	-1.375	-1.7125	-2.0771	-1.2854	-1.8625	-1.8875	-1.0125	-2.1417	-1.4312	-1.6292	429.788	170.256	140.192	290.069	338.907	429.960	454.063	304.754	412.896	190.421	448.642	437.343	278.753	410.667	333.204	262.552	0.0014501	0.00030306	0.0001943	433.57	1.8528e-06	2.0464e-07	504.25	171.78	2.5611e-06	2.1723e-06	227.03	90.103	70.557	39.535	4.1064e-06	46.461	0.0001543	0.00013685	3.8732e-05	397.51	1.4697e-06	1.4394e-06	458.93	157.99	1.4809e-06	1.4865e-06	203.12	80.106	63.368	36.02	1.5005e-06	41.735	433.292	440.649	198.263	143.559	292.754	449.666	140.780	149.591	141.851	259.147	144.824	149.483	153.741	157.926	294.470	152.383	-8191	255	
1870.089	1	1	0	0	0.11832	0.15639	0.050727	0.14751	0.03619	0.24653	0.28797	0.13561	0.17065	0.11991	0.23349	0.061289	0.18632	0.16788	0.28682	0.23938	-1.7729	-1.175	-1.7396	-1.8229	-1.0583	-1.9479	-1.4042	-1.3229	-2.0687	-1.1229	-1.8229	-1.7958	-1.25	-2.1771	-1.3604	-1.1313	295.717	371.129	346.920	396.552	390.654	347.195	140.008	169.502	284.374	189.531	317.364	167.530	449.247	242.788	161.214	132.003	0.0016308	0.00019973	9.5752e-05	440.23	3.6195e-06	6.6177e-06	516.64	176.32	2.7276e-06	7.908e-06	230.09	91.3	70.777	40.069	5.2121e-06	47.292	0.00015821	0.00013856	3.7854e-05	401.13	1.508e-06	1.5071e-06	468.54	160.54	1.5371e-06	1.4924e-06	206.42	81.456	64.053	36.428	1.519e-06	42.533	431.704	224.025	196.628	143.315	313.015	291.874	141.120	148.902	319.012	283.592	144.859	149.664	153.658	158.266	234.991	152.307	-8191	255	
1870.183	1	1	0	0	0.17617	0.1335	0.11948	0.109	0.19924	0.28511	0.27726	0.21929	0.069308	0.35953	0.046185	0.24361	0.40228	0.34798	0.12707	0.31589	-1.6375	-1.2563	-1.6729	-1.7958	-1.05	-1.7917	-1.6396	-1.2979	-1.9979	-1.3792	-1.5604	-1.85	-1.3896	-1.8438	-1.5375	-1.3396	474.650	269.183	306.117	447.974	479.631	472.076	439.860	428.494	315.987	392.682	388.389	132.861	448.466	466.656	251.696	452.725	0.0015003	0.00035593	2.2698e-05	437.31	3.448e-06	4.1568e-06	518.26	174.67	7.7653e-06	2.8933e-06	227.54	91.555	70.387	39.947	4.5828e-06	46.828	0.00015734	0.00013794	3.9121e-05	402.37	1.4804e-06	1.5575e-06	471.28	160.21	1.5525e-06	1.5213e-06	205.96	81.658	63.7	36.36	1.5648e-06	42.083	432.345	300.754	253.642	142.707	215.559	287.686	140.762	149.190	258.372	337.538	145.094	149.338	153.736	158.248	267.428	152.123	-8191	255	
1870.281	1	1	0	0	0.14137	0.36551	0.2025	0.14047	0.084925	0.34071	0.1748	0.05519	0.22636	0.12198	0.066308	0.16999	0.23143	0.24711	0.097343	0.22225	-1.8021	-1.0896	-1.5604	-1.9104	-1.1396	-1.9083	-1.9542	-1.1542	-1.8917	-1.4083	-1.4396	-2.0583	-1.0771	-2.0687	-1.7396	-1.075	218.803	359.546	391.019	178.471	139.149	299.284	450.162	175.497	253.741	475.619	345.003	434.042	434.113	463.719	288.424	236.557	0.0018425	0.00045594	5.9313e-05	433.46	1.8564e-06	3.803e-06	505.72	171.9	3.4533e-06	7.9682e-06	221.7	89.162	69.359	39.177	5.0346e-06	45.688	0.00015606	0.00013586	3.8063e-05	398.12	1.4679e-06	1.5184e-06	456.59	157.54	1.5189e-06	1.5038e-06	200.26	79.432	62.887	35.716	1.5361e-06	41.055	437.116	238.756	174.238	143.780	291.796	274.396	141.123	148.905	239.757	275.250	144.967	149.526	153.707	158.211	204.237	152.221	-8191	255	
1870.376	1	1	0	0	0.068935	0.11416	0.20861	0.2757	0.27985	0.15913	0.12974	0.50007	0.13056	0.068632	0.094362	0.10552	0.28316	0.20075	0.10762	0.16577	-1.7854	-1.4208	-1.1688	-2.0896	-1.1958	-1.5938	-1.8021	-1.1146	-1.8937	-1.3479	-1.5271	-2.0104	-1.2792	-1.8021	-1.9708	-1.3438	202.172	179.513	165.336	157.064	434.570	482.383	461.636	388.821	135.159	345.921	268.460	273.190	231.724	449.110	198.219	382.141	0.0016788	0.00036527	9.25e-05	431.85	1.8277e-06	3.8082e-06	493.52	170.1	8.3828e-07	3.4973e-06	217.77	86.723	68.607	39.139	4.6804e-06	44.723	0.00015812	0.00013614	3.836e-05	395.5	1.4997e-06	1.5286e-06	450.85	155.43	1.5381e-06	1.5098e-06	195.29	77.666	62.034	35.427	1.5633e-06	40.189	433.719	238.874	231.691	143.526	220.662	411.157	140.936	148.817	401.924	327.157	145.200	149.614	153.542	158.144	355.126	152.244	-8191	255	
1870.496	1	1	0	0	0.19601	0.14899	0.099468	0.2608	0.074759	0.03272	0.16587	0.19506	0.11434	0.023234	0.095927	0.15305	0.22196	0.31277	0.082133	0.15084	-1.6021	-1.5583	-0.98125	-1.9208	-1.3979	-1.4854	-1.9813	-1.1875	-2.025	-1.4021	-1.1167	-2.1375	-1.2687	-1.6917	-2.1229	-1.1375	403.477	460.666	160.083	162.832	174.222	205.881	216.382	425.130	158.289	462.703	401.260	484.292	197.955	412.563	192.052	289.030	0.0014081	0.00052272	9.1003e-05	436.25	2.7478e-06	9.0134e-06	497.15	169.52	6.1114e-06	5.2847e-06	215.85	87.285	67.568	38.571	3.9467e-06	44.919	0.00015858	0.00013408	3.7073e-05	396.11	1.498e-06	1.4777e-06	450.77	154.78	1.472e-06	1.4838e-06	195.18	77.85	61.492	35.113	1.5267e-06	40.433	438.758	204.737	231.908	143.113	223.808	300.147	140.637	148.780	246.183	308.230	144.483	149.066	153.453	158.713	282.460	152.463	-8191	255	
1870.568	1	1	0	0	0.1341	0.1295	0.27931	0.09431	0.075042	0.22633	0.064492	0.11379	0.097184	0.17658	0.26291	0.091831	0.21269	0.29007	0.22071	0.19575	-1.4771	-1.7021	-1.1375	-2.0292	-1.4958	-1.4854	-2.1813	-1.1333	-1.6875	-1.8104	-1.0667	-2.0812	-1.4604	-1.4188	-1.9833	-1.2583	471.755	216.335	310.120	420.044	200.755	429.744	154.577	165.123	233.689	405.806	312.426	265.807	399.113	483.189	284.990	324.725	0.0016937	0.00057792	4.9424e-05	430.55	4.4631e-06	2.3918e-06	495.71	168.41	1.918e-06	3.1689e-06	216.85	87.662	67.561	38.862	3.6843e-06	45.471	0.00015644	0.00013385	3.6575e-05	393.97	1.4491e-06	1.4565e-06	452.4	154.08	1.5162e-06	1.4989e-06	196.15	78.208	61.533	35.263	1.5207e-06	40.831	428.247	237.040	401.636	143.286	291.971	471.133	140.536	148.752	278.772	251.881	144.710	149.518	153.445	158.561	239.006	152.128	-8191	255	
1870.664	1	1	0	0	0.10761	0.14953	0.18388	0.22302	0.35903	0.2389	0.43793	0.27856	0.069829	0.16779	0.2655	0.2392	0.33912	0.11454	0.11314	0.16442	-1.2792	-1.7708	-1.1292	-1.8833	-1.4917	-1.3417	-2.0625	-1.3375	-1.5521	-1.7313	-1.1333	-1.8729	-1.65	-1.5042	-2.0854	-1.4167	405.178	314.891	276.323	221.809	393.857	344.331	442.773	411.225	320.621	402.568	470.568	455.982	259.909	295.798	477.341	132.819	0.0016046	0.00029336	0.00010007	431.01	4.0731e-06	7.3562e-06	497.51	169.26	5.0021e-06	4.5094e-06	215.72	86.211	67.7	38.822	1.323e-05	44.854	0.00015553	0.00013772	3.8212e-05	395.55	1.5128e-06	1.5026e-06	451.05	153.86	1.5089e-06	1.5111e-06	194.21	77.34	61.428	35.253	1.5426e-06	40.428	427.933	226.820	335.957	143.352	268.086	271.597	140.938	149.146	212.181	300.581	144.896	149.465	153.969	158.400	254.233	152.278	-8191	255	
1870.785	1	1	0	0	0.39388	0.26915	0.082399	0.23196	0.18468	0.17082	0.17246	0.0046209	0.049553	0.058932	0.040816	0.20878	0.17897	0.34804	0.05049	0.15605	-0.91875	-1.7167	-1.1042	-1.7	-1.6437	-1.0812	-2.0938	-1.5187	-1.3833	-1.9479	-1.2146	-1.7604	-1.8229	-1.3208	-2.0208	-1.5792	300.264	176.927	167.665	460.549	302.287	419.238	455.196	205.374	243.093	320.259	326.769	217.751	446.290	190.160	438.093	412.638	0.0016053	0.00068638	6.6822e-05	430.56	8.1143e-07	1.9052e-06	492.08	168.7	3.434e-06	4.2192e-06	214.73	86.849	68.386	38.933	8.5255e-06	45.13	0.00015665	0.00013596	3.8588e-05	393.1	1.4923e-06	1.48e-06	446.6	153.74	1.4851e-06	1.5262e-06	194.18	77.631	61.643	35.217	1.5182e-06	40.487	430.194	178.524	188.366	143.204	346.583	278.676	141.097	148.982	298.569	284.986	144.441	149.645	153.897	158.033	304.303	152.098	-8191	255	
1870.881	1	1	0	0	0.12248	0.042495	0.12682	0.2001	0.11995	0.070463	0.29337	0.23164	0.19473	0.45636	0.30238	0.20748	0.28741	0.15911	0.12091	0.13531	-1.0229	-1.9146	-1.1562	-1.7	-1.7146	-1.3083	-1.95	-1.6562	-1.3396	-2.075	-1.3021	-1.7521	-1.9813	-1.2875	-1.8917	-1.55	225.300	199.055	179.817	273.350	452.342	366.233	378.579	443.555	371.690	218.109	434.571	402.591	468.734	451.450	207.749	465.322	0.0015967	0.00033541	8.8436e-05	435.08	1.3354e-06	2.2832e-06	497.9	169.61	1.6764e-06	5.8001e-06	219.78	88.136	68.638	38.936	4.2004e-06	46.045	0.00015218	0.00013397	3.8208e-05	396.5	1.4599e-06	1.4594e-06	452.9	154.7	1.5138e-06	1.5177e-06	197.58	78.815	62.161	35.456	1.5461e-06	41.279	431.072	187.224	204.858	143.412	143.632	250.258	140.935	148.608	261.016	302.741	144.619	149.413	153.370	158.146	244.052	152.260	-8191	255	
1870.977	1	1	0	0	0.073556	0.15004	0.054237	0.3538	0.10733	0.27672	0.08605	0.51522	0.15924	0.22035	0.25374	0.39857	0.28856	0.20781	0.16846	0.27781	-0.86458	-2.1896	-1.0792	-1.6812	-1.9375	-1.2083	-1.9312	-1.7229	-1.1042	-2.1271	-1.25	-1.55	-2.0292	-1.2521	-2.0021	-1.9542	358.993	472.617	232.044	423.645	351.320	158.954	292.100	430.118	479.665	338.997	424.149	404.557	470.800	396.454	240.601	395.613	0.0014742	0.00038121	0.00010574	434.7	3.0666e-06	3.2692e-06	505.05	171.04	8.7143e-06	4.1078e-07	222.49	89.502	68.969	39.526	5.9238e-06	46.792	0.00015472	0.00013565	3.765e-05	398.78	1.5052e-06	1.4556e-06	460.16	155.64	1.5163e-06	1.5198e-06	200.56	80.088	62.469	35.837	1.5373e-06	42.114	428.596	135.405	163.003	143.157	287.347	195.491	140.991	148.932	223.189	399.300	145.133	149.098	153.818	158.566	253.858	152.107	-8191	255	
1871.073	1	1	0	0	0.29385	0.22517	0.21877	0.44604	0.28296	0.316	0.40772	0.21976	0.16595	0.27865	0.24057	0.057611	0.10596	0.20012	0.12665	0.24988	-0.85417	-2.1	-1.3542	-1.5917	-2.1437	-1.1375	-1.8792	-1.8979	-1.1646	-2.0042	-1.5583	-1.4625	-2.1188	-1.2208	-1.7729	-1.8687	456.256	144.701	140.679	489.499	260.405	190.067	408.894	410.488	350.514	363.203	490.403	175.274	199.434	482.432	220.848	383.131	0.0016771	0.00078504	1.5938e-05	439.5	1.9483e-06	1.9707e-07	511.59	170.42	6.0307e-06	6.9615e-06	221.12	89.513	68.735	39.181	1.036e-05	46.041	0.00015704	0.00014042	3.7952e-05	401.17	1.5195e-06	1.5091e-06	465.06	155.69	1.466e-06	1.4946e-06	200.02	79.855	62.344	35.599	1.5037e-06	41.25	435.588	141.328	467.629	143.561	203.266	227.164	140.901	148.885	205.523	278.610	144.944	149.169	153.867	157.989	287.550	152.012	-8191	255	
1871.169	1	1	0	0	0.14936	0.22549	0.083852	0.22021	0.13302	0.048644	0.043391	0.33929	0.16221	0.20779	0.29748	0.45569	0.086861	0.085574	0.060657	0.26553	-0.65	-1.9708	-1.5271	-1.5521	-2.1125	-1.1875	-1.7938	-1.9167	-1.2625	-1.9167	-1.6458	-1.3875	-2.2062	-1.4771	-1.6146	-2.0417	470.791	478.321	273.140	144.007	433.012	252.885	134.275	416.329	280.786	167.220	459.259	424.054	186.448	163.072	213.392	264.234	0.0016875	0.00016806	0.00010737	433.86	1.9671e-06	7e-06	493.41	169.06	3.3912e-06	3.2096e-06	216.24	86.698	67.609	38.676	4.5254e-06	44.707	0.00015289	0.00013284	3.7083e-05	395.53	1.4911e-06	1.4399e-06	446.13	153.33	1.4682e-06	1.4771e-06	193.65	77.301	61.252	35.014	1.4824e-06	40.304	431.963	165.243	241.646	143.272	223.338	303.335	141.395	149.058	262.880	298.685	144.720	149.678	153.710	158.071	298.063	152.621	-8191	255	
1871.265	1	1	0	0	0.11896	0.22474	0.35128	0.24098	0.13106	0.15142	0.30642	0.12571	0.12926	0.22477	0.078674	0.17006	0.081884	0.24282	0.3247	0.13438	-0.77292	-1.8646	-1.6125	-1.2938	-2.2292	-1.3312	-1.6875	-2.0042	-1.2083	-1.7604	-1.8042	-1.2188	-2.175	-1.3458	-1.4688	-2.2167	452.583	340.048	230.604	439.313	327.772	168.925	418.096	475.514	233.702	418.448	475.836	262.023	455.385	147.503	242.267	458.424	0.0016418	0.00044128	3.2814e-05	431.64	2.9078e-06	1.3236e-06	492.36	168.01	6.7136e-06	3.7893e-06	214.2	87.149	68.329	38.776	6.4415e-06	45.813	0.00015107	0.00013515	3.6936e-05	392.71	1.447e-06	1.4689e-06	445.35	153.25	1.4632e-06	1.4558e-06	194.07	77.781	61.845	35.214	1.4566e-06	41.02	437.992	172.879	223.342	142.984	252.172	274.492	141.172	149.013	270.205	210.201	144.738	149.177	153.961	158.237	266.230	152.015	-8191	255	
