BOXY.EXE: ISS Imagent and Oximeter Data Acquisition Program Version 0.80
Ascii Record File

#ACQ INFORMATION
2  Detector Channels 
16  External MUX Channels 
1  Auxiliary Channels 
5000  Waveform (CCF) Frequency (Hz)
1  Waveforms Skipped 
30  Waveforms Averaged 
1  Cycles Averaged 
16  Acquisitions per Waveform 
10.0806  Updata Rate (Hz) 

#FILE INFORMATION
TRUE -- External MUX Channel results are PARSED.
FALSE -- AC DC and Phase are NOT grouped.
TRUE -- Companion Program Settings File CREATED.
FALSE -- AC data not excluded
FALSE -- DC data not excluded
FALSE -- Phase data not excluded
FALSE -- Auxillary Chn. data not excluded
Tab delimiters

#CALIBRATION STATE
TRUE -- Waveform Calibration Values APPLIED.


#AUX CALIBRATION VALUES
Val Type	aux-1	

Term	1.0000e+00	
Factor	0.0000e+00	


#WF CALIBRATION VALUES
A = Detector Channel
Val Type	A-AC1	A-AC2	A-AC3	A-AC4	A-AC5	A-AC6	A-AC7	A-AC8	A-AC9	A-AC10	A-AC11	A-AC12	A-AC13	A-AC14	A-AC15	A-AC16	A-DC1	A-DC2	A-DC3	A-DC4	A-DC5	A-DC6	A-DC7	A-DC8	A-DC9	A-DC10	A-DC11	A-DC12	A-DC13	A-DC14	A-DC15	A-DC16	A-Ph1	A-Ph2	A-Ph3	A-Ph4	A-Ph5	A-Ph6	A-Ph7	A-Ph8	A-Ph9	A-Ph10	A-Ph11	A-Ph12	A-Ph13	A-Ph14	A-Ph15	A-Ph16	

Term	0.00000e+00	0.00000e+00	0.00000e+00	0.00000e+00	0.00000e+00	0.00000e+00	0.00000e+00	0.00000e+00	0.00000e+00	0.00000e+00	0.00000e+00	0.00000e+00	0.00000e+00	0.00000e+00	0.00000e+00	0.00000e+00	0.00000e+00	0.00000e+00	0.00000e+00	0.00000e+00	0.00000e+00	0.00000e+00	0.00000e+00	0.00000e+00	0.00000e+00	0.00000e+00	0.00000e+00	0.00000e+00	0.00000e+00	0.00000e+00	0.00000e+00	0.00000e+00	0.00000e+00	0.00000e+00	0.00000e+00	0.00000e+00	0.00000e+00	0.00000e+00	0.00000e+00	0.00000e+00	0.00000e+00	0.00000e+00	0.00000e+00	0.00000e+00	0.00000e+00	0.00000e+00	0.00000e+00	0.00000e+00	
Factor	1.00000e+00	1.00000e+00	1.00000e+00	1.00000e+00	1.00000e+00	1.00000e+00	1.00000e+00	1.00000e+00	1.00000e+00	1.00000e+00	1.00000e+00	1.00000e+00	1.00000e+00	1.00000e+00	1.00000e+00	1.00000e+00	1.00000e+00	1.00000e+00	1.00000e+00	1.00000e+00	1.00000e+00	1.00000e+00	1.00000e+00	1.00000e+00	1.00000e+00	1.00000e+00	1.00000e+00	1.00000e+00	1.00000e+00	1.00000e+00	1.00000e+00	1.00000e+00	X	X	X	X	X	X	X	X	X	X	X	X	X	X	X	X	

B = Detector Channel
Val Type	B-AC1	B-AC2	B-AC3	B-AC4	B-AC5	B-AC6	B-AC7	B-AC8	B-AC9	B-AC10	B-AC11	B-AC12	B-AC13	B-AC14	B-AC15	B-AC16	B-DC1	B-DC2	B-DC3	B-DC4	B-DC5	B-DC6	B-DC7	B-DC8	B-DC9	B-DC10	B-DC11	B-DC12	B-DC13	B-DC14	B-DC15	B-DC16	B-Ph1	B-Ph2	B-Ph3	B-Ph4	B-Ph5	B-Ph6	B-Ph7	B-Ph8	B-Ph9	B-Ph10	B-Ph11	B-Ph12	B-Ph13	B-Ph14	B-Ph15	B-Ph16	

Term	0.00000e+00	0.00000e+00	0.00000e+00	0.00000e+00	0.00000e+00	0.00000e+00	0.00000e+00	0.00000e+00	0.00000e+00	0.00000e+00	0.00000e+00	0.00000e+00	0.00000e+00	0.00000e+00	0.00000e+00	0.00000e+00	0.00000e+00	0.00000e+00	0.00000e+00	0.00000e+00	0.00000e+00	0.00000e+00	0.00000e+00	0.00000e+00	0.00000e+00	0.00000e+00	0.00000e+00	0.00000e+00	0.00000e+00	0.00000e+00	0.00000e+00	0.00000e+00	-2.42741e+02	-1.55801e+02	-1.30442e+02	-1.82481e+02	-9.91373e+01	-5.97705e+01	-1.57793e+02	-1.62015e+02	-9.26830e+01	-6.05605e+01	-1.71410e+02	-1.70576e+02	-1.81136e+02	-1.76213e+02	-8.41416e+01	-1.49482e+02	
Factor	4.89592e-05	1.01473e-04	2.92524e-05	1.62080e-01	9.51960e-07	1.04877e-06	1.53107e-01	3.99569e-02	1.07762e-06	9.79278e-07	7.00297e-02	2.41918e-02	1.94195e-02	6.96819e-03	1.13135e-06	1.01434e-02	1.01517e-06	1.04419e-06	2.90279e-07	8.40594e-02	1.13893e-08	1.14537e-08	7.45432e-02	2.08403e-02	1.13918e-08	1.14551e-08	3.47523e-02	1.20131e-02	1.01154e-02	3.62274e-03	1.14149e-08	5.06097e-03	X	X	X	X	X	X	X	X	X	X	X	X	X	X	X	X	



#DISTANCE SETTINGS
A = Detector Channel
A-1	A-2	A-3	A-4	A-5	A-6	A-7	A-8	A-9	A-10	A-11	A-12	A-13	A-14	A-15	A-16	

2.5000e+00	3.0000e+00	2.5000e+00	3.0000e+00	2.0000e+00	3.0000e+00	1.5000e+00	3.0000e+00	3.0000e+00	3.0000e+00	3.0000e+00	3.0000e+00	3.0000e+00	3.0000e+00	1.5000e+00	3.0000e+00	

B = Detector Channel
B-1	B-2	B-3	B-4	B-5	B-6	B-7	B-8	B-9	B-10	B-11	B-12	B-13	B-14	B-15	B-16	

1.0000e+01	1.0000e+01	1.0000e+01	1.4400e+00	1.0000e+01	1.0000e+01	1.5100e+00	1.9400e+00	1.0000e+01	1.0000e+01	1.9900e+00	2.4900e+00	2.4100e+00	2.9000e+00	1.0000e+01	2.9800e+00	




#DATA BEGINS
time	group	step	mark	flag	A-AC1	A-AC2	A-AC3	A-AC4	A-AC5	A-AC6	A-AC7	A-AC8	A-AC9	A-AC10	A-AC11	A-AC12	A-AC13	A-AC14	A-AC15	A-AC16	A-DC1	A-DC2	A-DC3	A-DC4	A-DC5	A-DC6	A-DC7	A-DC8	A-DC9	A-DC10	A-DC11	A-DC12	A-DC13	A-DC14	A-DC15	A-DC16	A-Ph1	A-Ph2	A-Ph3	A-Ph4	A-Ph5	A-Ph6	A-Ph7	A-Ph8	A-Ph9	A-Ph10	A-Ph11	A-Ph12	A-Ph13	A-Ph14	A-Ph15	A-Ph16	B-AC1	B-AC2	B-AC3	B-AC4	B-AC5	B-AC6	B-AC7	B-AC8	B-AC9	B-AC10	B-AC11	B-AC12	B-AC13	B-AC14	B-AC15	B-AC16	B-DC1	B-DC2	B-DC3	B-DC4	B-DC5	B-DC6	B-DC7	B-DC8	B-DC9	B-DC10	B-DC11	B-DC12	B-DC13	B-DC14	B-DC15	B-DC16	B-Ph1	B-Ph2	B-Ph3	B-Ph4	B-Ph5	B-Ph6	B-Ph7	B-Ph8	B-Ph9	B-Ph10	B-Ph11	B-Ph12	B-Ph13	B-Ph14	B-Ph15	B-Ph16	aux-1	digaux	

1494.030	1	1	0	512	0.29616	0.13864	0.18346	0.079691	0.31543	0.0163	0.19808	0.057916	0.43649	0.087069	0.089854	0.10222	0.030513	0.031958	0.019812	0.28778	-0.75417	-2.0062	-1.4792	-1.3708	-2.1104	-1.2979	-1.7458	-2.0208	-1.1896	-2.0292	-1.5792	-1.2667	-2.1083	-1.2792	-1.5542	-2.0104	231.025	355.656	344.121	306.864	110.085	139.535	366.167	384.369	334.938	189.297	415.176	278.020	199.656	241.015	321.755	363.056	0.00075383	0.00030058	0.00010424	417.68	4.1178e-06	3.9135e-06	401.53	128.62	4.4735e-06	5.9403e-07	146.63	58.16	49.331	20.495	3.1163e-06	24.964	0.00030615	0.00030698	8.5406e-05	428.5	3.3222e-06	3.3264e-06	410.86	132.44	3.3093e-06	3.3597e-06	151.67	59.196	50.784	21.123	3.369e-06	25.415	427.024	345.120	180.708	101.097	138.098	309.127	98.802	106.095	188.781	329.158	102.664	107.022	110.883	115.601	170.625	110.647	-8191	255	
1494.150	1	1	0	0	0.26134	0.059491	0.34346	0.34628	0.10346	0.25932	0.14039	0.39231	0.060502	0.11563	0.34306	0.50342	0.22822	0.17964	0.15739	0.33713	-0.63542	-1.7667	-1.6167	-1.1313	-2.1312	-1.2146	-1.55	-1.9667	-1.3104	-2.0187	-1.5938	-1.2375	-2.2687	-1.4813	-1.4354	-2.025	428.897	439.570	236.976	178.818	315.415	427.621	297.890	360.509	115.298	370.747	232.949	443.938	125.721	360.331	352.964	229.429	0.00093365	0.00031929	9.717e-05	408.87	4.573e-06	2.1335e-06	395.75	131.72	4.0193e-06	2.3839e-06	151.59	60.057	50.633	21.252	1.9472e-06	25.754	0.00030293	0.0003065	8.5046e-05	422.21	3.3789e-06	3.3473e-06	408.05	134.63	3.338e-06	3.4204e-06	156.26	61.259	52.152	21.847	3.4133e-06	26.337	417.347	123.383	152.252	100.805	243.665	243.138	98.762	106.303	217.122	111.652	102.879	107.255	110.989	115.841	361.187	110.923	-8191	255	
1494.245	1	1	0	0	0.044427	0.20707	0.30663	0.2611	0.047643	0.14433	0.39224	0.25954	0.18282	0.28714	0.25489	0.19703	0.23007	0.12344	0.11444	0.35427	-0.71667	-1.7167	-1.8542	-1.3333	-1.8917	-1.5625	-1.4354	-2.0896	-1.4521	-1.7125	-1.6979	-1.1583	-2.0833	-1.475	-1.4333	-2.0917	154.152	151.802	104.700	391.560	144.062	174.951	383.789	425.481	441.624	369.687	158.977	274.560	110.564	161.125	138.474	134.885	0.00069206	9.1174e-05	5.3276e-05	413.76	3.5126e-06	4.5807e-06	406.81	131.88	3.7077e-06	4.4234e-06	153.04	59.632	50.061	20.897	4.2493e-06	25.611	0.00031192	0.00031535	8.6697e-05	427.48	3.4481e-06	3.4144e-06	417.44	135.85	3.3871e-06	3.4505e-06	157.53	60.99	51.555	21.502	3.3892e-06	26.24	422.292	94.234	321.907	100.734	298.743	308.502	98.765	106.093	124.919	196.348	102.507	107.113	111.190	115.678	281.685	110.866	-8191	255	
1494.341	1	1	0	0	0.045846	0.077947	0.25212	0.16657	0.2886	0.17655	0.11233	0.16715	0.20401	0.16035	0.13899	0.14605	0.14179	0.12516	0.086965	0.11538	-0.94375	-1.7229	-2.0479	-1.2229	-2.1417	-1.6729	-1.3896	-2.1042	-1.3813	-1.4833	-1.8875	-1.1792	-2.0708	-1.7563	-1.2687	-2.1771	363.202	312.749	307.560	391.574	439.261	364.710	141.726	316.659	431.262	94.878	227.380	185.558	201.711	404.380	308.945	353.773	0.00058493	0.00043023	3.2036e-06	417.46	4.4965e-06	1.6478e-06	412.32	131.4	1.55e-06	2.5912e-06	150.12	58.239	49.183	20.025	5.5191e-06	24.42	0.00031285	0.00031536	8.7184e-05	430.08	3.4688e-06	3.405e-06	419.96	134.78	3.4326e-06	3.4876e-06	154.88	59.277	50.597	20.692	3.393e-06	25.138	407.826	421.543	222.763	100.484	244.213	401.677	98.846	106.164	140.064	155.002	102.678	107.050	110.806	115.370	217.650	110.385	-8191	255	
1494.437	1	1	0	0	0.25918	0.24501	0.10247	0.19848	0.10519	0.19053	0.37882	0.40314	0.14208	0.24684	0.074005	0.17143	0.10841	0.26598	0.23591	0.10091	-0.93333	-1.65	-1.9	-1.1167	-1.9062	-1.6354	-1.1812	-2.2542	-1.4937	-1.3917	-2.0729	-1.2646	-1.7354	-2.0542	-1.3104	-2.0375	256.288	445.584	104.251	412.617	445.120	196.194	385.438	413.372	268.037	222.945	387.654	134.057	378.058	257.188	99.187	285.276	0.00083634	0.00037265	0.00013284	414.55	4.8301e-06	1.1661e-06	405.62	130.2	4.6403e-06	9.0715e-07	148.88	58.111	48.961	20.117	9.2946e-06	24.028	0.00030883	0.00030998	8.6026e-05	427.81	3.4169e-06	3.3846e-06	415.43	133.84	3.346e-06	3.3841e-06	153.66	59.298	50.421	20.708	3.3102e-06	24.762	407.652	175.682	117.339	101.012	255.115	418.265	98.751	106.224	208.463	207.719	102.742	107.045	111.223	115.943	276.177	110.906	-8191	255	
1494.533	1	1	0	0	0.058566	0.089606	0.27503	0.22964	0.034755	0.19036	0.096285	0.051855	0.055329	0.33775	0.35589	0.051983	0.089716	0.092035	0.093022	0.069369	-1.1229	-1.3229	-2.0333	-1.2146	-1.6833	-1.9396	-1.2146	-2.0375	-1.4542	-1.4688	-2.1771	-1.1625	-1.8833	-2.0354	-1.075	-1.8563	205.180	170.720	388.837	104.348	172.052	440.105	334.495	90.318	336.260	199.293	346.897	410.259	312.425	97.536	95.156	106.148	0.00093911	0.00018997	8.3324e-05	414.26	1.9627e-06	2.7337e-06	402.61	129.09	6.8141e-07	2.3852e-06	148.83	59.261	50.198	20.976	8.7364e-06	25.34	0.00030827	0.00030298	8.5114e-05	425.49	3.3425e-06	3.3234e-06	411.45	132.51	3.2462e-06	3.2357e-06	153.7	60.098	51.414	21.563	3.2036e-06	25.871	411.147	183.259	144.268	100.742	204.380	188.801	98.761	106.524	150.426	361.512	102.661	107.469	111.202	115.740	210.843	111.133	-8191	255	
1494.629	1	1	0	0	0.2192	0.25948	0.33138	0.065465	0.49658	0.22926	0.12513	0.22599	0.082474	0.11225	0.4037	0.16854	0.14502	0.018367	0.16016	0.34964	-1.1167	-1.4646	-2.0458	-1.3396	-1.6396	-2.0958	-1.2021	-2.1354	-1.7917	-1.3438	-2.2	-1.4375	-1.7271	-2.0687	-1.3375	-1.9667	168.799	392.400	285.149	373.912	243.151	214.085	378.029	398.805	250.894	316.355	153.171	130.722	122.294	235.917	174.635	159.263	0.00095462	0.00021177	3.4494e-05	406.8	3.907e-06	1.0319e-06	400.92	129.74	1.9794e-06	1.035e-06	150.77	61.093	51.853	22.515	3.9734e-06	27.31	0.00029689	0.00029103	8.1672e-05	420.85	3.1707e-06	3.1538e-06	408.7	132.71	3.1304e-06	3.1112e-06	154.8	62.134	52.723	23.036	3.0193e-06	27.744	413.433	423.499	110.131	101.214	206.904	318.457	98.705	106.506	227.828	412.370	102.894	107.481	110.968	115.689	218.693	111.292	-8191	255	
1494.750	1	1	0	0	0.30122	0.20634	0.1012	0.44773	0.068732	0.2099	0.25325	0.027787	0.21529	0.12956	0.22993	0.3116	0.42651	0.21202	0.15745	0.15655	-1.475	-1.1417	-2.1437	-1.4646	-1.3125	-2.0104	-1.2958	-1.8479	-1.8188	-1.2437	-2.2562	-1.5625	-1.4792	-2.3375	-1.2833	-1.8083	371.512	440.449	400.958	444.859	212.572	200.317	441.638	352.652	439.833	205.028	441.712	268.182	409.731	92.692	373.703	149.466	0.0010747	0.00070425	1.1312e-05	401.48	4.5837e-06	4.369e-06	397.39	130.22	4.3531e-06	1.5127e-06	153.75	65.079	54.304	24.401	2.3681e-06	29.322	0.00028429	0.00027567	7.7853e-05	412.51	2.9712e-06	3.0387e-06	403.73	133.53	2.988e-06	2.9399e-06	157.29	65.298	55.158	24.838	2.9415e-06	29.599	426.132	205.604	284.322	100.825	188.983	242.626	98.930	106.682	240.195	236.915	102.776	107.499	111.331	116.072	226.759	110.682	-8191	255	
1494.846	1	1	0	0	0.17377	0.31348	0.18844	0.061943	0.29476	0.16878	0.23744	0.13278	0.094121	0.12873	0.13579	0.25839	0.080831	0.11253	0.059541	0.18972	-1.6333	-1.1792	-1.9354	-1.5625	-1.4208	-2.0021	-1.3479	-1.7833	-1.9937	-1.3854	-2.0646	-1.4625	-1.3729	-2.0354	-1.4208	-1.8333	124.823	135.432	190.386	366.008	338.819	352.249	402.737	364.438	209.960	169.142	383.556	390.164	228.877	124.848	284.551	242.539	0.0010036	0.00026274	9.4923e-05	394.06	2.4571e-06	2.0734e-06	391.44	133.5	3.4574e-06	3.0235e-06	156.1	66.816	56.119	25.597	4.2359e-06	29.809	0.00027558	0.00026375	7.6361e-05	404.99	2.9124e-06	2.8954e-06	399.57	135.94	2.9108e-06	2.8638e-06	159.55	67.321	56.871	25.914	2.9208e-06	30.173	414.715	167.926	187.625	101.179	322.950	383.310	98.711	106.477	225.987	198.656	102.289	107.252	111.400	116.099	211.606	110.958	-8191	255	
1494.942	1	1	0	0	0.023757	0.11806	0.12944	0.11438	0.018908	0.20723	0.38019	0.095164	0.26438	0.11147	0.28801	0.10749	0.15311	0.15555	0.29826	0.18766	-1.5854	-1.175	-1.8521	-1.7104	-1.2896	-2.1708	-1.5042	-1.6583	-2.0104	-1.1979	-2.0625	-1.7708	-1.3146	-1.9979	-1.4062	-1.4521	234.213	306.931	209.783	368.668	211.583	323.804	417.113	438.437	261.553	150.050	420.591	188.315	356.941	223.138	90.368	386.851	0.00097173	0.00019477	5.3639e-05	399.05	3.3896e-07	5.3506e-06	401.22	133.17	5.2132e-06	6.5225e-06	157.51	65.232	54.486	23.813	2.8897e-06	28.405	0.0002769	0.00026788	7.564e-05	411.71	2.9845e-06	2.9605e-06	408.85	136.11	2.9926e-06	2.9393e-06	159.92	66.044	55.424	24.339	3.0001e-06	28.79	423.139	431.235	322.446	100.960	249.252	295.204	98.626	106.676	211.056	322.178	103.085	107.029	111.269	116.070	182.663	110.964	-8191	255	
1495.038	1	1	0	0	0.14798	0.26857	0.3383	0.067164	0.041478	0.068654	0.18003	0.039616	0.29358	0.13356	0.31653	0.10485	0.25856	0.25976	0.30344	0.20447	-1.8438	-1.0187	-1.7854	-1.8375	-1.3021	-2.0479	-1.6542	-1.5771	-2.0479	-1.1146	-1.9479	-1.925	-1.2958	-2.2083	-1.725	-1.4896	387.607	143.786	369.611	104.031	316.161	369.716	294.280	339.284	368.612	171.918	428.717	104.475	144.740	339.502	355.846	315.628	0.001066	0.00088618	0.00015381	411.06	3.3728e-06	2.1555e-06	412.99	133.56	3.0295e-06	5.7119e-07	158.31	65.524	54.003	23.638	5.0112e-06	28.574	0.00028326	0.00027405	7.714e-05	422.88	2.9909e-06	3.0529e-06	421.14	136.56	3.0423e-06	3.0266e-06	161.83	66.114	55.119	24.026	3.0389e-06	28.748	417.463	164.812	209.238	100.898	211.141	162.962	98.501	106.577	186.345	174.283	102.915	107.457	111.586	115.985	255.090	110.852	-8191	255	
1495.133	1	1	0	0	0.10907	0.31728	0.10376	0.10832	0.04574	0.093018	0.238	0.23024	0.17198	0.165	0.067588	0.1262	0.038503	0.3742	0.17341	0.24256	-1.8604	-1.4604	-1.8167	-2.0833	-1.3708	-2.0667	-1.8438	-1.3125	-2.0896	-1.3375	-1.6729	-1.9104	-1.1479	-1.9667	-1.7854	-1.2167	350.108	301.764	200.768	311.979	201.329	362.229	299.835	317.072	396.147	167.333	98.899	432.637	276.784	424.146	322.025	331.025	0.0009678	0.00038559	0.00011529	416.34	4.2393e-06	5.3364e-06	417.38	133.84	5.0631e-06	5.2032e-06	158.06	65.043	54.206	23.535	4.5576e-06	28.054	0.00028355	0.00027763	7.7397e-05	429.28	2.9733e-06	3.0272e-06	426.25	137.24	3.0247e-06	2.9732e-06	160.89	65.721	55.046	23.973	3.0021e-06	28.458	410.150	94.861	249.915	100.560	198.842	191.223	99.033	106.863	180.702	242.649	103.109	107.115	111.372	116.311	214.261	111.124	-8191	255	
1495.229	1	1	0	0	0.18139	0.22486	0.25641	0.1535	0.19328	0.082977	0.060674	0.12713	0.1172	0.40463	0.064751	0.11331	0.12589	0.27072	0.19205	0.17515	-1.7792	-1.3875	-1.55	-2.2542	-1.15	-1.8146	-1.9937	-1.2854	-2.2104	-1.3979	-1.5896	-2.1604	-1.2521	-1.6688	-1.8458	-1.2583	143.563	359.155	272.415	422.504	274.441	284.845	420.927	300.355	167.930	192.130	108.636	333.457	406.254	388.959	448.711	229.370	0.0009667	5.0636e-05	6.9123e-05	420.66	9.0588e-07	5.2019e-06	420.17	134.95	4.5622e-06	3.4947e-06	156.05	64.596	53.948	23.197	6.392e-06	27.802	0.00028523	0.00027103	7.5085e-05	430.48	2.9286e-06	2.9706e-06	427.26	137.53	3.0428e-06	2.971e-06	159.91	65.032	54.802	23.665	2.9405e-06	28	430.287	224.005	367.071	100.888	143.289	276.269	98.387	106.770	184.694	122.427	102.669	107.331	111.196	116.116	272.192	110.839	-8191	255	
1495.325	1	1	0	0	0.14536	0.080864	0.12528	0.2291	0.22682	0.13874	0.16293	0.16921	0.057422	0.066611	0.11365	0.053254	0.050927	0.23527	0.18224	0.22303	-1.4958	-1.5104	-1.4583	-2.15	-1.2604	-1.8646	-2.0104	-1.1833	-1.8729	-1.625	-1.375	-2.1146	-1.2042	-1.7104	-2.1125	-1.0958	439.180	308.417	123.561	333.789	94.564	402.377	290.287	309.317	436.317	247.739	411.736	307.512	107.162	425.288	308.571	141.096	0.0010663	0.00031844	0.00014495	421.48	3.3419e-06	1.8235e-06	421.76	134.75	3.0566e-07	2.6512e-06	157.94	64.578	53.689	23.637	7.4782e-06	28.222	0.00027848	0.00027084	7.5003e-05	433.39	2.9532e-06	2.9597e-06	429.86	137.61	2.9941e-06	2.9286e-06	160.12	64.94	54.829	24.02	2.9399e-06	28.408	413.368	447.983	103.826	101.087	197.423	202.547	99.027	106.337	119.977	244.603	102.823	107.647	111.015	115.871	181.609	111.126	-8191	255	
1495.446	1	1	0	0	0.13184	0.17338	0.19623	0.15237	0.2012	0.16371	0.10384	0.18184	0.071222	0.27706	0.12822	0.18718	0.25892	0.18215	0.10277	0.18799	-1.5875	-1.6979	-1.2521	-2.0875	-1.0729	-1.5708	-1.9438	-1.1667	-1.8333	-1.4688	-1.3813	-2.1292	-1.5125	-1.5208	-2.0292	-1.2917	392.190	143.370	302.536	235.310	218.543	424.562	236.786	385.076	322.105	422.670	251.297	246.907	413.524	287.057	287.593	369.871	0.00082592	0.00022397	5.5525e-05	424.33	3.7268e-06	3.5486e-06	428.34	135.14	6.5442e-06	2.4158e-06	157.89	64.749	54.266	23.837	3.6702e-06	28.408	0.0002784	0.00026902	7.4031e-05	434.55	2.9292e-06	2.9826e-06	434.7	138.09	2.9459e-06	2.9491e-06	161.29	65.543	55.247	24.211	2.9196e-06	28.69	409.524	232.006	146.932	101.097	162.970	297.520	98.756	106.545	236.494	216.831	103.044	107.431	111.224	115.971	181.498	110.712	-8191	255	
1495.542	1	1	0	0	0.017741	0.24009	0.077835	0.49347	0.25831	0.21154	0.28054	0.26625	0.08551	0.20277	0.23892	0.24079	0.093077	0.25828	0.11263	0.2114	-1.5688	-1.9125	-1.3625	-2.0292	-1.275	-1.4979	-2.1188	-1.3521	-1.7333	-1.7833	-1.2771	-2.1125	-1.4292	-1.55	-2.1083	-1.1125	309.859	150.925	234.319	375.661	365.706	320.839	311.119	333.845	104.229	425.075	140.700	395.049	421.610	349.555	296.511	272.046	0.0010179	0.00014088	8.8047e-05	426.18	2.9967e-06	7.9261e-07	424.87	135.11	1.3387e-06	3.206e-06	156.01	64.543	53.969	23.436	6.5444e-06	27.885	0.00027395	0.00026409	7.3742e-05	435.54	2.9004e-06	2.879e-06	431.33	137.83	2.9214e-06	2.9081e-06	159.42	64.805	54.684	23.864	2.8819e-06	28.108	421.323	260.707	195.604	101.125	213.476	302.745	98.668	106.587	179.357	213.620	102.937	107.198	111.093	115.859	203.394	111.160	-8191	255	
1495.638	1	1	0	0	0.20752	0.2205	0.10808	0.24751	0.17789	0.11238	0.13289	0.197	0.15494	0.26189	0.11885	0.31412	0.10206	0.21797	0.095204	0.16882	-1.3917	-2.0104	-1.2021	-2.2042	-1.5312	-1.2167	-2.2292	-1.3604	-1.6812	-1.8771	-1.0333	-1.8792	-1.8604	-1.4104	-2.0563	-1.4833	239.402	423.035	247.310	338.766	209.513	91.310	92.823	435.585	103.505	185.697	219.488	408.441	442.854	322.002	299.959	393.664	0.0009912	5.8152e-05	0.00016446	422.46	5.6728e-06	7.1193e-07	421.99	133.99	1.6848e-06	2.8217e-06	153.43	62.263	52.321	22.771	3.6983e-06	26.935	0.00026721	0.00026489	7.2739e-05	432.11	2.8444e-06	2.8821e-06	428.57	136.12	2.8835e-06	2.8535e-06	156	62.724	52.985	23.219	2.8853e-06	27.394	425.199	232.803	126.468	100.997	249.806	152.099	98.923	106.543	162.288	269.452	102.818	107.440	111.261	116.133	330.151	110.779	-8191	255	
1495.710	1	1	0	0	0.13754	0.23288	0.18663	0.11236	0.048564	0.097439	0.238	0.17154	0.18711	0.17235	0.19709	0.077857	0.041043	0.14457	0.13979	0.30214	-1.3354	-1.8896	-1.1208	-1.8708	-1.7104	-1.2188	-2.1854	-1.2792	-1.3896	-1.9542	-1.0958	-1.8417	-1.9188	-1.2896	-2.1146	-1.4708	422.075	286.466	389.142	333.804	234.100	361.235	399.526	408.275	244.701	268.279	338.258	447.158	407.268	121.159	396.245	402.445	0.00074726	0.00038799	7.3327e-05	423.73	4.9253e-06	2.1016e-06	418.17	130.85	4.1623e-06	3.4278e-06	147.88	58.584	49.9	21.59	3.9805e-06	25.718	0.00026807	0.0002583	7.1136e-05	433.14	2.799e-06	2.7969e-06	424.22	133.53	2.8165e-06	2.824e-06	150.95	59.526	50.866	21.982	2.8599e-06	26.049	418.897	162.518	143.883	101.364	211.657	247.335	98.836	106.327	183.693	328.113	102.437	107.694	111.069	115.942	218.289	111.162	-8191	255	
