BOXY.EXE: ISS Imagent and Oximeter Data Acquisition Program Version 0.80
Ascii Record File

#ACQ INFORMATION
2  Detector Channels 
16  External MUX Channels 
1  Auxiliary Channels 
5000  Waveform (CCF) Frequency (Hz)
1  Waveforms Skipped 
30  Waveforms Averaged 
1  Cycles Averaged 
16  Acquisitions per Waveform 
10.0806  Updata Rate (Hz) 

#FILE INFORMATION
TRUE -- External MUX Channel results are PARSED.
FALSE -- AC DC and Phase are NOT grouped.
TRUE -- Companion Program Settings File CREATED.
FALSE -- AC data not excluded
FALSE -- DC data not excluded
FALSE -- Phase data not excluded
FALSE -- Auxillary Chn. data not excluded
Tab delimiters

#CALIBRATION STATE
TRUE -- Waveform Calibration Values APPLIED.


#AUX CALIBRATION VALUES
Val Type	aux-1	

Term	1.0000e+00	
Factor	0.0000e+00	


#WF CALIBRATION VALUES
A = Detector Channel
Val Type	A-AC1	A-AC2	A-AC3	A-AC4	A-AC5	A-AC6	A-AC7	A-AC8	A-AC9	A-AC10	A-AC11	A-AC12	A-AC13	A-AC14	A-AC15	A-AC16	A-DC1	A-DC2	A-DC3	A-DC4	A-DC5	A-DC6	A-DC7	A-DC8	A-DC9	A-DC10	A-DC11	A-DC12	A-DC13	A-DC14	A-DC15	A-DC16	A-Ph1	A-Ph2	A-Ph3	A-Ph4	A-Ph5	A-Ph6	A-Ph7	A-Ph8	A-Ph9	A-Ph10	A-Ph11	A-Ph12	A-Ph13	A-Ph14	A-Ph15	A-Ph16	

Term	0.00000e+00	0.00000e+00	0.00000e+00	0.00000e+00	0.00000e+00	0.00000e+00	0.00000e+00	0.00000e+00	0.00000e+00	0.00000e+00	0.00000e+00	0.00000e+00	0.00000e+00	0.00000e+00	0.00000e+00	0.00000e+00	0.00000e+00	0.00000e+00	0.00000e+00	0.00000e+00	0.00000e+00	0.00000e+00	0.00000e+00	0.00000e+00	0.00000e+00	0.00000e+00	0.00000e+00	0.00000e+00	0.00000e+00	0.00000e+00	0.00000e+00	0.00000e+00	0.00000e+00	0.00000e+00	0.00000e+00	0.00000e+00	0.00000e+00	0.00000e+00	0.00000e+00	0.00000e+00	0.00000e+00	0.00000e+00	0.00000e+00	0.00000e+00	0.00000e+00	0.00000e+00	0.00000e+00	0.00000e+00	
Factor	1.00000e+00	1.00000e+00	1.00000e+00	1.00000e+00	1.00000e+00	1.00000e+00	1.00000e+00	1.00000e+00	1.00000e+00	1.00000e+00	1.00000e+00	1.00000e+00	1.00000e+00	1.00000e+00	1.00000e+00	1.00000e+00	1.00000e+00	1.00000e+00	1.00000e+00	1.00000e+00	1.00000e+00	1.00000e+00	1.00000e+00	1.00000e+00	1.00000e+00	1.00000e+00	1.00000e+00	1.00000e+00	1.00000e+00	1.00000e+00	1.00000e+00	1.00000e+00	X	X	X	X	X	X	X	X	X	X	X	X	X	X	X	X	

B = Detector Channel
Val Type	B-AC1	B-AC2	B-AC3	B-AC4	B-AC5	B-AC6	B-AC7	B-AC8	B-AC9	B-AC10	B-AC11	B-AC12	B-AC13	B-AC14	B-AC15	B-AC16	B-DC1	B-DC2	B-DC3	B-DC4	B-DC5	B-DC6	B-DC7	B-DC8	B-DC9	B-DC10	B-DC11	B-DC12	B-DC13	B-DC14	B-DC15	B-DC16	B-Ph1	B-Ph2	B-Ph3	B-Ph4	B-Ph5	B-Ph6	B-Ph7	B-Ph8	B-Ph9	B-Ph10	B-Ph11	B-Ph12	B-Ph13	B-Ph14	B-Ph15	B-Ph16	

Term	0.00000e+00	0.00000e+00	0.00000e+00	0.00000e+00	0.00000e+00	0.00000e+00	0.00000e+00	0.00000e+00	0.00000e+00	0.00000e+00	0.00000e+00	0.00000e+00	0.00000e+00	0.00000e+00	0.00000e+00	0.00000e+00	0.00000e+00	0.00000e+00	0.00000e+00	0.00000e+00	0.00000e+00	0.00000e+00	0.00000e+00	0.00000e+00	0.00000e+00	0.00000e+00	0.00000e+00	0.00000e+00	0.00000e+00	0.00000e+00	0.00000e+00	0.00000e+00	-1.62475e+02	-1.30028e+02	-1.29081e+02	-1.82568e+02	-7.08570e+01	-6.63597e+01	-1.57125e+02	-1.62015e+02	-8.01052e+01	-6.56729e+01	-1.70653e+02	-1.69026e+02	-1.81905e+02	-1.76426e+02	-7.59934e+01	-1.49739e+02	
Factor	2.48014e-05	1.38066e-04	4.13928e-05	1.81409e-01	1.37938e-06	1.71112e-06	1.66522e-01	5.10113e-02	1.39629e-06	1.55553e-06	7.91198e-02	2.75910e-02	2.90947e-02	8.83143e-03	1.46968e-06	1.26923e-02	9.30207e-06	1.30508e-05	3.64333e-06	9.51287e-02	1.35613e-07	1.44845e-07	8.22480e-02	2.69387e-02	1.34931e-07	1.44256e-07	4.04368e-02	1.41989e-02	1.54998e-02	4.70142e-03	1.38599e-07	6.55128e-03	X	X	X	X	X	X	X	X	X	X	X	X	X	X	X	X	



#DISTANCE SETTINGS
A = Detector Channel
A-1	A-2	A-3	A-4	A-5	A-6	A-7	A-8	A-9	A-10	A-11	A-12	A-13	A-14	A-15	A-16	

2.5000e+00	3.0000e+00	2.5000e+00	3.0000e+00	2.0000e+00	3.0000e+00	1.5000e+00	3.0000e+00	3.0000e+00	3.0000e+00	3.0000e+00	3.0000e+00	3.0000e+00	3.0000e+00	1.5000e+00	3.0000e+00	

B = Detector Channel
B-1	B-2	B-3	B-4	B-5	B-6	B-7	B-8	B-9	B-10	B-11	B-12	B-13	B-14	B-15	B-16	

1.0000e+01	1.0000e+01	1.0000e+01	1.4400e+00	1.0000e+01	1.0000e+01	1.5100e+00	1.9400e+00	1.0000e+01	1.0000e+01	1.9900e+00	2.4900e+00	2.4100e+00	2.9000e+00	1.0000e+01	2.9800e+00	




#DATA BEGINS
time	group	step	mark	flag	A-AC1	A-AC2	A-AC3	A-AC4	A-AC5	A-AC6	A-AC7	A-AC8	A-AC9	A-AC10	A-AC11	A-AC12	A-AC13	A-AC14	A-AC15	A-AC16	A-DC1	A-DC2	A-DC3	A-DC4	A-DC5	A-DC6	A-DC7	A-DC8	A-DC9	A-DC10	A-DC11	A-DC12	A-DC13	A-DC14	A-DC15	A-DC16	A-Ph1	A-Ph2	A-Ph3	A-Ph4	A-Ph5	A-Ph6	A-Ph7	A-Ph8	A-Ph9	A-Ph10	A-Ph11	A-Ph12	A-Ph13	A-Ph14	A-Ph15	A-Ph16	B-AC1	B-AC2	B-AC3	B-AC4	B-AC5	B-AC6	B-AC7	B-AC8	B-AC9	B-AC10	B-AC11	B-AC12	B-AC13	B-AC14	B-AC15	B-AC16	B-DC1	B-DC2	B-DC3	B-DC4	B-DC5	B-DC6	B-DC7	B-DC8	B-DC9	B-DC10	B-DC11	B-DC12	B-DC13	B-DC14	B-DC15	B-DC16	B-Ph1	B-Ph2	B-Ph3	B-Ph4	B-Ph5	B-Ph6	B-Ph7	B-Ph8	B-Ph9	B-Ph10	B-Ph11	B-Ph12	B-Ph13	B-Ph14	B-Ph15	B-Ph16	aux-1	digaux	

2699.659	1	1	0	512	0.10335	0.15111	0.25885	0.2103	0.092604	0.19524	0.17328	0.27399	0.13264	0.18136	0.1679	0.26772	0.2514	0.31781	0.34755	0.18349	-0.22917	-0.24583	0.016667	-0.78333	0.28125	-0.22083	-0.73125	0.17292	-0.575	-0.1625	-0.1125	-0.82292	-0.089583	-0.4375	-0.6125	0.045833	165.781	260.580	434.571	444.838	475.631	193.514	164.566	402.590	410.542	494.198	421.391	162.461	487.557	411.866	439.040	491.962	0.0011752	0.00089082	0.00022062	854.83	5.087e-06	9.1331e-06	802.43	355.9	1.0376e-05	5.4811e-06	373.79	176.76	141.09	69.142	8.1947e-06	81.75	0.00096422	0.00090613	0.00025503	818.35	9.5435e-06	1.0079e-05	769.75	341.91	1.01e-05	9.9041e-06	358.13	169.59	136.44	66.921	9.8761e-06	78.988	152.968	216.069	229.918	153.230	293.813	310.768	151.723	158.186	260.471	323.515	155.565	158.706	162.462	165.863	246.123	162.225	-8191	255	
2699.753	1	1	0	0	0.25579	0.1696	0.189	0.028979	0.36464	0.13	0.33135	0.27025	0.11367	0.24085	0.24868	0.25824	0.33359	0.12804	0.18091	0.20238	-0.18958	-0.38958	0.11875	-0.73125	-0.033333	-0.10625	-0.92292	0.077083	-0.45417	-0.62917	0.025	-0.98958	-0.12083	-0.30625	-0.77083	-0.05625	429.234	174.342	193.546	400.876	449.716	335.439	413.499	145.702	470.728	378.703	476.353	411.305	151.844	166.905	280.101	427.708	0.001207	0.00074466	0.00027979	856.3	5.311e-06	5.8126e-06	801.45	354.23	6.5616e-06	6.7672e-06	369.47	174.06	139.77	68.3	7.1289e-06	80.683	0.00097131	0.00091122	0.00025947	817.78	9.4104e-06	9.8721e-06	765.69	339.74	9.7552e-06	9.7547e-06	353.49	167.52	135.04	66.285	9.693e-06	78.05	154.044	214.988	222.116	153.353	266.454	251.226	151.691	158.025	259.423	279.944	155.564	158.352	162.299	165.868	250.325	162.248	-8191	255	
2699.850	1	1	0	0	0.12905	0.23671	0.022312	0.22712	0.17746	0.11969	0.16755	0.11752	0.051654	0.19623	0.073928	0.10666	0.067765	0.12808	0.18449	0.29084	0.01875	-0.34375	0.20625	-0.92083	-0.26458	0.070833	-1.0354	-0.079167	-0.4125	-0.54375	0.11875	-0.8125	-0.45417	-0.27083	-0.77083	-0.12708	219.770	403.602	174.683	472.655	437.980	309.733	427.442	412.495	295.482	439.904	315.415	450.441	171.481	152.747	401.460	359.802	0.0011393	0.00061425	0.00016296	851.75	8.5388e-06	7.2692e-06	800.69	353.77	8.9842e-06	6.648e-06	369.34	174.89	140.3	68.956	7.815e-06	81.409	0.00096538	0.00091239	0.00025373	815.43	9.4681e-06	9.6889e-06	764.55	339.74	9.7319e-06	9.8238e-06	353.52	168.04	135.69	66.748	9.872e-06	78.583	154.548	236.308	209.899	153.292	280.151	306.161	151.801	157.979	289.199	269.665	155.494	158.370	162.359	165.594	279.947	162.043	-8191	255	
2699.970	1	1	0	0	0.19454	0.1108	0.1747	0.30801	0.248	0.26257	0.10324	0.15793	0.21789	0.16308	0.22929	0.33287	0.060234	0.27434	0.11956	0.22346	0.00625	-0.57917	0.28125	-0.64792	-0.31875	-0.14583	-0.75625	0.05	-0.1625	-0.64375	0.066667	-0.60625	-0.39792	-0.22917	-0.84167	-0.060417	263.915	231.958	211.816	347.435	462.911	181.636	424.844	460.349	284.095	344.935	159.180	450.335	242.960	421.867	385.526	158.409	0.0011818	0.00055447	0.00015438	854.84	4.9751e-06	6.7003e-06	800.61	353.54	1.094e-05	4.9899e-06	370.21	176.16	140.77	69.459	3.6354e-06	81.773	0.00095871	0.0009231	0.00025277	818.52	9.3132e-06	9.7348e-06	766.77	340.41	9.6001e-06	1.0026e-05	355.89	168.99	136.12	67.114	9.7868e-06	79.18	153.074	241.364	234.980	152.949	304.119	281.340	151.482	157.875	256.932	288.824	155.540	158.414	162.124	165.486	292.002	161.756	-8191	255	
2700.066	1	1	0	0	0.20652	0.32203	0.11578	0.093323	0.34151	0.13752	0.31786	0.059344	0.13403	0.061621	0.13451	0.2851	0.22608	0.26366	0.044595	0.06526	0.085417	-0.67083	0.11667	-0.49167	-0.40208	0.3625	-0.95417	-0.083333	-0.072917	-0.78958	0.14167	-0.45208	-0.475	0.014583	-0.94167	-0.28958	246.480	198.806	182.323	339.416	157.468	341.615	475.205	262.190	438.192	216.155	433.568	445.133	195.745	453.340	413.071	361.066	0.0011853	0.00062703	0.00017498	854.9	6.9534e-06	6.7892e-06	806.57	355.31	7.6728e-06	7.2902e-06	374.17	175.98	141.7	69.136	9.1022e-06	81.307	0.00097443	0.00091443	0.00025339	819.29	9.5087e-06	1.0125e-05	771.08	341.44	9.8873e-06	9.8557e-06	358.71	169.38	136.34	66.802	1.0066e-05	78.68	154.052	223.846	247.417	152.957	240.362	312.453	151.232	157.775	249.862	313.491	155.186	158.300	162.073	165.570	282.549	162.061	-8191	255	
2700.138	1	1	0	0	0.32381	0.19841	0.24118	0.28667	0.2611	0.041734	0.25451	0.14249	0.18597	0.084777	0.033007	0.17565	0.27865	0.16774	0.44906	0.15008	0.41042	-0.87083	0.27292	-0.52917	-0.51667	0.047917	-0.96875	-0.2	0.10625	-0.86042	0.097917	-0.25	-0.55417	0.175	-0.425	-0.3625	259.684	432.583	246.413	157.727	152.867	468.816	455.222	445.241	243.014	456.350	394.779	494.730	448.914	490.947	346.779	153.196	0.0011973	0.00072213	0.00020281	854.53	5.561e-06	1.0077e-05	800.29	353.28	6.0065e-06	3.7745e-06	366.49	173.83	139.56	68.279	9.6042e-06	80.467	0.00096484	0.00092321	0.00025005	818.35	9.6314e-06	9.9882e-06	764.35	339.44	9.5152e-06	1.0122e-05	352.61	167.1	135.1	66.288	1.0027e-05	77.824	152.977	200.102	228.015	153.158	261.069	325.548	151.493	157.784	260.683	308.208	155.278	158.551	162.076	165.435	290.937	162.024	-8191	255	
2700.234	1	1	0	0	0.13454	0.20862	0.028957	0.17195	0.10181	0.20571	0.57565	0.27494	0.12684	0.23323	0.11994	0.27648	0.21596	0.12159	0.041229	0.28305	0.64583	-0.65417	0.20625	-0.11875	-0.56458	0.19792	-0.71458	-0.37917	0.097917	-0.7	0.0083333	-0.16667	-0.59583	0.06875	-0.40625	-0.52083	428.002	310.768	388.387	452.058	276.047	249.944	493.120	496.157	171.751	439.792	411.252	483.684	437.299	382.604	422.722	382.748	0.0012417	0.00038622	0.00017154	849.82	5.9729e-06	2.8339e-06	799.49	353.37	6.9878e-06	4.6376e-06	369.29	174.51	140.78	68.829	6.5221e-06	80.7	0.00096106	0.00090526	0.00025516	814.65	9.5924e-06	9.8431e-06	762.19	339.3	9.7083e-06	9.8887e-06	353.62	167.4	135.83	66.481	9.8864e-06	78.33	153.910	212.573	239.134	153.040	255.641	240.135	151.623	157.526	266.819	245.561	155.513	158.332	162.438	165.369	268.489	161.910	-8191	255	
2700.355	1	1	0	0	0.075722	0.23646	0.095558	0.26989	0.2366	0.13005	0.025254	0.29084	0.16949	0.04027	0.30859	0.11662	0.27351	0.34839	0.27546	0.19406	0.56667	-0.69167	-0.13958	-0.11042	-0.65833	0.13125	-0.45	-0.46667	0.05	-0.70833	-0.13542	-0.13333	-0.74375	0.089583	-0.25208	-0.73125	226.940	281.223	161.236	428.990	490.146	305.500	319.380	464.080	409.965	407.839	402.178	385.692	165.090	466.453	243.728	437.733	0.0011523	0.0006762	0.00013377	853.92	7.807e-06	1.0713e-05	793.71	354.54	9.969e-06	4.0029e-06	370.24	175.58	140.78	68.369	7.728e-06	80.976	0.00094957	0.00090915	0.00025146	816.16	9.6311e-06	9.8449e-06	763.93	340.28	9.5559e-06	1.0047e-05	354.91	168.27	135.91	66.613	9.993e-06	78.471	153.237	208.579	228.151	153.070	279.908	282.562	151.451	157.778	275.551	239.159	155.560	158.557	162.290	165.332	278.590	162.181	-8191	255	
2700.451	1	1	0	0	0.089653	0.22045	0.20238	0.13444	0.15178	0.15945	0.21732	0.1156	0.25562	0.42262	0.27646	0.25618	0.12862	0.081094	0.057791	0.038278	0.52708	-0.52292	-0.035417	-0.05	-0.65833	-0.00625	-0.34583	-0.73333	0.1375	-0.425	-0.33542	-0.0375	-0.79792	-0.12292	-0.05625	-0.61875	247.609	170.873	155.654	493.646	182.762	420.289	394.004	461.738	393.087	307.907	439.515	415.768	189.510	368.148	269.249	142.771	0.0012884	0.00032655	9.8949e-05	851.41	7.5177e-06	5.3953e-06	803.12	355.26	8.6201e-06	6.3922e-06	371.66	175.58	140.87	68.561	8.7319e-06	80.555	0.00096742	0.00093104	0.00025685	816.18	9.5308e-06	9.9834e-06	768.87	341.07	9.5919e-06	1.0157e-05	355.9	168.32	135.92	66.558	9.8408e-06	78.15	158.715	217.819	225.938	153.218	298.672	286.969	151.442	157.901	281.496	265.709	155.338	158.380	162.306	165.433	252.025	161.717	-8191	255	
2700.547	1	1	0	0	0.053056	0.14683	0.26317	0.10918	0.20188	0.1224	0.18984	0.23865	0.16773	0.20828	0.13093	0.27379	0.25681	0.43936	0.27207	0.37299	0.55	-0.46458	-0.3	0.14583	-0.69792	-0.14375	-0.26042	-1.0146	0.19167	-0.3	-0.62917	-0.097917	-0.80625	-0.31667	0.08125	-0.74375	167.762	240.640	172.128	458.777	239.059	148.617	192.809	432.645	159.538	450.586	403.752	466.319	354.557	200.819	441.120	424.397	0.0011709	0.00050105	0.00023523	848.61	3.6464e-06	9.8794e-06	795.72	352.28	6.694e-06	6.0463e-06	364.86	173.5	140.11	68.231	7.4443e-06	80.596	0.00095048	0.00091304	0.00024829	814.14	9.4627e-06	1.0204e-05	760.61	338.09	9.8322e-06	1.005e-05	350.61	166.56	135.07	66.22	1.0086e-05	77.832	155.845	218.993	232.765	153.144	339.951	267.849	151.629	157.811	236.395	306.277	155.213	158.621	162.340	165.600	297.453	161.906	-8191	255	
2700.643	1	1	0	0	0.031804	0.072022	0.22553	0.16997	0.11623	0.29103	0.17409	0.49727	0.080743	0.20731	0.11347	0.087624	0.079119	0.31118	0.23107	0.26579	0.40417	-0.52708	-0.55833	0.23542	-0.73125	-0.17292	0.016667	-0.87917	0.11458	-0.58542	-0.60417	-0.0875	-0.67708	-0.44167	-0.010417	-0.81667	332.364	336.449	493.290	311.732	208.927	444.651	273.904	460.003	304.417	186.867	421.619	215.031	193.621	475.791	456.449	498.500	0.0011868	0.00088935	0.00022702	851.87	8.3794e-06	7.4553e-06	796.02	351.88	9.4184e-06	7.7636e-06	368.51	174.36	140.17	68.199	6.9167e-06	80.42	0.00095075	0.00090776	0.00025116	814.96	9.4387e-06	9.7034e-06	760.39	338.94	9.7015e-06	9.9921e-06	352.35	166.98	135.34	66.3	9.8844e-06	77.801	155.026	225.056	213.089	153.035	304.419	280.249	151.406	157.748	258.939	293.232	155.283	158.400	162.407	165.333	272.928	161.984	-8191	255	
2700.764	1	1	0	0	0.26059	0.034774	0.11472	0.40989	0.2207	0.32081	0.20573	0.33232	0.14858	0.4666	0.045179	0.1153	0.16568	0.11656	0.15462	0.26893	0.36667	-0.17708	-0.48542	0.14167	-0.46875	-0.31875	0.052083	-0.87708	0.097917	-0.11042	-0.58542	0.095833	-0.44583	-0.61875	-0.0041667	-0.77292	209.626	278.489	146.640	473.177	239.646	156.867	438.557	497.594	270.082	397.160	421.784	278.972	445.619	457.904	234.968	371.755	0.0011834	0.00061113	0.00018127	850.86	5.7676e-06	6.791e-06	797.65	353.66	8.8524e-06	5.3562e-06	368.04	173.51	141.28	68.524	6.1318e-06	81.079	0.00095112	0.00093558	0.00025335	815.43	9.4565e-06	1.0283e-05	763.82	339.7	9.6996e-06	9.9056e-06	353.39	167.11	135.76	66.441	1.0283e-05	78.37	153.907	237.720	236.912	153.077	275.410	287.601	151.744	157.681	284.719	280.966	155.101	158.159	162.521	165.333	268.641	162.153	-8191	255	
2700.836	1	1	0	0	0.054237	0.25864	0.13942	0.042462	0.055701	0.043854	0.04711	0.24776	0.20425	0.098269	0.18562	0.12036	0.057657	0.47746	0.5212	0.17867	0.3	-0.22083	-0.71458	0.14792	-0.56042	-0.52292	0.20208	-0.90417	-0.085417	-0.20833	-0.76042	-0.066667	-0.37708	-0.62917	0.27083	-0.53125	394.374	247.323	481.146	474.787	209.026	247.796	442.347	453.837	374.363	353.747	414.302	465.132	149.599	491.251	354.213	449.778	0.0012237	0.00074827	0.00014787	850.03	5.0132e-06	8.6126e-06	799.49	353.91	6.5315e-06	7.7545e-06	371.3	174.23	140.54	68.088	7.6814e-06	80.406	0.000956	0.00091573	0.00024817	815.33	9.6147e-06	9.9837e-06	765.65	340.37	9.8064e-06	1.0041e-05	355.18	167.35	135.34	66.172	9.9491e-06	77.888	157.172	224.046	249.631	153.017	250.704	294.784	151.811	157.690	247.735	281.523	155.452	158.326	162.008	165.375	262.422	162.197	-8191	255	
2700.954	1	1	0	0	0.19042	0.13599	0.16095	0.11156	0.28366	0.45426	0.14376	0.13941	0.23617	0.034152	0.26838	0.38868	0.15589	0.29281	0.24109	0.172	0.23542	0.09375	-0.625	0.19375	-0.46875	-0.77708	0.045833	-0.88333	-0.275	0.075	-0.77708	-0.21875	-0.15	-0.6625	0.32083	-0.66042	370.737	442.319	455.219	431.843	261.504	391.847	362.724	401.842	442.441	205.750	485.468	155.077	401.447	452.967	291.009	445.683	0.0011624	0.00060551	0.00017714	850.28	6.9745e-06	9.8144e-06	794.61	352.6	6.6891e-06	5.4565e-06	365.42	172.33	139.77	68.102	8.0998e-06	80.033	0.00096864	0.00091271	0.0002528	814.91	9.5469e-06	9.7734e-06	760.26	338.5	9.539e-06	1.0085e-05	350.6	166	134.72	65.882	9.8677e-06	77.393	153.629	235.890	247.772	153.031	282.482	281.529	151.512	157.674	270.487	298.512	155.355	158.570	162.397	165.337	276.845	162.311	-8191	255	
2701.051	1	1	0	0	0.1614	0.13285	0.045575	0.29181	0.15522	0.035122	0.11713	0.29086	0.30184	0.15959	0.11687	0.14116	0.23986	0.25362	0.08014	0.15878	0.085417	0.29375	-0.83333	-0.0041667	-0.17292	-0.81667	0.052083	-0.51875	-0.4	0.33333	-0.91875	-0.21875	-0.18333	-0.85833	0.50625	-0.55208	197.923	262.807	240.194	432.071	223.483	327.916	404.417	494.560	365.692	266.621	297.309	469.449	476.966	169.383	432.923	426.958	0.0012602	0.00054563	0.00022984	845.07	8.0154e-06	7.5283e-06	792.24	352.52	7.7661e-06	6.6283e-06	367.26	173.12	139.98	68.136	9.0962e-06	80.088	0.00097964	0.00091943	0.00025102	813.58	9.4746e-06	1.0127e-05	758.68	338.73	9.5233e-06	1.0116e-05	351.47	166.36	135.12	66.035	9.656e-06	77.558	155.093	216.445	224.173	152.844	298.206	263.711	151.399	157.572	300.392	276.303	155.380	158.104	162.416	165.498	281.452	161.758	-8191	255	
2701.147	1	1	0	0	0.10838	0.22663	0.078561	0.32921	0.25352	0.061994	0.20084	0.3546	0.18531	0.06604	0.26574	0.27438	0.15523	0.14425	0.064505	0.13938	-0.08125	0.2875	-0.66667	-0.32917	0.052083	-0.4875	0.06875	-0.51042	-0.63958	0.15	-0.76875	-0.40417	-0.022917	-0.95417	0.32917	-0.40833	456.344	181.329	196.062	140.147	264.829	285.326	496.308	481.056	298.107	398.189	141.733	495.506	352.881	160.725	168.092	424.102	0.001298	0.00091493	7.727e-05	849.47	5.3626e-06	8.9001e-06	798.72	356.57	7.7743e-06	8.1928e-06	369.33	173.43	140.48	68.447	9.1602e-06	80.96	0.00095645	0.00089963	0.00025375	814.2	9.3884e-06	9.637e-06	761.17	341.13	9.4345e-06	9.9678e-06	354.05	167.16	135.68	66.466	1.0011e-05	78.203	155.825	209.377	237.649	152.827	283.006	309.128	151.421	157.984	249.045	330.355	155.443	158.357	162.184	165.441	280.949	162.312	-8191	255	
2701.243	1	1	0	0	0.17108	0.12627	0.12735	0.38212	0.20612	0.046679	0.14583	0.22556	0.077959	0.21663	0.12534	0.16039	0.39513	0.11812	0.11684	0.29722	-0.0020833	0.2625	-0.54167	-0.072917	-0.029167	-0.90417	-0.039583	-0.27917	-0.6125	0.47083	-0.7125	-0.42917	0.24583	-0.82917	-0.052083	-0.325	250.927	241.605	170.646	496.986	381.515	157.362	493.645	442.856	198.630	200.518	145.994	141.454	148.888	180.466	398.100	436.603	0.0011894	0.00067199	0.00015161	857.22	7.9829e-06	5.9541e-06	797.81	356.1	7.0304e-06	6.0552e-06	370.37	174.28	140.64	68.691	5.0835e-06	80.472	0.00095585	0.00092364	0.00025059	817.5	9.42e-06	1.0045e-05	764.57	340.77	9.8154e-06	1.0208e-05	355.26	167.25	135.71	66.288	9.9407e-06	77.802	155.216	205.618	214.451	152.619	276.296	266.701	151.288	157.962	275.204	298.346	155.237	158.340	162.410	165.630	291.422	161.991	-8191	255	
2701.364	1	1	0	0	0.038167	0.22933	0.10629	0.060727	0.22282	0.17115	0.13446	0.2879	0.063578	0.11857	0.20563	0.25255	0.22821	0.22196	0.12552	0.2479	-0.31875	0.31667	-0.38333	-0.33958	0.13333	-0.73542	-0.21667	-0.30833	-0.75	0.1375	-0.4	-0.54583	-0.045833	-0.78333	-0.13333	-0.26875	461.025	284.532	200.294	374.977	331.225	406.652	429.590	371.500	392.647	341.177	405.828	155.260	431.946	462.965	176.034	436.949	0.0011919	0.00082199	0.00019862	845.1	5.3862e-06	4.3264e-06	799.6	353.94	6.5219e-06	6.8375e-06	363.85	173.08	140.37	68.211	8.6694e-06	80.057	0.00096449	0.00091902	0.00024522	811.3	9.5192e-06	1.0178e-05	760.76	339.43	9.7235e-06	9.8653e-06	349.86	165.75	135.08	66.057	9.9364e-06	77.351	152.672	231.131	232.541	152.839	297.410	275.566	151.244	157.638	282.021	323.923	155.261	157.972	162.062	165.345	282.825	162.195	-8191	255	
