BOXY.EXE: ISS Imagent and Oximeter Data Acquisition Program Version 0.80
Ascii Record File

#ACQ INFORMATION
2  Detector Channels 
16  External MUX Channels 
1  Auxiliary Channels 
5000  Waveform (CCF) Frequency (Hz)
1  Waveforms Skipped 
30  Waveforms Averaged 
1  Cycles Averaged 
16  Acquisitions per Waveform 
10.0806  Updata Rate (Hz) 

#FILE INFORMATION
TRUE -- External MUX Channel results are PARSED.
FALSE -- AC DC and Phase are NOT grouped.
TRUE -- Companion Program Settings File CREATED.
FALSE -- AC data not excluded
FALSE -- DC data not excluded
FALSE -- Phase data not excluded
FALSE -- Auxillary Chn. data not excluded
Tab delimiters

#CALIBRATION STATE
TRUE -- Waveform Calibration Values APPLIED.


#AUX CALIBRATION VALUES
Val Type	aux-1	

Term	1.0000e+00	
Factor	0.0000e+00	


#WF CALIBRATION VALUES
A = Detector Channel
Val Type	A-AC1	A-AC2	A-AC3	A-AC4	A-AC5	A-AC6	A-AC7	A-AC8	A-AC9	A-AC10	A-AC11	A-AC12	A-AC13	A-AC14	A-AC15	A-AC16	A-DC1	A-DC2	A-DC3	A-DC4	A-DC5	A-DC6	A-DC7	A-DC8	A-DC9	A-DC10	A-DC11	A-DC12	A-DC13	A-DC14	A-DC15	A-DC16	A-Ph1	A-Ph2	A-Ph3	A-Ph4	A-Ph5	A-Ph6	A-Ph7	A-Ph8	A-Ph9	A-Ph10	A-Ph11	A-Ph12	A-Ph13	A-Ph14	A-Ph15	A-Ph16	

Term	0.00000e+00	0.00000e+00	0.00000e+00	0.00000e+00	0.00000e+00	0.00000e+00	0.00000e+00	0.00000e+00	0.00000e+00	0.00000e+00	0.00000e+00	0.00000e+00	0.00000e+00	0.00000e+00	0.00000e+00	0.00000e+00	0.00000e+00	0.00000e+00	0.00000e+00	0.00000e+00	0.00000e+00	0.00000e+00	0.00000e+00	0.00000e+00	0.00000e+00	0.00000e+00	0.00000e+00	0.00000e+00	0.00000e+00	0.00000e+00	0.00000e+00	0.00000e+00	0.00000e+00	0.00000e+00	0.00000e+00	0.00000e+00	0.00000e+00	0.00000e+00	0.00000e+00	0.00000e+00	0.00000e+00	0.00000e+00	0.00000e+00	0.00000e+00	0.00000e+00	0.00000e+00	0.00000e+00	0.00000e+00	
Factor	1.00000e+00	1.00000e+00	1.00000e+00	1.00000e+00	1.00000e+00	1.00000e+00	1.00000e+00	1.00000e+00	1.00000e+00	1.00000e+00	1.00000e+00	1.00000e+00	1.00000e+00	1.00000e+00	1.00000e+00	1.00000e+00	1.00000e+00	1.00000e+00	1.00000e+00	1.00000e+00	1.00000e+00	1.00000e+00	1.00000e+00	1.00000e+00	1.00000e+00	1.00000e+00	1.00000e+00	1.00000e+00	1.00000e+00	1.00000e+00	1.00000e+00	1.00000e+00	X	X	X	X	X	X	X	X	X	X	X	X	X	X	X	X	

B = Detector Channel
Val Type	B-AC1	B-AC2	B-AC3	B-AC4	B-AC5	B-AC6	B-AC7	B-AC8	B-AC9	B-AC10	B-AC11	B-AC12	B-AC13	B-AC14	B-AC15	B-AC16	B-DC1	B-DC2	B-DC3	B-DC4	B-DC5	B-DC6	B-DC7	B-DC8	B-DC9	B-DC10	B-DC11	B-DC12	B-DC13	B-DC14	B-DC15	B-DC16	B-Ph1	B-Ph2	B-Ph3	B-Ph4	B-Ph5	B-Ph6	B-Ph7	B-Ph8	B-Ph9	B-Ph10	B-Ph11	B-Ph12	B-Ph13	B-Ph14	B-Ph15	B-Ph16	

Term	0.00000e+00	0.00000e+00	0.00000e+00	0.00000e+00	0.00000e+00	0.00000e+00	0.00000e+00	0.00000e+00	0.00000e+00	0.00000e+00	0.00000e+00	0.00000e+00	0.00000e+00	0.00000e+00	0.00000e+00	0.00000e+00	0.00000e+00	0.00000e+00	0.00000e+00	0.00000e+00	0.00000e+00	0.00000e+00	0.00000e+00	0.00000e+00	0.00000e+00	0.00000e+00	0.00000e+00	0.00000e+00	0.00000e+00	0.00000e+00	0.00000e+00	0.00000e+00	-1.95322e+02	-1.31664e+02	-1.35514e+02	-1.83507e+02	-9.14092e+01	-5.93382e+01	-1.57852e+02	-1.62015e+02	-9.36674e+01	-6.54123e+01	-1.76234e+02	-1.71211e+02	-1.81698e+02	-1.78091e+02	-8.68548e+01	-1.51000e+02	
Factor	4.07472e-05	1.94038e-04	5.01386e-05	4.44362e-01	1.74494e-06	1.67566e-06	1.66286e-01	6.31906e-02	2.08765e-06	1.66474e-06	2.13853e-01	2.89034e-02	2.88634e-02	9.13376e-03	1.93495e-06	1.32076e-02	3.19055e-06	3.47120e-06	9.67125e-07	2.29784e-01	3.78690e-08	3.80063e-08	8.23849e-02	3.32550e-02	3.75348e-08	3.80335e-08	1.05779e-01	1.48008e-02	1.52162e-02	4.84302e-03	3.76195e-08	6.77457e-03	X	X	X	X	X	X	X	X	X	X	X	X	X	X	X	X	



#DISTANCE SETTINGS
A = Detector Channel
A-1	A-2	A-3	A-4	A-5	A-6	A-7	A-8	A-9	A-10	A-11	A-12	A-13	A-14	A-15	A-16	

2.5000e+00	3.0000e+00	2.5000e+00	3.0000e+00	2.0000e+00	3.0000e+00	1.5000e+00	3.0000e+00	3.0000e+00	3.0000e+00	3.0000e+00	3.0000e+00	3.0000e+00	3.0000e+00	1.5000e+00	3.0000e+00	

B = Detector Channel
B-1	B-2	B-3	B-4	B-5	B-6	B-7	B-8	B-9	B-10	B-11	B-12	B-13	B-14	B-15	B-16	

1.0000e+01	1.0000e+01	1.0000e+01	1.4400e+00	1.0000e+01	1.0000e+01	1.5100e+00	1.9400e+00	1.0000e+01	1.0000e+01	1.9900e+00	2.4900e+00	2.4100e+00	2.9000e+00	1.0000e+01	2.9800e+00	




#DATA BEGINS
time	group	step	mark	flag	A-AC1	A-AC2	A-AC3	A-AC4	A-AC5	A-AC6	A-AC7	A-AC8	A-AC9	A-AC10	A-AC11	A-AC12	A-AC13	A-AC14	A-AC15	A-AC16	A-DC1	A-DC2	A-DC3	A-DC4	A-DC5	A-DC6	A-DC7	A-DC8	A-DC9	A-DC10	A-DC11	A-DC12	A-DC13	A-DC14	A-DC15	A-DC16	A-Ph1	A-Ph2	A-Ph3	A-Ph4	A-Ph5	A-Ph6	A-Ph7	A-Ph8	A-Ph9	A-Ph10	A-Ph11	A-Ph12	A-Ph13	A-Ph14	A-Ph15	A-Ph16	B-AC1	B-AC2	B-AC3	B-AC4	B-AC5	B-AC6	B-AC7	B-AC8	B-AC9	B-AC10	B-AC11	B-AC12	B-AC13	B-AC14	B-AC15	B-AC16	B-DC1	B-DC2	B-DC3	B-DC4	B-DC5	B-DC6	B-DC7	B-DC8	B-DC9	B-DC10	B-DC11	B-DC12	B-DC13	B-DC14	B-DC15	B-DC16	B-Ph1	B-Ph2	B-Ph3	B-Ph4	B-Ph5	B-Ph6	B-Ph7	B-Ph8	B-Ph9	B-Ph10	B-Ph11	B-Ph12	B-Ph13	B-Ph14	B-Ph15	B-Ph16	aux-1	digaux	

2258.756	1	1	0	768	0.17712	0.19329	0.17046	0.28837	0.11358	0.12791	0.20074	0.24136	0.18293	0.13068	0.029089	0.15061	0.22067	0.19088	0.17817	0.30377	-2.6146	-2.8563	-2.7812	-3.0167	-2.9292	-2.9104	-3.1104	-2.8604	-3.0938	-2.9833	-2.8792	-3.2042	-2.8708	-2.8187	-3.1604	-2.9542	335.945	194.729	434.476	386.451	227.260	256.297	470.117	214.240	237.551	318.232	347.705	128.708	221.030	394.160	137.409	470.824	0.00017233	0.0035291	0.0022149	976.18	6.5489e-05	2.1238e-05	930.2	278.53	7.8372e-05	4.6219e-05	300.65	89.686	81.551	25.535	0.00011853	37.24	0.023314	0.023069	0.0065969	2790.1	0.00027267	0.00025021	1492.7	544.28	0.00026899	0.00025132	1049	210.09	191.25	57.837	0.00027889	92.745	288.294	341.281	143.046	141.493	377.230	450.121	140.448	145.787	332.352	362.720	142.214	149.497	149.794	155.625	196.107	153.010	-8191	255	
2258.852	1	1	0	0	0.029241	0.2193	0.063667	0.055427	0.12698	0.18302	0.35144	0.13547	0.19132	0.23081	0.22972	0.092704	0.30177	0.16624	0.18323	0.50073	-2.3271	-3.1063	-2.7458	-3.0729	-2.9417	-2.8937	-3.3771	-2.8063	-3.0271	-3.1208	-2.5917	-3.0458	-2.9021	-2.8708	-3.125	-2.9104	367.595	473.105	173.191	311.477	335.855	143.988	466.890	437.572	145.409	419.174	133.365	330.141	476.863	196.150	137.738	433.120	0.00040394	0.0026438	0.0030795	980.16	4.5003e-05	7.3783e-06	937.46	280.43	1.9687e-05	1.7919e-05	301.99	90.722	83.32	25.994	5.481e-05	38.215	0.022928	0.023018	0.0073106	2807.4	0.00026983	0.00025316	1577.4	546.75	0.0002678	0.00025389	1128.5	208.28	189.31	58.576	0.00029861	91.094	483.649	170.637	143.984	142.034	380.341	431.526	140.299	146.277	311.201	317.896	143.243	149.448	150.084	155.006	168.571	154.179	-8191	255	
2258.948	1	1	0	0	0.1522	0.12285	0.11706	0.17483	0.055042	0.11523	0.22459	0.099792	0.11398	0.15297	0.32681	0.18139	0.32048	0.18206	0.14516	0.1099	-2.3771	-3.1583	-2.8187	-3.2542	-2.9042	-2.7104	-3.3625	-2.9542	-3.15	-3.0979	-2.9437	-3.0187	-2.8583	-2.6979	-3.0708	-2.7979	397.488	432.839	420.487	341.555	403.595	284.551	445.190	446.031	275.230	434.481	283.403	136.153	429.067	396.509	240.419	333.130	0.0015993	0.0035226	0.0016649	979.65	1.4652e-05	3.6586e-05	951.35	280.02	5.867e-05	9.0707e-05	296.71	93.457	82.824	27.244	9.9862e-06	40.213	0.021995	0.023225	0.0076795	2688	0.00025704	0.00025794	1610.9	528.53	0.00025388	0.00025877	1135.6	198.67	180.59	59.56	0.00028728	86.542	143.479	145.897	185.490	141.839	480.606	214.715	140.362	146.135	399.847	222.007	144.415	149.164	149.788	154.378	364.225	153.350	-8191	255	
2259.045	1	1	0	0	0.13919	0.29715	0.22101	0.13415	0.10314	0.10858	0.081796	0.2605	0.15564	0.075755	0.26314	0.13971	0.18101	0.2559	0.22824	0.31902	-2.4562	-3.1125	-2.8958	-3.0438	-3.0646	-2.7062	-3.2	-3.0917	-2.8917	-3.3	-2.55	-3.0187	-2.9062	-2.825	-3.2771	-3.0375	450.665	481.505	406.983	339.056	483.923	467.307	467.815	458.731	466.134	198.391	292.144	316.725	128.446	363.734	426.199	317.997	0.00017943	0.0093263	6.9643e-05	974.1	4.4755e-05	7.9015e-05	940.92	281.81	4.4793e-05	7.8326e-05	296.6	95.204	85.731	27.124	5.7471e-05	40.375	0.019808	0.022964	0.0071234	2460.6	0.0002259	0.00025035	1531.8	489.71	0.00021826	0.00025107	1036.5	188.05	173.1	60.633	0.00026467	83.153	468.718	143.746	189.371	141.412	327.067	226.719	140.534	145.870	303.265	196.503	144.669	149.236	150.076	155.004	348.645	153.353	-8191	255	
2259.141	1	1	0	0	0.064757	0.16173	0.11347	0.1866	0.2817	0.29683	0.16542	0.15455	0.093715	0.27742	0.23517	0.047219	0.080748	0.087974	0.17487	0.3803	-2.5417	-3.125	-2.875	-2.9583	-2.9896	-2.7	-3.15	-2.9396	-2.8542	-3.1583	-2.9875	-2.8896	-3.1125	-2.7604	-3.2062	-2.8292	387.460	348.760	463.368	305.414	448.052	377.512	477.951	481.227	420.828	359.631	139.986	260.166	154.040	336.586	296.560	374.819	0.0014341	0.0077943	0.0015685	1002.6	3.4288e-05	6.8671e-05	951.11	284.1	6.105e-05	8.9263e-06	299.63	96.413	86.349	27.971	6.5875e-05	41.246	0.018782	0.023893	0.0066298	2388.8	0.00021909	0.00026256	1498.7	481.17	0.00021725	0.00026149	984.18	182.88	173.23	61.309	0.00023637	80.294	479.435	168.649	325.807	141.926	180.466	237.017	140.562	146.089	223.574	244.125	145.322	149.584	149.789	155.006	369.889	153.505	-8191	255	
2259.237	1	1	0	0	0.25666	0.31844	0.24191	0.1187	0.18552	0.18805	0.10846	0.2211	0.1777	0.11289	0.12423	0.049791	0.12297	0.17284	0.053914	0.21551	-2.3625	-2.8833	-2.9979	-2.8063	-3.1104	-2.6604	-3.1417	-3.0187	-2.8646	-3.0542	-2.7771	-2.8104	-2.8833	-2.8667	-3	-2.9604	397.884	182.110	141.016	405.625	458.909	448.121	384.546	138.981	435.372	394.099	401.402	379.865	377.670	366.284	209.059	168.420	0.0019073	0.0030094	0.0017459	1006.5	5.1284e-05	2.1355e-05	961.51	287.75	7.1984e-05	2.0167e-05	308.26	97.978	88.674	28.457	3.1262e-05	42.25	0.018545	0.023527	0.0059483	2291.1	0.00022387	0.00025995	1468.1	471.06	0.00022628	0.00025633	934.66	179.67	179.78	61.037	0.00022349	80.153	465.672	171.931	343.473	141.667	171.701	159.029	140.617	146.055	170.828	166.486	145.018	149.035	149.007	155.758	304.982	152.954	-8191	255	
2259.357	1	1	0	0	0.052084	0.15972	0.11874	0.12403	0.22496	0.12189	0.21655	0.15602	0.16738	0.33811	0.32953	0.14509	0.29036	0.072584	0.075162	0.17804	-2.3542	-3.0271	-3.0292	-2.625	-3.1917	-2.5958	-3.0292	-2.8563	-2.8688	-2.9646	-2.8375	-3	-3.1042	-2.8333	-2.9062	-2.9771	474.453	447.609	439.586	231.350	188.463	447.525	423.536	406.550	292.074	415.837	199.063	184.290	448.359	440.410	161.546	389.564	0.0029788	0.0091649	0.0015021	1024	7.7006e-05	5.7941e-05	968.98	290.35	6.181e-05	2.8074e-05	307.45	99.949	89.339	28.014	1.3245e-05	42.597	0.020347	0.023382	0.0058355	2301.7	0.00024857	0.00025742	1471.1	477.81	0.00025253	0.00025522	943.38	184.52	192.04	60.758	0.00022583	82.299	448.509	309.480	333.998	140.980	183.897	388.250	140.599	146.025	201.388	362.989	144.886	148.668	149.716	155.659	296.873	153.313	-8191	255	
2259.454	1	1	0	0	0.13957	0.054341	0.11964	0.12821	0.173	0.21349	0.15432	0.087316	0.17896	0.10895	0.043081	0.085296	0.027678	0.11117	0.16569	0.13243	-2.3396	-2.7917	-2.7938	-2.7479	-3.0229	-2.8979	-2.9042	-3.1667	-2.8104	-3.0583	-2.8271	-2.6896	-3.0563	-2.7479	-2.8396	-3.1063	308.937	199.484	209.419	175.489	407.745	265.199	332.088	459.160	388.133	257.119	331.011	134.558	364.552	350.866	324.096	225.173	0.0013265	0.0010049	0.00050035	1025.3	1.1323e-05	5.1496e-05	963.73	291.13	3.7318e-05	3.9737e-05	307.34	97.233	86.48	27.438	1.6258e-05	41.221	0.022384	0.022942	0.0057795	2365.2	0.00026534	0.00024502	1450.5	485.59	0.00026129	0.00023882	904.8	186	190.26	57.185	0.00020984	81.714	466.675	301.538	336.851	140.781	433.400	407.303	140.314	145.914	201.950	391.543	145.083	148.932	150.458	155.723	294.069	153.411	-8191	255	
2259.548	1	1	0	0	0.088077	0.11498	0.15248	0.15561	0.049909	0.21986	0.054345	0.15033	0.21701	0.19585	0.15109	0.13429	0.17372	0.21072	0.15912	0.19491	-2.6813	-2.9479	-2.8896	-2.7792	-2.8667	-2.7042	-2.85	-3.3708	-2.7062	-3.075	-3.0396	-2.7	-2.9896	-2.8187	-2.6	-3.1604	269.298	238.705	158.972	194.765	451.314	474.527	185.857	419.118	373.587	281.175	319.109	155.419	479.781	195.914	184.426	167.280	9.9061e-05	0.0015282	0.00068296	1012.9	4.8445e-05	1.3063e-05	950.52	289.33	6.5344e-05	1.2923e-05	308.26	97.955	85.776	27.881	5.0154e-05	41.568	0.021441	0.020572	0.0052469	2376.2	0.00024657	0.00021913	1392.3	484.31	0.00023635	0.00021306	844.98	186.7	180.38	54.658	0.00019674	83.264	192.515	265.553	299.797	140.713	355.562	268.918	140.332	145.968	369.120	273.526	144.297	148.956	150.263	155.202	189.388	153.256	-8191	255	
2259.646	1	1	0	0	0.34719	0.15611	0.1373	0.14304	0.06515	0.13795	0.14765	0.22448	0.31809	0.13961	0.15685	0.086199	0.10534	0.22276	0.23214	0.30128	-2.3187	-2.6	-3.0125	-2.6063	-3.0729	-2.9167	-2.9396	-3.0604	-2.875	-2.8479	-3.1292	-2.4458	-3.0729	-3.0354	-2.8604	-2.9271	409.081	394.207	424.890	191.979	270.817	349.425	464.979	362.530	181.707	241.589	383.008	452.824	425.256	430.812	340.946	446.789	0.00095221	0.0015506	0.0012918	1018.4	6.4728e-06	3.0705e-05	961.27	290.75	6.0608e-05	1.0726e-05	308.77	98.164	86.31	27.744	5.2178e-05	41.268	0.019792	0.019247	0.0051221	2450.8	0.00023181	0.00021109	1404.3	502.11	0.00022912	0.00021299	885.49	196.07	180.18	55.207	0.00021681	87.327	163.192	366.062	150.817	140.936	367.810	420.183	140.450	146.108	340.285	453.097	144.821	149.434	150.599	155.760	180.057	152.975	-8191	255	
2259.740	1	1	0	0	0.25897	0.14659	0.2539	0.21135	0.25917	0.26497	0.35352	0.30609	0.18142	0.10099	0.29063	0.071478	0.22473	0.15262	0.09839	0.24683	-2.275	-2.5938	-2.9313	-2.8042	-2.8063	-2.7687	-2.8604	-3.0167	-2.9479	-2.6896	-3.1104	-2.7875	-2.9833	-3.0417	-2.6958	-3.25	179.742	332.941	167.704	450.519	284.171	460.758	342.229	137.593	128.808	301.528	175.752	436.625	344.566	142.036	331.398	404.210	0.00046304	0.0028243	0.0014683	1016.4	3.4691e-05	2.9591e-05	961.08	286.5	4.9324e-05	2.4127e-05	309.97	95.57	85.93	27.279	8.0559e-05	41.068	0.019613	0.019614	0.0057197	2573.3	0.00023174	0.0002127	1455.3	509.98	0.00022441	0.00021073	945.26	195.96	175.96	54.254	0.00023553	86.644	484.937	317.496	167.041	141.969	435.405	454.297	140.433	145.789	355.801	253.587	143.857	149.793	150.333	155.176	216.602	153.628	-8191	255	
2259.836	1	1	0	0	0.12664	0.30702	0.19481	0.19843	0.052076	0.1311	0.13335	0.14573	0.26602	0.26102	0.13076	0.11995	0.24993	0.28694	0.036176	0.078804	-2.5354	-2.65	-3.1104	-2.7417	-2.8833	-3.1354	-2.8833	-3.1354	-2.725	-2.8625	-3.1167	-3.0292	-2.9229	-3.0354	-2.8229	-3.1917	298.554	199.686	142.430	448.304	458.013	477.103	408.397	419.286	371.098	315.310	460.877	433.643	145.750	437.165	370.401	377.880	0.0011194	0.0021923	0.0017149	1008.3	8.4446e-06	2.2726e-05	962.22	286.53	1.8587e-05	3.1034e-05	311.08	98.111	86.714	28.106	3.9646e-05	41.38	0.018881	0.019048	0.0061867	2511.9	0.00022329	0.0002111	1502.5	503.98	0.00022152	0.00021456	1011.9	194.61	175.68	55.472	0.0002543	85.1	486.677	214.645	156.393	141.933	413.011	144.903	140.376	146.099	403.944	184.212	144.130	149.607	150.364	154.934	176.795	153.604	-8191	255	
2259.957	1	1	0	0	0.01756	0.085511	0.14505	0.19613	0.060665	0.17054	0.16553	0.22462	0.090379	0.34512	0.075201	0.07902	0.26449	0.12397	0.14897	0.25149	-2.5771	-2.7896	-2.8812	-2.8063	-2.5729	-3.3021	-2.8979	-3.1271	-3.0812	-2.7771	-3.0312	-2.8688	-2.9188	-3.0833	-2.8125	-2.9313	486.323	220.381	355.424	312.443	272.546	217.540	427.361	166.651	245.444	165.183	152.673	325.243	186.473	162.236	396.290	388.427	0.0011306	0.0085576	0.0018618	984.58	2.4967e-05	4.4139e-05	961.42	285.1	1.1829e-05	6.005e-05	309.19	95.092	86.009	27.767	3.2308e-05	40.442	0.018643	0.020002	0.0066038	2447.3	0.00021783	0.00022428	1535.8	496.22	0.00021804	0.00023164	1044	189.69	174.36	57.917	0.00026659	83.901	438.984	163.417	189.011	142.194	408.565	185.419	140.264	146.381	440.150	201.126	144.545	149.796	150.163	154.756	336.698	153.553	-8191	255	
2260.053	1	1	0	0	0.1144	0.14533	0.25313	0.16608	0.27577	0.2147	0.16675	0.27146	0.10651	0.09051	0.14498	0.21256	0.18746	0.1958	0.051514	0.033308	-2.5229	-2.5792	-3.025	-2.9146	-2.8396	-2.9875	-2.8271	-2.9938	-3.0083	-2.8208	-3.2479	-2.8521	-2.6813	-3.1396	-2.8375	-3.0146	471.178	176.794	174.898	282.460	330.835	445.044	454.308	436.000	351.721	344.953	234.458	433.094	434.687	462.909	379.390	132.484	0.0011152	0.0067813	0.001261	993.24	2.2858e-05	7.0349e-05	947.56	282.33	3.1238e-05	6.6641e-05	300.21	95.635	86.26	28.138	6.8041e-05	41.361	0.018658	0.022534	0.0069029	2449.6	0.00022431	0.00025714	1549.9	495.79	0.0002243	0.00026489	1056	191.75	177.72	62.656	0.00026954	85.213	470.680	173.027	293.903	142.244	252.338	215.916	140.674	145.959	129.384	205.684	144.920	149.229	150.167	155.161	372.776	152.870	-8191	255	
2260.149	1	1	0	0	0.10393	0.10155	0.0957	0.21024	0.30085	0.17483	0.060851	0.15994	0.104	0.22197	0.28643	0.13456	0.10618	0.33492	0.086679	0.13192	-2.4708	-2.9313	-2.8375	-3.0542	-2.6417	-3.0167	-2.8979	-2.7	-3.0563	-2.5021	-3.1458	-3.0563	-2.7583	-3.1771	-2.7188	-2.8104	329.449	333.817	274.200	436.197	276.276	483.954	377.353	411.162	311.600	323.333	248.450	358.021	182.072	456.098	130.631	210.737	0.0018017	0.0046716	0.0021969	986.53	4.7403e-05	4.8335e-05	942.22	278.75	7.7886e-05	1.9866e-05	305.6	96.141	86.485	27.901	6.9173e-05	41.616	0.019533	0.02535	0.0068561	2442.9	0.00023433	0.00028126	1529.3	493.95	0.00024036	0.00029421	1057.3	194.16	187.41	66.818	0.00027675	88.21	473.019	153.952	306.370	141.490	203.063	202.052	140.419	145.936	172.391	273.294	144.706	149.649	149.363	155.358	347.695	153.253	-8191	255	
2260.246	1	1	0	0	0.18952	0.026798	0.38191	0.035321	0.19102	0.047261	0.21572	0.098315	0.08492	0.037971	0.18869	0.052506	0.21206	0.054479	0.10137	0.094711	-2.6854	-2.6833	-2.8583	-3.0812	-2.7021	-2.9146	-2.975	-2.8083	-3.1063	-2.7271	-3.1312	-3.1292	-2.6312	-3.2375	-2.8854	-2.8396	266.768	370.055	192.518	395.499	162.589	325.921	441.076	420.154	181.060	258.134	452.622	142.230	198.229	164.718	353.058	346.739	0.0023747	0.002905	0.0012163	979.66	0.00013028	1.9997e-05	935.99	276.86	0.00010936	3.1722e-05	302.96	95.863	85.582	27.784	6.9509e-05	41.902	0.02304	0.029473	0.0074847	2626.6	0.00029574	0.00033545	1596.2	519.37	0.00030057	0.0003344	1121.2	203.57	208.78	69.917	0.00028962	91.079	464.363	295.489	324.406	142.314	191.721	163.609	140.125	146.113	185.679	411.061	145.132	149.548	148.679	155.616	347.666	153.245	-8191	255	
2260.342	1	1	0	0	0.13526	0.16061	0.27387	0.056957	0.10239	0.1044	0.18741	0.051961	0.21947	0.14847	0.075538	0.13167	0.28118	0.13111	0.078653	0.034236	-2.6583	-2.8292	-2.8542	-3.0375	-2.7062	-2.8812	-3.0312	-2.8833	-3.0687	-2.8625	-2.8604	-3.0187	-2.7438	-2.9	-3.2313	-2.7667	239.184	359.681	297.089	312.770	411.928	145.883	447.946	243.434	414.253	334.766	232.077	299.478	379.084	151.212	328.214	318.411	0.0024279	0.0035516	0.0004189	969.51	5.8515e-05	7.1974e-05	930.75	279.61	0.00013313	5.194e-05	296.67	97.088	85.445	27.597	6.5441e-05	42.868	0.026026	0.029037	0.0072103	2562.9	0.00030645	0.00030828	1543.8	507.97	0.00030689	0.00030525	1061.5	199.56	209.71	65.856	0.00026872	89.832	457.047	331.354	316.291	141.311	198.917	377.605	140.259	145.874	168.920	371.745	145.145	149.373	149.706	155.730	373.213	152.863	-8191	255	
2260.438	1	1	0	0	0.028092	0.1171	0.24964	0.18971	0.070595	0.17875	0.21596	0.20192	0.089385	0.27462	0.11398	0.05183	0.1405	0.15419	0.29846	0.047211	-2.7354	-3.0083	-2.7417	-3.1146	-2.7208	-3.1458	-2.9917	-2.6125	-3.025	-2.5646	-2.7875	-3.0854	-2.9208	-3.05	-2.8458	-2.9229	320.139	366.836	195.982	439.259	404.413	277.431	436.030	420.184	448.030	154.271	199.028	436.109	133.462	183.101	423.274	294.860	0.0011399	0.003216	0.00056878	997.21	2.4002e-05	4.1005e-05	947.57	283.51	4.6343e-05	3.8032e-05	298.66	100.65	86.778	28.984	1.5041e-05	44.801	0.026187	0.02677	0.0068081	2594.7	0.00030999	0.00028474	1511.3	513.33	0.00029702	0.00027485	995.14	203.27	205.59	63.233	0.00024257	92.412	414.004	302.488	280.152	140.322	187.664	395.000	140.309	145.998	249.860	344.492	144.477	148.934	150.541	155.762	412.429	152.443	-8191	255	
