BOXY.EXE: ISS Imagent and Oximeter Data Acquisition Program Version 0.80
Ascii Record File

#ACQ INFORMATION
2  Detector Channels 
16  External MUX Channels 
1  Auxiliary Channels 
5000  Waveform (CCF) Frequency (Hz)
1  Waveforms Skipped 
30  Waveforms Averaged 
1  Cycles Averaged 
16  Acquisitions per Waveform 
10.0806  Updata Rate (Hz) 

#FILE INFORMATION
TRUE -- External MUX Channel results are PARSED.
FALSE -- AC DC and Phase are NOT grouped.
TRUE -- Companion Program Settings File CREATED.
FALSE -- AC data not excluded
FALSE -- DC data not excluded
FALSE -- Phase data not excluded
FALSE -- Auxillary Chn. data not excluded
Tab delimiters

#CALIBRATION STATE
TRUE -- Waveform Calibration Values APPLIED.


#AUX CALIBRATION VALUES
Val Type	aux-1	

Term	1.0000e+00	
Factor	0.0000e+00	


#WF CALIBRATION VALUES
A = Detector Channel
Val Type	A-AC1	A-AC2	A-AC3	A-AC4	A-AC5	A-AC6	A-AC7	A-AC8	A-AC9	A-AC10	A-AC11	A-AC12	A-AC13	A-AC14	A-AC15	A-AC16	A-DC1	A-DC2	A-DC3	A-DC4	A-DC5	A-DC6	A-DC7	A-DC8	A-DC9	A-DC10	A-DC11	A-DC12	A-DC13	A-DC14	A-DC15	A-DC16	A-Ph1	A-Ph2	A-Ph3	A-Ph4	A-Ph5	A-Ph6	A-Ph7	A-Ph8	A-Ph9	A-Ph10	A-Ph11	A-Ph12	A-Ph13	A-Ph14	A-Ph15	A-Ph16	

Term	0.00000e+00	0.00000e+00	0.00000e+00	0.00000e+00	0.00000e+00	0.00000e+00	0.00000e+00	0.00000e+00	0.00000e+00	0.00000e+00	0.00000e+00	0.00000e+00	0.00000e+00	0.00000e+00	0.00000e+00	0.00000e+00	0.00000e+00	0.00000e+00	0.00000e+00	0.00000e+00	0.00000e+00	0.00000e+00	0.00000e+00	0.00000e+00	0.00000e+00	0.00000e+00	0.00000e+00	0.00000e+00	0.00000e+00	0.00000e+00	0.00000e+00	0.00000e+00	0.00000e+00	0.00000e+00	0.00000e+00	0.00000e+00	0.00000e+00	0.00000e+00	0.00000e+00	0.00000e+00	0.00000e+00	0.00000e+00	0.00000e+00	0.00000e+00	0.00000e+00	0.00000e+00	0.00000e+00	0.00000e+00	
Factor	1.00000e+00	1.00000e+00	1.00000e+00	1.00000e+00	1.00000e+00	1.00000e+00	1.00000e+00	1.00000e+00	1.00000e+00	1.00000e+00	1.00000e+00	1.00000e+00	1.00000e+00	1.00000e+00	1.00000e+00	1.00000e+00	1.00000e+00	1.00000e+00	1.00000e+00	1.00000e+00	1.00000e+00	1.00000e+00	1.00000e+00	1.00000e+00	1.00000e+00	1.00000e+00	1.00000e+00	1.00000e+00	1.00000e+00	1.00000e+00	1.00000e+00	1.00000e+00	X	X	X	X	X	X	X	X	X	X	X	X	X	X	X	X	

B = Detector Channel
Val Type	B-AC1	B-AC2	B-AC3	B-AC4	B-AC5	B-AC6	B-AC7	B-AC8	B-AC9	B-AC10	B-AC11	B-AC12	B-AC13	B-AC14	B-AC15	B-AC16	B-DC1	B-DC2	B-DC3	B-DC4	B-DC5	B-DC6	B-DC7	B-DC8	B-DC9	B-DC10	B-DC11	B-DC12	B-DC13	B-DC14	B-DC15	B-DC16	B-Ph1	B-Ph2	B-Ph3	B-Ph4	B-Ph5	B-Ph6	B-Ph7	B-Ph8	B-Ph9	B-Ph10	B-Ph11	B-Ph12	B-Ph13	B-Ph14	B-Ph15	B-Ph16	

Term	0.00000e+00	0.00000e+00	0.00000e+00	0.00000e+00	0.00000e+00	0.00000e+00	0.00000e+00	0.00000e+00	0.00000e+00	0.00000e+00	0.00000e+00	0.00000e+00	0.00000e+00	0.00000e+00	0.00000e+00	0.00000e+00	0.00000e+00	0.00000e+00	0.00000e+00	0.00000e+00	0.00000e+00	0.00000e+00	0.00000e+00	0.00000e+00	0.00000e+00	0.00000e+00	0.00000e+00	0.00000e+00	0.00000e+00	0.00000e+00	0.00000e+00	0.00000e+00	-7.26684e+01	-1.29267e+02	-1.24907e+02	-1.81870e+02	-5.07789e+01	-7.05107e+01	-1.57448e+02	-1.62015e+02	-4.62257e+01	-6.38428e+01	-1.71264e+02	-1.72441e+02	-1.82777e+02	-1.77174e+02	-5.93073e+01	-1.49710e+02	
Factor	1.61401e-05	1.59208e-04	4.37177e-05	1.47657e-01	1.35887e-06	1.73276e-06	1.65095e-01	4.93827e-02	1.11487e-06	1.79644e-06	7.99830e-02	3.23445e-02	3.45062e-02	8.62477e-03	1.51567e-06	1.23023e-02	1.56454e-05	4.14206e-05	1.16575e-05	7.63936e-02	3.74041e-07	4.77579e-07	8.05275e-02	2.56400e-02	3.72120e-07	4.73555e-07	4.04468e-02	1.64577e-02	1.81944e-02	4.52542e-03	4.11768e-07	6.25502e-03	X	X	X	X	X	X	X	X	X	X	X	X	X	X	X	X	



#DISTANCE SETTINGS
A = Detector Channel
A-1	A-2	A-3	A-4	A-5	A-6	A-7	A-8	A-9	A-10	A-11	A-12	A-13	A-14	A-15	A-16	

2.5000e+00	3.0000e+00	2.5000e+00	3.0000e+00	2.0000e+00	3.0000e+00	1.5000e+00	3.0000e+00	3.0000e+00	3.0000e+00	3.0000e+00	3.0000e+00	3.0000e+00	3.0000e+00	1.5000e+00	3.0000e+00	

B = Detector Channel
B-1	B-2	B-3	B-4	B-5	B-6	B-7	B-8	B-9	B-10	B-11	B-12	B-13	B-14	B-15	B-16	

1.0000e+01	1.0000e+01	1.0000e+01	1.4400e+00	1.0000e+01	1.0000e+01	1.5100e+00	1.9400e+00	1.0000e+01	1.0000e+01	1.9900e+00	2.4900e+00	2.4100e+00	2.9000e+00	1.0000e+01	2.9800e+00	




#DATA BEGINS
time	group	step	mark	flag	A-AC1	A-AC2	A-AC3	A-AC4	A-AC5	A-AC6	A-AC7	A-AC8	A-AC9	A-AC10	A-AC11	A-AC12	A-AC13	A-AC14	A-AC15	A-AC16	A-DC1	A-DC2	A-DC3	A-DC4	A-DC5	A-DC6	A-DC7	A-DC8	A-DC9	A-DC10	A-DC11	A-DC12	A-DC13	A-DC14	A-DC15	A-DC16	A-Ph1	A-Ph2	A-Ph3	A-Ph4	A-Ph5	A-Ph6	A-Ph7	A-Ph8	A-Ph9	A-Ph10	A-Ph11	A-Ph12	A-Ph13	A-Ph14	A-Ph15	A-Ph16	B-AC1	B-AC2	B-AC3	B-AC4	B-AC5	B-AC6	B-AC7	B-AC8	B-AC9	B-AC10	B-AC11	B-AC12	B-AC13	B-AC14	B-AC15	B-AC16	B-DC1	B-DC2	B-DC3	B-DC4	B-DC5	B-DC6	B-DC7	B-DC8	B-DC9	B-DC10	B-DC11	B-DC12	B-DC13	B-DC14	B-DC15	B-DC16	B-Ph1	B-Ph2	B-Ph3	B-Ph4	B-Ph5	B-Ph6	B-Ph7	B-Ph8	B-Ph9	B-Ph10	B-Ph11	B-Ph12	B-Ph13	B-Ph14	B-Ph15	B-Ph16	aux-1	digaux	

26751.963	1	1	0	256	0.054611	0.13359	0.19716	0.26496	0.13375	0.36173	0.032216	0.059708	0.063505	0.13479	0.12912	0.15813	0.13711	0.10167	0.019253	0.20091	-4.1042	-4.6521	-4.2729	-4.9208	-4.5208	-4.3	-4.925	-4.4396	-4.4833	-4.775	-4.0792	-4.5625	-4.5021	-4.5208	-4.8708	-4.4542	196.639	284.662	64.275	319.109	340.835	222.597	96.750	358.722	85.667	345.567	346.315	73.911	292.489	50.812	203.425	393.298	0.00045241	0.00036459	0.00012944	650.27	4.0057e-06	3.6473e-06	811.76	238.84	3.1585e-06	5.9896e-06	318.64	113.74	88.087	41.781	5.8891e-06	62.74	0.00070512	0.00089106	0.00025156	648.04	8.3879e-06	1.0231e-05	808.42	239.12	9.8511e-06	1.0221e-05	316.94	114.76	88.871	42.271	9.5582e-06	63.394	210.350	137.662	130.659	54.305	194.852	173.267	53.465	59.019	212.075	196.168	56.598	61.316	63.562	67.861	201.412	64.986	-8191	255	
26752.059	1	1	0	0	0.13157	0.1313	0.16235	0.05011	0.22893	0.055163	0.17479	0.23268	0.14477	0.14631	0.19614	0.22231	0.1929	0.20577	0.21211	0.13706	-4.2104	-4.8167	-4.2063	-4.675	-4.7854	-4.1729	-4.9833	-4.5604	-4.3562	-4.7792	-4.3083	-4.6958	-4.7979	-4.1542	-4.7417	-4.4521	390.417	341.121	370.035	345.553	328.231	122.472	343.682	323.702	342.323	136.493	324.678	363.564	306.526	358.860	283.128	310.390	0.00043884	0.00053461	0.00012233	652.47	4.8527e-06	4.0398e-06	816.49	240	4.2127e-06	5.9355e-06	319.34	114.03	88.073	41.697	4.77e-06	62.792	0.00069482	0.00090159	0.00024736	651.63	8.3458e-06	1.0357e-05	810.78	240.35	1.0096e-05	9.3754e-06	318.74	115.19	88.753	42.266	1.0629e-05	63.537	209.158	143.916	125.789	54.527	215.982	205.096	53.658	58.936	226.090	170.866	56.993	61.732	63.393	67.891	197.082	65.412	-8191	255	
26752.133	1	1	0	0	0.21554	0.1071	0.2567	0.26795	0.0099114	0.08461	0.11429	0.23005	0.13754	0.030811	0.12952	0.0099324	0.13771	0.15666	0.33776	0.30628	-4.0958	-4.8438	-4.3167	-4.7083	-4.7896	-4.1979	-4.7562	-4.7333	-4.2125	-4.8854	-4.4187	-4.475	-4.8438	-4.4542	-4.7875	-4.5708	217.148	45.271	353.507	55.764	94.443	248.297	82.473	390.473	266.284	177.447	271.225	46.499	76.518	60.169	399.323	46.540	0.0004148	0.00031523	9.493e-05	655.97	4.3836e-06	2.6353e-06	814.26	241.98	3.0657e-06	6.104e-06	319.53	115.32	88.172	41.768	5.1917e-06	63.063	0.00068999	0.00084912	0.00023779	650.97	8.3567e-06	9.8411e-06	811.12	242.09	1.0344e-05	9.4869e-06	320.46	115.67	88.949	42.364	1.0087e-05	63.65	207.426	112.284	156.833	54.585	218.381	194.571	53.602	58.920	198.570	190.759	56.345	61.572	63.433	67.855	199.098	65.086	-8191	255	
26752.229	1	1	0	0	0.11365	0.072274	0.18417	0.24922	0.19169	0.15531	0.08257	0.24079	0.22403	0.046661	0.44454	0.2384	0.19072	0.26556	0.16486	0.15192	-3.9667	-4.7771	-4.3458	-4.5021	-4.7	-4.1104	-4.6646	-4.8083	-4.1937	-4.8729	-4.4021	-4.5021	-4.9792	-4.2917	-4.5604	-4.7188	306.521	166.142	214.607	357.509	124.834	394.724	273.135	330.837	79.596	46.217	385.982	399.009	357.474	341.141	207.500	276.250	0.0004365	0.0006313	8.4404e-05	657.49	3.1055e-06	5.8853e-06	821.51	240.8	3.7471e-06	5.2739e-06	321	114.14	88.191	41.792	4.4578e-06	62.983	0.00068996	0.00084196	0.00024245	652.18	8.2671e-06	9.3367e-06	812.06	241.8	9.1968e-06	1.0176e-05	320.29	115.08	89.011	42.273	1.1131e-05	63.41	207.962	135.295	130.658	54.489	208.926	184.147	53.673	58.940	224.984	178.543	56.922	61.635	63.519	68.062	196.878	65.171	-8191	255	
26752.348	1	1	0	0	0.1578	0.1063	0.20487	0.25867	0.18814	0.085248	0.32868	0.2318	0.10948	0.10034	0.040953	0.22558	0.13402	0.31908	0.063784	0.28997	-3.8708	-4.7625	-4.5	-4.4833	-4.7458	-4.1771	-4.6312	-4.7292	-4.1333	-4.8938	-4.6604	-4.4146	-4.7354	-4.3104	-4.5938	-4.8771	201.234	107.297	316.051	379.365	244.811	286.736	384.030	315.002	127.923	292.047	374.388	360.367	113.256	89.566	266.308	300.439	0.0004401	0.00023679	0.00013235	656.24	4.3137e-06	5.1513e-06	820.11	241.19	3.5596e-06	6.9821e-06	320.04	114.18	88.363	41.803	3.6472e-06	62.787	0.00069563	0.00086267	0.00025919	651.08	8.133e-06	9.9127e-06	812.44	241.74	8.5409e-06	1.1254e-05	320.22	115.12	88.828	42.37	1.0948e-05	63.35	209.349	110.646	111.662	54.493	200.212	165.627	53.465	58.871	197.513	188.544	56.948	61.694	63.643	68.013	212.288	65.020	-8191	255	
26752.443	1	1	0	0	0.24571	0.047495	0.049236	0.065279	0.029591	0.16178	0.17201	0.20796	0.14836	0.099048	0.16629	0.1885	0.14104	0.092722	0.08851	0.044563	-3.85	-4.725	-4.5208	-4.4313	-4.7833	-4.2833	-4.6292	-4.7812	-4.2396	-4.8583	-4.5687	-4.2604	-4.7917	-4.4854	-4.4667	-4.9333	129.291	363.821	204.163	270.465	180.968	146.335	61.626	343.669	197.250	98.569	287.875	141.113	362.397	350.512	304.105	116.207	0.00044622	0.0005584	0.00011206	654.17	4.2267e-06	3.897e-06	818.45	243.56	3.8973e-06	5.6228e-06	322.06	114.68	88.332	41.728	4.8223e-06	63.023	0.0006853	0.00085309	0.00024962	651.2	8.1455e-06	9.476e-06	812.43	243.05	8.2487e-06	1.0961e-05	321.2	115.48	88.913	42.35	1.1387e-05	63.525	208.367	130.839	120.853	54.195	226.097	159.820	53.580	59.137	218.022	198.001	56.935	61.361	63.186	67.896	201.320	65.233	-8191	255	
26752.539	1	1	0	0	0.11063	0.12458	0.16273	0.033001	0.01251	0.13645	0.27844	0.046735	0.16411	0.05389	0.083101	0.25607	0.12368	0.14377	0.065067	0.098719	-3.8583	-4.6208	-4.6771	-4.2771	-4.8729	-4.3854	-4.5417	-4.8958	-4.2417	-4.6708	-4.8271	-4.2458	-4.8542	-4.5375	-4.3604	-4.7604	73.594	140.067	304.271	120.855	271.663	381.257	47.054	303.409	75.437	226.345	357.798	367.962	337.782	233.732	43.042	280.886	0.0004415	0.00026877	0.00011407	654.16	5.3289e-06	4.8815e-06	821.42	243.03	2.1427e-06	4.2051e-06	325.5	115.01	88.044	41.903	5.0016e-06	62.834	0.00067744	0.00087139	0.00025508	651.97	8.7713e-06	1.0232e-05	813.68	243.56	8.6882e-06	1.1571e-05	323.38	115.68	88.962	42.309	1.1149e-05	63.39	211.063	115.430	118.869	54.450	232.855	201.283	53.707	59.105	193.726	195.344	56.735	61.463	63.216	67.846	202.387	64.996	-8191	255	
26752.660	1	1	0	0	0.080321	0.3071	0.084276	0.074956	0.076583	0.10509	0.029286	0.29352	0.20567	0.12789	0.18277	0.065893	0.15415	0.11231	0.11015	0.16211	-3.8896	-4.5896	-4.5708	-4.4333	-4.85	-4.3875	-4.5312	-4.9271	-4.2917	-4.4417	-4.8625	-4.225	-4.7312	-4.6167	-4.2021	-5.0417	50.540	337.785	364.480	344.550	242.378	48.563	47.574	334.939	102.162	319.522	67.600	356.828	92.048	222.585	124.544	288.151	0.00043906	0.00052406	0.00015659	656.6	4.5187e-06	4.4965e-06	821.07	244.15	4.3536e-06	4.3344e-06	325.52	114.55	88.573	41.692	6.1199e-06	62.995	0.00068344	0.00096536	0.00025693	652.35	9.7103e-06	1.0229e-05	813.93	244.23	8.9635e-06	1.1982e-05	324.26	115.61	89.128	42.227	1.1185e-05	63.421	210.092	137.067	140.373	54.446	215.030	197.536	53.511	59.033	232.782	179.654	56.818	61.470	63.156	67.937	205.133	65.139	-8191	255	
26752.730	1	1	0	0	0.12244	0.10036	0.19321	0.22706	0.19286	0.098484	0.23138	0.084577	0.2706	0.15854	0.16893	0.10068	0.18782	0.33705	0.12258	0.13328	-3.9313	-4.4375	-4.8146	-4.25	-4.8875	-4.6	-4.3604	-4.7833	-4.3479	-4.5437	-4.925	-4.3688	-4.625	-4.7354	-4.2333	-4.8625	303.276	76.212	285.622	364.987	332.611	67.867	320.616	52.085	347.506	160.756	76.678	378.267	382.544	389.001	366.288	382.710	0.00045382	0.00035442	0.00015925	654.14	4.6911e-06	3.9158e-06	821.93	243.63	3.9215e-06	3.677e-06	321.59	114.37	88.341	41.431	4.4287e-06	61.975	0.00069377	0.00092057	0.00024561	651.69	9.538e-06	1.0169e-05	814.28	243.56	8.4433e-06	1.1747e-05	321.78	115.17	88.69	42.023	1.0179e-05	62.879	208.319	149.542	129.716	54.324	235.533	188.672	53.484	59.186	223.232	193.673	56.669	61.488	63.651	67.731	211.727	65.187	-8191	255	
26752.826	1	1	0	0	0.030456	0.075324	0.16288	0.22403	0.024656	0.18556	0.1273	0.16332	0.065814	0.12957	0.2173	0.20844	0.13573	0.1262	0.058336	0.19662	-4.2917	-4.4667	-4.6125	-4.4125	-4.4938	-4.6396	-4.2646	-4.7708	-4.4146	-4.3854	-4.9125	-4.3438	-4.525	-4.7708	-4.1937	-4.8646	373.196	305.252	352.073	314.175	288.489	323.460	145.964	366.257	180.862	215.770	328.479	325.297	89.174	336.965	84.946	304.897	0.00043774	0.00038611	6.4782e-05	652.17	3.751e-06	3.4472e-06	818.7	242.1	3.8543e-06	4.9925e-06	320.03	114.34	87.886	41.507	4.4452e-06	62.349	0.0006807	0.00094681	0.00024044	650.03	1.0101e-05	1.0546e-05	811.84	242.46	8.9448e-06	1.1607e-05	319.79	115.01	88.483	42.014	9.4912e-06	63.024	208.663	133.516	127.855	54.242	190.398	183.134	53.276	58.945	214.146	190.150	56.620	61.428	63.338	67.808	211.824	65.000	-8191	255	
26752.947	1	1	0	0	0.13994	0.25997	0.068787	0.072053	0.10663	0.30016	0.22007	0.18974	0.1926	0.22286	0.17739	0.21046	0.11444	0.24792	0.12682	0.080567	-4.1625	-4.3375	-4.7583	-4.25	-4.3917	-4.775	-4.2438	-4.8688	-4.3979	-4.3167	-4.9542	-4.5208	-4.6646	-4.8708	-4.1958	-4.8688	108.969	378.320	341.191	116.768	206.430	81.309	377.754	179.434	46.651	110.766	373.329	364.192	385.017	368.951	89.584	395.531	0.00043167	0.00066489	0.00015372	653.63	4.8812e-06	4.6272e-06	819.62	241.43	3.7989e-06	2.5902e-06	319.46	113.86	88.032	41.69	4.1462e-06	62.773	0.00069169	0.00093473	0.00023861	650.65	9.796e-06	1.0013e-05	811.46	241.15	8.6154e-06	1.1109e-05	318.33	115	88.761	42.194	9.3454e-06	63.207	209.485	134.572	142.575	54.489	216.379	182.818	53.670	59.142	204.170	189.718	56.961	61.825	63.337	67.953	206.064	65.010	-8191	255	
26753.045	1	1	0	0	0.21317	0.091156	0.034334	0.029949	0.23007	0.17283	0.1549	0.29482	0.070123	0.10159	0.20417	0.041307	0.33112	0.11305	0.25155	0.19132	-4.2042	-4.1104	-4.8313	-4.4833	-4.4333	-4.8063	-4.3	-4.6604	-4.5813	-4.1896	-4.825	-4.6396	-4.35	-4.8792	-4.3875	-4.7208	274.899	321.383	377.389	129.923	281.325	304.766	371.656	393.398	75.113	322.752	381.507	78.973	324.299	381.887	202.125	321.395	0.00046351	0.0002764	0.00011745	653.77	3.1682e-06	5.3764e-06	817.23	241.39	3.2206e-06	4.1263e-06	320.9	114.66	87.91	41.712	4.9798e-06	62.532	0.0007059	0.00093369	0.00023189	650.23	9.6993e-06	1.0007e-05	811.52	241.4	8.5316e-06	1.0537e-05	319.62	115.5	88.671	42.189	9.3162e-06	63.159	212.146	135.636	128.397	54.393	219.491	199.400	53.484	59.036	216.215	213.180	56.618	61.462	63.534	67.957	211.721	65.182	-8191	255	
26753.139	1	1	0	0	0.12131	0.074314	0.25609	0.087295	0.31208	0.080129	0.052318	0.12719	0.13017	0.24204	0.35034	0.10278	0.19332	0.16362	0.048285	0.22504	-4.2417	-4.0312	-4.7625	-4.6937	-4.2625	-4.9146	-4.3708	-4.6729	-4.7729	-4.2917	-4.8333	-4.4187	-4.4146	-4.8208	-4.3771	-4.675	76.577	312.262	275.987	296.632	300.814	400.230	390.763	304.974	221.869	376.774	250.208	90.257	59.217	391.667	290.066	301.242	0.00041376	0.00041525	0.00013473	654.53	3.1511e-06	3.8225e-06	817.47	240	3.5622e-06	6.0299e-06	320.74	114.09	87.274	41.587	3.8326e-06	62.743	0.00068784	0.00090625	0.00023988	650.2	1.0022e-05	9.7496e-06	812.1	241.27	8.5751e-06	9.844e-06	320.32	115.21	88.351	42.031	9.6216e-06	63.177	205.682	118.003	123.098	54.463	203.837	195.745	53.557	59.087	204.380	196.655	56.872	61.700	63.230	67.808	217.456	65.253	-8191	255	
26753.260	1	1	0	0	0.24182	0.055368	0.040436	0.10539	0.065999	0.13766	0.13385	0.14376	0.12233	0.17774	0.026519	0.081535	0.14488	0.048783	0.12239	0.10265	-4.4375	-4.1458	-4.5625	-4.5708	-4.1521	-4.7521	-4.4083	-4.3458	-4.7292	-4.1083	-4.7937	-4.5938	-4.1521	-4.8187	-4.5125	-4.4167	151.437	281.049	347.718	41.429	218.865	267.832	56.824	366.130	385.707	346.684	322.018	305.966	216.509	273.543	400.637	339.474	0.00043381	0.00041059	0.00012212	656.05	2.8941e-06	4.7348e-06	819.08	240.07	2.5351e-06	3.4184e-06	319.02	114.93	87.419	41.638	4.4697e-06	62.134	0.00068422	0.000877	0.00024996	650.41	9.383e-06	9.665e-06	810.8	239.89	8.5735e-06	9.6418e-06	318.9	115.23	88.252	41.969	9.6354e-06	62.728	207.700	128.260	154.478	54.508	229.796	178.083	53.470	59.251	243.150	196.133	56.645	61.779	63.696	67.727	213.235	65.093	-8191	255	
26753.330	1	1	0	0	0.16279	0.17329	0.12763	0.1921	0.24899	0.089991	0.027808	0.055363	0.096135	0.024513	0.13813	0.13513	0.11612	0.19999	0.15006	0.096826	-4.4417	-4.125	-4.5208	-4.7771	-4.1958	-4.7125	-4.6521	-4.4896	-4.95	-4.2688	-4.6625	-4.6792	-4.2188	-4.8979	-4.425	-4.275	103.264	252.678	316.155	333.411	361.294	117.775	205.287	151.558	75.227	256.796	398.252	72.025	349.898	137.935	131.094	178.986	0.00043552	0.00038223	0.00014539	651.08	3.3199e-06	4.5859e-06	812.81	240	2.4686e-06	5.4779e-06	317.9	114.57	87.406	41.358	3.6309e-06	62.441	0.00067285	0.00089814	0.00024656	648.79	8.8616e-06	1.0405e-05	807.75	239.5	8.0928e-06	9.8194e-06	317.23	114.82	87.881	41.923	9.3849e-06	62.768	207.514	147.560	138.338	54.354	214.795	207.827	53.556	59.117	226.396	187.951	56.717	61.442	63.510	68.147	229.746	65.143	-8191	255	
26753.428	1	1	0	0	0.055295	0.14272	0.19143	0.1296	0.091828	0.10126	0.19264	0.10912	0.075349	0.10122	0.052892	0.19655	0.13814	0.19959	0.13759	0.24302	-4.6167	-4.1854	-4.5771	-4.8417	-4.2125	-4.7667	-4.5583	-4.3375	-4.7771	-4.3438	-4.5979	-4.7667	-4.3333	-4.8021	-4.4896	-4.4062	332.907	53.479	223.743	242.721	112.119	167.797	67.582	340.073	355.161	122.214	304.555	393.269	42.650	388.702	267.681	389.642	0.00042373	0.0003975	0.00016347	651.35	4.4526e-06	3.2714e-06	811.4	238.88	3.2615e-06	6.5483e-06	316.88	114.45	87.323	41.602	4.7044e-06	62.325	0.0006634	0.00089667	0.00025195	648.08	7.879e-06	1.1714e-05	806.93	238.99	8.1541e-06	9.8401e-06	317.22	114.8	88.044	42.028	9.3308e-06	62.957	209.360	123.087	121.541	54.525	218.399	150.237	53.719	59.154	240.559	184.888	56.923	61.607	63.474	67.558	188.675	65.223	-8191	255	
26753.523	1	1	0	0	0.099661	0.1914	0.078921	0.096415	0.15988	0.10127	0.099696	0.17036	0.1323	0.028042	0.30455	0.19006	0.31731	0.26834	0.094362	0.077406	-4.4979	-4.3958	-4.5021	-4.7771	-4.0292	-4.7	-4.5958	-4.3771	-4.8438	-4.4167	-4.5021	-4.8021	-4.1917	-4.7625	-4.6417	-4.475	357.692	148.267	291.965	55.340	339.397	207.342	87.129	388.459	219.886	181.745	388.410	356.072	55.696	244.543	279.469	54.996	0.00042659	0.00042908	0.00012353	653.2	3.7277e-06	5.0153e-06	815.93	239.89	3.9892e-06	4.2549e-06	315.85	113.7	88.011	41.303	5.3406e-06	62.489	0.00067503	0.00091911	0.00025814	649.84	8.3208e-06	1.1755e-05	808.56	239.63	8.0176e-06	1.0023e-05	315.98	114.63	88.362	42	9.1961e-06	63.063	208.633	139.817	120.775	54.277	232.489	177.097	53.582	59.175	239.549	197.306	56.725	61.399	63.610	67.806	191.192	65.097	-8191	255	
26753.643	1	1	0	0	0.27666	0.17543	0.072091	0.20295	0.099511	0.1217	0.13612	0.24497	0.1484	0.11038	0.23729	0.14522	0.034374	0.14553	0.15703	0.18967	-4.4458	-4.4229	-4.3104	-4.8125	-4.0687	-4.5771	-4.8604	-4.3167	-4.7854	-4.5563	-4.275	-5.0687	-4.5208	-4.5917	-4.8667	-4.5	383.433	307.745	275.015	314.268	151.355	150.542	89.766	359.430	275.914	67.142	366.606	91.341	84.940	213.894	161.997	85.065	0.00047143	0.00068543	0.00010796	651.14	3.7462e-06	2.3835e-06	814.68	238.27	3.7185e-06	4.9575e-06	317.3	114.25	87.151	41.278	3.2803e-06	62.336	0.000722	0.00092273	0.00024984	648.27	8.5531e-06	1.1851e-05	808.22	238.07	8.0564e-06	1.0055e-05	316.16	114.82	87.961	41.912	9.4638e-06	62.931	208.685	112.357	135.642	54.488	216.070	194.928	53.527	58.978	221.344	197.817	56.849	61.916	63.401	67.942	189.562	65.076	-8191	255	
