BOXY.EXE: ISS Imagent and Oximeter Data Acquisition Program Version 0.80
Ascii Record File

#ACQ INFORMATION
2  Detector Channels 
16  External MUX Channels 
1  Auxiliary Channels 
5000  Waveform (CCF) Frequency (Hz)
1  Waveforms Skipped 
30  Waveforms Averaged 
1  Cycles Averaged 
16  Acquisitions per Waveform 
10.0806  Updata Rate (Hz) 

#FILE INFORMATION
TRUE -- External MUX Channel results are PARSED.
FALSE -- AC DC and Phase are NOT grouped.
TRUE -- Companion Program Settings File CREATED.
FALSE -- AC data not excluded
FALSE -- DC data not excluded
FALSE -- Phase data not excluded
FALSE -- Auxillary Chn. data not excluded
Tab delimiters

#CALIBRATION STATE
TRUE -- Waveform Calibration Values APPLIED.


#AUX CALIBRATION VALUES
Val Type	aux-1	

Term	1.0000e+00	
Factor	0.0000e+00	


#WF CALIBRATION VALUES
A = Detector Channel
Val Type	A-AC1	A-AC2	A-AC3	A-AC4	A-AC5	A-AC6	A-AC7	A-AC8	A-AC9	A-AC10	A-AC11	A-AC12	A-AC13	A-AC14	A-AC15	A-AC16	A-DC1	A-DC2	A-DC3	A-DC4	A-DC5	A-DC6	A-DC7	A-DC8	A-DC9	A-DC10	A-DC11	A-DC12	A-DC13	A-DC14	A-DC15	A-DC16	A-Ph1	A-Ph2	A-Ph3	A-Ph4	A-Ph5	A-Ph6	A-Ph7	A-Ph8	A-Ph9	A-Ph10	A-Ph11	A-Ph12	A-Ph13	A-Ph14	A-Ph15	A-Ph16	

Term	0.00000e+00	0.00000e+00	0.00000e+00	0.00000e+00	0.00000e+00	0.00000e+00	0.00000e+00	0.00000e+00	0.00000e+00	0.00000e+00	0.00000e+00	0.00000e+00	0.00000e+00	0.00000e+00	0.00000e+00	0.00000e+00	0.00000e+00	0.00000e+00	0.00000e+00	0.00000e+00	0.00000e+00	0.00000e+00	0.00000e+00	0.00000e+00	0.00000e+00	0.00000e+00	0.00000e+00	0.00000e+00	0.00000e+00	0.00000e+00	0.00000e+00	0.00000e+00	0.00000e+00	0.00000e+00	0.00000e+00	0.00000e+00	0.00000e+00	0.00000e+00	0.00000e+00	0.00000e+00	0.00000e+00	0.00000e+00	0.00000e+00	0.00000e+00	0.00000e+00	0.00000e+00	0.00000e+00	0.00000e+00	
Factor	1.00000e+00	1.00000e+00	1.00000e+00	1.00000e+00	1.00000e+00	1.00000e+00	1.00000e+00	1.00000e+00	1.00000e+00	1.00000e+00	1.00000e+00	1.00000e+00	1.00000e+00	1.00000e+00	1.00000e+00	1.00000e+00	1.00000e+00	1.00000e+00	1.00000e+00	1.00000e+00	1.00000e+00	1.00000e+00	1.00000e+00	1.00000e+00	1.00000e+00	1.00000e+00	1.00000e+00	1.00000e+00	1.00000e+00	1.00000e+00	1.00000e+00	1.00000e+00	X	X	X	X	X	X	X	X	X	X	X	X	X	X	X	X	

B = Detector Channel
Val Type	B-AC1	B-AC2	B-AC3	B-AC4	B-AC5	B-AC6	B-AC7	B-AC8	B-AC9	B-AC10	B-AC11	B-AC12	B-AC13	B-AC14	B-AC15	B-AC16	B-DC1	B-DC2	B-DC3	B-DC4	B-DC5	B-DC6	B-DC7	B-DC8	B-DC9	B-DC10	B-DC11	B-DC12	B-DC13	B-DC14	B-DC15	B-DC16	B-Ph1	B-Ph2	B-Ph3	B-Ph4	B-Ph5	B-Ph6	B-Ph7	B-Ph8	B-Ph9	B-Ph10	B-Ph11	B-Ph12	B-Ph13	B-Ph14	B-Ph15	B-Ph16	

Term	0.00000e+00	0.00000e+00	0.00000e+00	0.00000e+00	0.00000e+00	0.00000e+00	0.00000e+00	0.00000e+00	0.00000e+00	0.00000e+00	0.00000e+00	0.00000e+00	0.00000e+00	0.00000e+00	0.00000e+00	0.00000e+00	0.00000e+00	0.00000e+00	0.00000e+00	0.00000e+00	0.00000e+00	0.00000e+00	0.00000e+00	0.00000e+00	0.00000e+00	0.00000e+00	0.00000e+00	0.00000e+00	0.00000e+00	0.00000e+00	0.00000e+00	0.00000e+00	-7.26684e+01	-1.29267e+02	-1.24907e+02	-1.81870e+02	-5.07789e+01	-7.05107e+01	-1.57448e+02	-1.62015e+02	-4.62257e+01	-6.38428e+01	-1.71264e+02	-1.72441e+02	-1.82777e+02	-1.77174e+02	-5.93073e+01	-1.49710e+02	
Factor	1.61401e-05	1.59208e-04	4.37177e-05	1.47657e-01	1.35887e-06	1.73276e-06	1.65095e-01	4.93827e-02	1.11487e-06	1.79644e-06	7.99830e-02	3.23445e-02	3.45062e-02	8.62477e-03	1.51567e-06	1.23023e-02	1.56454e-05	4.14206e-05	1.16575e-05	7.63936e-02	3.74041e-07	4.77579e-07	8.05275e-02	2.56400e-02	3.72120e-07	4.73555e-07	4.04468e-02	1.64577e-02	1.81944e-02	4.52542e-03	4.11768e-07	6.25502e-03	X	X	X	X	X	X	X	X	X	X	X	X	X	X	X	X	



#DISTANCE SETTINGS
A = Detector Channel
A-1	A-2	A-3	A-4	A-5	A-6	A-7	A-8	A-9	A-10	A-11	A-12	A-13	A-14	A-15	A-16	

2.5000e+00	3.0000e+00	2.5000e+00	3.0000e+00	2.0000e+00	3.0000e+00	1.5000e+00	3.0000e+00	3.0000e+00	3.0000e+00	3.0000e+00	3.0000e+00	3.0000e+00	3.0000e+00	1.5000e+00	3.0000e+00	

B = Detector Channel
B-1	B-2	B-3	B-4	B-5	B-6	B-7	B-8	B-9	B-10	B-11	B-12	B-13	B-14	B-15	B-16	

1.0000e+01	1.0000e+01	1.0000e+01	1.4400e+00	1.0000e+01	1.0000e+01	1.5100e+00	1.9400e+00	1.0000e+01	1.0000e+01	1.9900e+00	2.4900e+00	2.4100e+00	2.9000e+00	1.0000e+01	2.9800e+00	




#DATA BEGINS
time	group	step	mark	flag	A-AC1	A-AC2	A-AC3	A-AC4	A-AC5	A-AC6	A-AC7	A-AC8	A-AC9	A-AC10	A-AC11	A-AC12	A-AC13	A-AC14	A-AC15	A-AC16	A-DC1	A-DC2	A-DC3	A-DC4	A-DC5	A-DC6	A-DC7	A-DC8	A-DC9	A-DC10	A-DC11	A-DC12	A-DC13	A-DC14	A-DC15	A-DC16	A-Ph1	A-Ph2	A-Ph3	A-Ph4	A-Ph5	A-Ph6	A-Ph7	A-Ph8	A-Ph9	A-Ph10	A-Ph11	A-Ph12	A-Ph13	A-Ph14	A-Ph15	A-Ph16	B-AC1	B-AC2	B-AC3	B-AC4	B-AC5	B-AC6	B-AC7	B-AC8	B-AC9	B-AC10	B-AC11	B-AC12	B-AC13	B-AC14	B-AC15	B-AC16	B-DC1	B-DC2	B-DC3	B-DC4	B-DC5	B-DC6	B-DC7	B-DC8	B-DC9	B-DC10	B-DC11	B-DC12	B-DC13	B-DC14	B-DC15	B-DC16	B-Ph1	B-Ph2	B-Ph3	B-Ph4	B-Ph5	B-Ph6	B-Ph7	B-Ph8	B-Ph9	B-Ph10	B-Ph11	B-Ph12	B-Ph13	B-Ph14	B-Ph15	B-Ph16	aux-1	digaux	

26766.031	1	1	0	256	0.17763	0.052951	0.28362	0.15014	0.18313	0.18181	0.4076	0.33056	0.061505	0.21908	0.095168	0.21967	0.12863	0.14291	0.13991	0.083115	-4.1083	-4.6937	-4.1646	-4.8208	-4.6438	-4.3271	-4.9771	-4.3417	-4.4667	-4.7833	-4.2896	-4.5958	-4.6	-4.1292	-4.8729	-4.525	127.367	303.850	300.678	380.530	156.600	183.942	388.387	334.278	256.333	176.783	99.947	345.771	373.350	83.759	141.727	343.472	0.00043782	0.00036743	0.00012303	639.05	4.3019e-06	3.2209e-06	793.16	233.34	2.8287e-06	3.1544e-06	311.72	113.64	87.325	41.157	4.3258e-06	62.185	0.00069739	0.0008996	0.00026939	635.66	8.1416e-06	1.1794e-05	790.1	233.77	8.5053e-06	1.0172e-05	310.91	114.37	87.643	41.642	9.8069e-06	62.579	207.108	126.488	137.088	54.410	206.697	163.992	53.759	58.996	202.622	207.392	56.685	61.739	63.308	67.724	204.385	65.104	-8191	255	
26766.129	1	1	0	0	0.17291	0.14344	0.077175	0.095301	0.21814	0.11771	0.18975	0.17744	0.082713	0.053227	0.076942	0.17975	0.12525	0.12389	0.08501	0.073288	-4.0396	-4.7625	-4.0958	-4.7812	-4.6146	-4.1937	-4.75	-4.4792	-4.3229	-4.75	-4.2917	-4.5687	-4.6167	-4.0833	-4.8438	-4.5083	220.539	41.955	84.456	272.223	229.051	153.234	359.146	57.902	319.243	175.957	180.694	392.272	71.595	131.945	294.152	347.237	0.00042389	0.00040624	0.00014062	639.87	5.2546e-06	2.898e-06	797.96	234.47	2.8605e-06	5.5885e-06	311.41	113.08	86.143	41.07	4.2502e-06	62.04	0.00072992	0.00098253	0.00026776	636.63	8.3629e-06	1.1742e-05	792	234.58	8.758e-06	1.0143e-05	310.76	113.91	87.393	41.672	9.6259e-06	62.504	207.772	145.666	150.591	54.699	228.242	155.429	53.668	59.076	207.154	177.812	56.588	61.414	63.659	67.750	175.466	65.210	-8191	255	
26766.225	1	1	0	0	0.1992	0.092744	0.099923	0.20549	0.074598	0.21755	0.2338	0.21539	0.11351	0.1679	0.20569	0.26875	0.27824	0.050721	0.19053	0.15835	-4.0104	-4.5687	-4.3333	-4.5292	-4.5042	-4.1604	-4.6021	-4.5292	-4.2583	-4.825	-4.2875	-4.45	-4.5271	-4.1687	-4.7562	-4.7375	236.818	180.548	118.732	369.022	276.024	82.633	56.613	385.241	270.140	214.394	344.154	342.182	348.371	339.545	334.266	358.619	0.00040351	0.00023803	0.00010113	639.85	3.9502e-06	4.5697e-06	795.99	232.53	3.6883e-06	5.321e-06	310.73	113.28	86.216	41.088	4.3251e-06	62.035	0.00073266	0.00089978	0.00026285	636.19	8.4588e-06	1.2331e-05	790.67	233.3	8.9162e-06	1.0535e-05	309.72	113.72	87.308	41.647	1.0014e-05	62.504	210.326	110.942	153.457	54.480	218.660	181.026	53.771	58.984	232.413	201.526	56.729	61.568	63.363	67.625	199.586	65.145	-8191	255	
26766.344	1	1	0	0	0.17158	0.071637	0.16905	0.18519	0.20409	0.1418	0.35397	0.025639	0.039308	0.045929	0.13017	0.30537	0.21031	0.1165	0.22788	0.18905	-3.7792	-4.7063	-4.2417	-4.3917	-4.6937	-4.1729	-4.75	-4.5167	-4.0979	-4.6667	-4.3125	-4.3833	-4.7937	-4.2688	-4.5667	-4.7167	318.698	243.659	99.415	274.830	257.682	46.645	380.072	362.475	172.137	141.380	293.714	50.560	399.254	383.501	228.653	331.300	0.00041693	0.0003652	0.0001161	637.88	4.657e-06	4.079e-06	792.58	233.51	4.0708e-06	4.5316e-06	310.16	113.22	87.27	41.377	4.4551e-06	62.017	0.00075293	0.00091134	0.0002562	635.47	8.818e-06	1.2312e-05	789.06	233.66	8.9658e-06	1.0146e-05	309.46	113.99	87.681	41.817	9.2914e-06	62.679	211.174	121.884	134.416	54.450	209.769	168.585	53.799	59.196	216.983	183.818	56.650	61.470	63.195	67.899	191.851	65.260	-8191	255	
26766.439	1	1	0	0	0.24767	0.086683	0.052577	0.15305	0.0097712	0.0083895	0.30426	0.2766	0.10417	0.061099	0.31094	0.096675	0.26235	0.18239	0.1031	0.12163	-3.7708	-4.8146	-4.25	-4.2958	-4.8417	-4.2562	-4.7688	-4.7375	-4.0667	-4.7042	-4.4396	-4.3375	-4.9042	-4.2688	-4.5625	-4.9396	384.421	59.877	114.834	324.534	284.953	255.192	349.529	333.362	384.252	328.986	341.422	362.939	56.150	379.609	275.099	388.120	0.00042669	0.00044098	0.00012277	640.13	3.289e-06	4.8828e-06	794.69	232.96	4.4143e-06	5.2231e-06	311.4	113.97	86.967	41.354	4.8095e-06	62.635	0.00074361	0.00091151	0.00023944	635.8	8.8219e-06	1.257e-05	789.73	233.53	9.2945e-06	1.0138e-05	310.51	114.69	87.772	41.873	9.3566e-06	62.994	209.842	118.998	120.637	54.407	211.591	168.505	53.595	59.211	225.669	220.453	56.579	61.351	63.598	67.902	209.513	65.216	-8191	255	
26766.537	1	1	0	0	0.09833	0.11719	0.13389	0.20519	0.12537	0.1654	0.20907	0.23334	0.10969	0.15429	0.061737	0.21177	0.11511	0.20237	0.15324	0.084194	-3.8396	-4.7146	-4.5208	-4.3021	-4.6687	-4.1792	-4.4812	-4.7896	-4.0667	-4.6667	-4.4792	-4.0854	-4.7771	-4.4708	-4.4208	-4.8583	158.773	204.784	226.762	67.388	201.493	349.025	86.118	290.175	133.970	272.992	138.323	363.611	151.822	392.484	352.038	240.794	0.00041129	0.00039837	0.00015155	635.27	3.5941e-06	6.0977e-06	799.77	234.98	2.9039e-06	3.1494e-06	313.79	113.84	87.509	41.314	5.2553e-06	62.358	0.00077034	0.00090539	0.00024799	635.13	8.8515e-06	1.1408e-05	792.66	234.84	9.5658e-06	1.0156e-05	313.04	114.76	88.048	41.78	9.8756e-06	62.849	206.243	122.765	143.548	54.306	204.991	193.445	53.663	59.263	193.963	198.344	56.613	61.600	63.326	67.813	195.326	65.437	-8191	255	
26766.654	1	1	0	0	0.29799	0.088024	0.06542	0.078196	0.089927	0.09655	0.25724	0.26089	0.18564	0.13592	0.24582	0.14195	0.31685	0.096474	0.24455	0.14408	-3.9062	-4.6062	-4.475	-4.1354	-4.7188	-4.3333	-4.5312	-4.8271	-4.0896	-4.5667	-4.6042	-4.0687	-4.5646	-4.4229	-4.2604	-4.9333	84.074	395.490	393.889	82.272	322.994	85.631	353.346	288.410	287.391	345.128	387.245	58.974	361.097	198.969	110.683	246.812	0.00042597	0.00049288	0.00011176	639.22	3.6369e-06	3.466e-06	794.46	232.87	3.9712e-06	5.5929e-06	310.34	113.57	87.439	41.114	5.0269e-06	62.315	0.00077132	0.0008675	0.00025253	635.73	9.1749e-06	1.028e-05	791.17	234.21	9.2922e-06	1.0078e-05	311.08	114.72	88.044	41.727	9.9819e-06	62.826	212.641	112.434	125.499	54.485	204.901	201.860	53.865	59.045	229.792	187.155	56.825	61.509	63.231	67.559	214.369	65.189	-8191	255	
26766.727	1	1	0	0	0.084035	0.1592	0.15285	0.23846	0.18787	0.13116	0.12115	0.16175	0.088363	0.031254	0.13179	0.23312	0.33207	0.28426	0.12767	0.22811	-3.8187	-4.4083	-4.75	-4.1937	-4.6104	-4.4	-4.3917	-4.8896	-4.1458	-4.4792	-4.6562	-4.1375	-4.5687	-4.5604	-4.1875	-4.8604	300.940	246.603	234.650	93.095	342.722	300.140	191.530	326.392	150.919	283.350	372.275	85.658	44.415	93.428	72.281	349.350	0.00040083	0.00053149	0.0001092	640.21	4.2606e-06	2.7847e-06	799.78	233.8	3.1841e-06	3.753e-06	312.46	114.12	87.163	41.438	4.1831e-06	62.605	0.00076613	0.00088433	0.000258	635.09	8.5196e-06	1.0116e-05	792.14	234.64	9.1224e-06	1.0131e-05	311.23	114.7	88.034	41.956	9.9725e-06	63.176	210.759	136.215	138.839	54.323	197.117	194.000	53.724	59.098	221.520	172.974	56.904	61.464	63.599	67.688	224.323	65.144	-8191	255	
26766.822	1	1	0	0	0.12121	0.10696	0.24068	0.31137	0.084498	0.063515	0.34899	0.12165	0.1454	0.15653	0.17773	0.23401	0.10713	0.25799	0.077585	0.14537	-3.9792	-4.35	-4.7271	-4.1875	-4.5167	-4.4417	-4.2688	-4.8667	-4.2167	-4.3667	-4.7396	-4.1458	-4.5479	-4.4667	-4.1875	-4.7729	52.525	349.475	168.950	393.054	77.535	344.554	345.547	344.712	342.701	75.281	347.026	350.175	162.018	355.976	279.125	320.043	0.00044995	0.0005352	0.00012557	637.62	3.8614e-06	5.1276e-06	796.23	234.05	3.1355e-06	3.2966e-06	312.86	113.19	87.129	41.53	4.7832e-06	62.913	0.00073706	0.00093973	0.00025593	635.63	8.518e-06	1.0041e-05	791.85	234.71	8.6727e-06	1.0126e-05	311.93	114.62	88.024	42.04	9.7984e-06	63.278	210.743	125.247	119.923	54.318	203.458	183.379	53.508	58.995	235.630	196.882	56.690	61.473	63.256	67.747	214.457	65.141	-8191	255	
26766.943	1	1	0	0	0.16174	0.18229	0.052928	0.15324	0.23873	0.22262	0.088558	0.10326	0.22324	0.080634	0.17291	0.11195	0.099643	0.18875	0.21748	0.285	-4.0104	-4.1854	-4.7396	-4.1146	-4.3667	-4.6958	-4.2604	-4.65	-4.3313	-4.3083	-4.9021	-4.2042	-4.5	-4.8521	-3.9417	-4.6771	116.343	148.309	364.435	134.575	395.175	376.196	274.327	354.770	341.021	46.370	177.580	107.565	262.465	109.893	65.074	349.162	0.00044374	0.00071794	0.00014161	639.53	4.4688e-06	3.1995e-06	798.11	234.71	3.5869e-06	3.3539e-06	313.5	114.77	87.974	41.576	3.4578e-06	62.728	0.00069941	0.0010627	0.00024743	636.19	8.6014e-06	1.0318e-05	793.15	235.37	8.6239e-06	1.0249e-05	313.8	115.3	88.444	42.111	1.0042e-05	63.289	210.634	136.304	120.693	54.241	235.274	170.212	53.909	59.136	214.870	188.179	56.782	61.149	63.484	67.814	217.577	65.179	-8191	255	
26767.039	1	1	0	0	0.12593	0.17529	0.24276	0.30937	0.17452	0.099209	0.09589	0.094	0.16551	0.17746	0.11186	0.078619	0.17193	0.057184	0.22107	0.30257	-4.0771	-4.3042	-4.6667	-4.4062	-4.3417	-4.6771	-4.25	-4.7604	-4.4854	-4.2937	-4.8542	-4.3562	-4.4229	-4.8229	-4.0062	-4.5188	141.956	394.520	299.762	63.159	388.797	390.864	50.969	95.784	73.134	82.222	50.783	278.477	289.845	69.526	131.105	357.771	0.0004309	0.00039693	0.00011475	639.71	4.5953e-06	3.6174e-06	797.83	236.7	3.6469e-06	3.5649e-06	316.62	114.18	87.143	41.483	5.3149e-06	63.096	0.00069557	0.0011058	0.00024537	637.14	8.5912e-06	1.0384e-05	794.44	236.48	8.7805e-06	1.0682e-05	315.07	115.58	88.266	42.178	1.0065e-05	63.592	208.257	124.892	148.461	54.545	208.110	180.049	53.718	59.157	225.832	193.366	57.022	61.437	63.286	67.825	198.594	65.275	-8191	255	
26767.137	1	1	0	0	0.068947	0.10658	0.13136	0.36678	0.2569	0.022676	0.23204	0.30416	0.28025	0.2143	0.14876	0.041624	0.14826	0.13041	0.030464	0.11927	-4.2125	-4.0979	-4.7521	-4.1958	-4.2896	-4.6375	-4.1271	-4.6667	-4.4375	-4.1604	-4.7729	-4.4271	-4.3125	-4.9458	-4.225	-4.6229	351.622	359.871	166.958	347.800	215.286	366.645	45.415	359.298	163.604	194.373	348.329	377.092	307.060	84.138	213.146	294.319	0.00046105	0.00041135	0.00013108	640.65	3.9143e-06	4.2369e-06	799.35	234.62	4.4472e-06	5.249e-06	313.83	115.05	87.672	41.321	6.586e-06	62.779	0.00070704	0.0010923	0.00025243	637.95	8.9209e-06	1.0663e-05	794.38	235.76	8.5471e-06	1.0639e-05	314.46	115.67	88.4	41.93	9.7795e-06	63.244	209.468	113.276	149.249	54.397	219.268	188.863	53.672	59.125	221.274	184.267	56.485	61.385	63.410	67.951	212.579	65.219	-8191	255	
26767.232	1	1	0	0	0.056417	0.22879	0.24716	0.17229	0.17899	0.033139	0.31501	0.10436	0.11001	0.16586	0.10607	0.23861	0.14271	0.31453	0.11502	0.17726	-4.1583	-3.8854	-4.6396	-4.5188	-4.0604	-4.6729	-4.3146	-4.4938	-4.7188	-4.0542	-4.8375	-4.6417	-4.0583	-4.875	-4.1375	-4.4062	265.807	331.082	193.413	374.217	148.340	259.079	299.425	283.049	316.587	53.346	144.954	297.352	357.904	344.513	111.677	321.503	0.00044478	0.00064596	0.0001686	638.44	5.3622e-06	3.5199e-06	799.71	235.32	2.9067e-06	5.1421e-06	313.14	114.18	87.347	41.466	6.0437e-06	62.619	0.00070505	0.0010956	0.00025501	636.02	8.945e-06	1.0614e-05	793.23	235.83	8.8131e-06	1.0962e-05	313.25	114.97	88.228	42.017	9.4569e-06	63.072	208.023	131.392	124.735	54.395	203.168	207.588	53.675	58.900	224.094	204.685	56.550	61.461	63.266	67.608	191.738	64.961	-8191	255	
26767.328	1	1	0	0	0.13687	0.21558	0.28663	0.14329	0.36819	0.2076	0.27341	0.21592	0.16121	0.06605	0.171	0.18108	0.062997	0.40919	0.12094	0.21954	-4.2375	-4.0729	-4.5479	-4.6625	-4.1813	-4.7083	-4.4646	-4.5729	-4.6167	-4.1146	-4.675	-4.6062	-4.2438	-4.9187	-4.2292	-4.5292	268.637	96.300	397.772	303.224	237.767	334.347	325.964	306.907	150.512	232.795	342.222	342.323	321.717	397.494	129.330	338.123	0.00041563	0.00041139	0.00014878	637.78	2.8903e-06	4.1025e-06	798.82	234.81	3.111e-06	3.9411e-06	312.48	113.65	87.222	41.538	4.2938e-06	62.751	0.00069905	0.0010804	0.00025103	636.27	8.9084e-06	1.0303e-05	792.69	235.26	9.1976e-06	1.0581e-05	312.42	114.87	88.168	42.126	9.6405e-06	63.148	209.322	136.842	123.808	54.455	234.615	167.869	53.338	59.111	207.745	173.762	56.730	61.490	63.026	67.748	187.178	65.202	-8191	255	
26767.426	1	1	0	0	0.27418	0.12024	0.18216	0.16673	0.14953	0.12621	0.066036	0.2404	0.18977	0.19761	0.18101	0.11798	0.12514	0.20767	0.22213	0.26126	-4.4208	-4.0958	-4.4729	-4.5708	-4.0938	-4.7104	-4.6188	-4.4667	-4.7646	-4.0917	-4.5437	-4.6354	-4.1229	-4.8688	-4.4479	-4.4333	203.421	201.451	227.093	337.570	43.996	247.328	99.285	344.393	308.262	97.299	263.263	119.625	374.613	385.677	399.959	359.716	0.0004306	0.00033392	0.00012755	641.45	5.0604e-06	4.9647e-06	797.88	234.75	3.3055e-06	4.7355e-06	313.75	114.9	87.661	41.771	3.3475e-06	62.817	0.00070078	0.0010521	0.00024491	637.49	8.9115e-06	1.017e-05	793.4	235.43	8.7603e-06	1.0518e-05	312.92	115.41	88.471	42.296	9.4621e-06	63.546	212.608	114.525	103.699	54.591	222.939	159.995	53.555	59.073	217.928	213.624	56.626	61.642	63.264	67.873	207.582	65.105	-8191	255	
26767.521	1	1	0	0	0.2405	0.18422	0.19618	0.22641	0.23362	0.16083	0.15716	0.099276	0.15091	0.091423	0.22357	0.18302	0.13038	0.10727	0.073487	0.27913	-4.4729	-4.2896	-4.4125	-4.7396	-4.0833	-4.6896	-4.5708	-4.3063	-4.9104	-4.35	-4.5125	-4.65	-4.0875	-4.6854	-4.4354	-4.2542	369.206	175.747	278.770	384.461	94.862	339.079	331.819	254.347	293.500	112.188	273.743	276.394	155.532	364.389	330.655	42.275	0.00043465	0.00043138	9.1131e-05	637.71	4.3489e-06	3.7816e-06	802.92	236.33	3.3484e-06	5.3238e-06	315.7	114.67	87.813	41.607	6.5265e-06	63.317	0.00070007	0.0010769	0.00024899	637.33	9.0728e-06	9.7536e-06	796.9	236.56	8.7192e-06	9.9516e-06	315.28	115.78	88.648	42.329	9.6688e-06	63.751	209.830	141.388	138.106	54.374	210.609	190.834	53.761	59.138	206.314	204.011	56.729	61.271	63.246	67.508	202.146	65.110	-8191	255	
26767.617	1	1	0	0	0.27487	0.049032	0.16615	0.13064	0.1304	0.15145	0.018506	0.052926	0.19294	0.057217	0.12911	0.23225	0.039079	0.22038	0.066968	0.16317	-4.3771	-4.3583	-4.3833	-4.7812	-3.9604	-4.575	-4.5771	-4.2708	-4.675	-4.2708	-4.5667	-4.7917	-4.2708	-4.6667	-4.6417	-4.2125	354.738	265.598	266.470	326.849	399.147	73.811	330.008	127.727	159.506	297.514	97.499	183.623	399.163	362.197	335.450	284.452	0.00042883	0.00025365	0.00016299	643.81	3.0836e-06	2.3679e-06	805.95	235.62	3.4739e-06	6.5641e-06	314.94	115.13	87.686	41.602	4.2787e-06	63.379	0.00071255	0.00092567	0.00027283	640.05	9.0775e-06	9.8162e-06	798.24	237.08	8.5409e-06	1.0402e-05	315.21	115.99	88.592	42.207	9.5281e-06	63.718	210.904	144.439	134.485	54.702	208.346	166.597	53.768	59.193	235.369	210.452	56.411	61.398	63.282	67.798	217.255	65.151	-8191	255	
26767.736	1	1	0	0	0.22098	0.086898	0.18974	0.076228	0.005611	0.18453	0.10157	0.070727	0.13826	0.11496	0.048087	0.32319	0.19364	0.23788	0.099998	0.065526	-4.4292	-4.3688	-4.3146	-4.8	-4.2979	-4.5542	-4.5542	-4.0917	-4.5667	-4.4437	-4.2104	-4.7833	-4.2542	-4.4354	-4.5792	-4.3187	278.969	91.283	360.417	272.943	133.924	270.118	85.668	363.886	192.030	182.180	373.025	339.647	375.789	333.987	171.134	322.585	0.0004412	0.00046738	0.00011292	642.12	2.5177e-06	3.7389e-06	800.35	235.66	3.8782e-06	4.8816e-06	315.08	114.64	87.678	41.672	4.7468e-06	63.307	0.00068064	0.00090133	0.00030416	637.88	8.5609e-06	1.0255e-05	794.45	236.21	8.8138e-06	9.8223e-06	314.86	115.53	88.638	42.33	9.3934e-06	63.733	210.386	123.141	121.215	54.583	224.981	176.018	53.736	59.188	241.984	192.797	56.616	61.418	63.307	67.670	210.650	64.915	-8191	255	
