BOXY.EXE: ISS Imagent and Oximeter Data Acquisition Program Version 0.80
Ascii Record File

#ACQ INFORMATION
2  Detector Channels 
16  External MUX Channels 
1  Auxiliary Channels 
5000  Waveform (CCF) Frequency (Hz)
1  Waveforms Skipped 
30  Waveforms Averaged 
1  Cycles Averaged 
16  Acquisitions per Waveform 
10.0806  Updata Rate (Hz) 

#FILE INFORMATION
TRUE -- External MUX Channel results are PARSED.
FALSE -- AC DC and Phase are NOT grouped.
TRUE -- Companion Program Settings File CREATED.
FALSE -- AC data not excluded
FALSE -- DC data not excluded
FALSE -- Phase data not excluded
FALSE -- Auxillary Chn. data not excluded
Tab delimiters

#CALIBRATION STATE
TRUE -- Waveform Calibration Values APPLIED.


#AUX CALIBRATION VALUES
Val Type	aux-1	

Term	1.0000e+00	
Factor	0.0000e+00	


#WF CALIBRATION VALUES
A = Detector Channel
Val Type	A-AC1	A-AC2	A-AC3	A-AC4	A-AC5	A-AC6	A-AC7	A-AC8	A-AC9	A-AC10	A-AC11	A-AC12	A-AC13	A-AC14	A-AC15	A-AC16	A-DC1	A-DC2	A-DC3	A-DC4	A-DC5	A-DC6	A-DC7	A-DC8	A-DC9	A-DC10	A-DC11	A-DC12	A-DC13	A-DC14	A-DC15	A-DC16	A-Ph1	A-Ph2	A-Ph3	A-Ph4	A-Ph5	A-Ph6	A-Ph7	A-Ph8	A-Ph9	A-Ph10	A-Ph11	A-Ph12	A-Ph13	A-Ph14	A-Ph15	A-Ph16	

Term	0.00000e+00	0.00000e+00	0.00000e+00	0.00000e+00	0.00000e+00	0.00000e+00	0.00000e+00	0.00000e+00	0.00000e+00	0.00000e+00	0.00000e+00	0.00000e+00	0.00000e+00	0.00000e+00	0.00000e+00	0.00000e+00	0.00000e+00	0.00000e+00	0.00000e+00	0.00000e+00	0.00000e+00	0.00000e+00	0.00000e+00	0.00000e+00	0.00000e+00	0.00000e+00	0.00000e+00	0.00000e+00	0.00000e+00	0.00000e+00	0.00000e+00	0.00000e+00	0.00000e+00	0.00000e+00	0.00000e+00	0.00000e+00	0.00000e+00	0.00000e+00	0.00000e+00	0.00000e+00	0.00000e+00	0.00000e+00	0.00000e+00	0.00000e+00	0.00000e+00	0.00000e+00	0.00000e+00	0.00000e+00	
Factor	1.00000e+00	1.00000e+00	1.00000e+00	1.00000e+00	1.00000e+00	1.00000e+00	1.00000e+00	1.00000e+00	1.00000e+00	1.00000e+00	1.00000e+00	1.00000e+00	1.00000e+00	1.00000e+00	1.00000e+00	1.00000e+00	1.00000e+00	1.00000e+00	1.00000e+00	1.00000e+00	1.00000e+00	1.00000e+00	1.00000e+00	1.00000e+00	1.00000e+00	1.00000e+00	1.00000e+00	1.00000e+00	1.00000e+00	1.00000e+00	1.00000e+00	1.00000e+00	X	X	X	X	X	X	X	X	X	X	X	X	X	X	X	X	

B = Detector Channel
Val Type	B-AC1	B-AC2	B-AC3	B-AC4	B-AC5	B-AC6	B-AC7	B-AC8	B-AC9	B-AC10	B-AC11	B-AC12	B-AC13	B-AC14	B-AC15	B-AC16	B-DC1	B-DC2	B-DC3	B-DC4	B-DC5	B-DC6	B-DC7	B-DC8	B-DC9	B-DC10	B-DC11	B-DC12	B-DC13	B-DC14	B-DC15	B-DC16	B-Ph1	B-Ph2	B-Ph3	B-Ph4	B-Ph5	B-Ph6	B-Ph7	B-Ph8	B-Ph9	B-Ph10	B-Ph11	B-Ph12	B-Ph13	B-Ph14	B-Ph15	B-Ph16	

Term	0.00000e+00	0.00000e+00	0.00000e+00	0.00000e+00	0.00000e+00	0.00000e+00	0.00000e+00	0.00000e+00	0.00000e+00	0.00000e+00	0.00000e+00	0.00000e+00	0.00000e+00	0.00000e+00	0.00000e+00	0.00000e+00	0.00000e+00	0.00000e+00	0.00000e+00	0.00000e+00	0.00000e+00	0.00000e+00	0.00000e+00	0.00000e+00	0.00000e+00	0.00000e+00	0.00000e+00	0.00000e+00	0.00000e+00	0.00000e+00	0.00000e+00	0.00000e+00	-1.76971e+02	-1.26231e+02	-1.22654e+02	-1.81614e+02	-8.27724e+01	-7.88091e+01	-1.57570e+02	-1.62015e+02	-8.57950e+01	-7.03981e+01	-1.71199e+02	-1.72854e+02	-1.84169e+02	-1.76777e+02	-8.06855e+01	-1.49602e+02	
Factor	3.07816e-05	1.62578e-04	4.72384e-05	1.51029e-01	1.31753e-06	1.41732e-06	1.65794e-01	5.23204e-02	1.70557e-06	1.74508e-06	8.62220e-02	3.50286e-02	3.70922e-02	9.34852e-03	1.66101e-06	1.36017e-02	2.42273e-06	2.59562e-06	7.22291e-07	7.56502e-02	2.81075e-08	2.84093e-08	7.83351e-02	2.61589e-02	2.80967e-08	2.83958e-08	4.18652e-02	1.69423e-02	1.85081e-02	4.69075e-03	2.82755e-08	6.61081e-03	X	X	X	X	X	X	X	X	X	X	X	X	X	X	X	X	



#DISTANCE SETTINGS
A = Detector Channel
A-1	A-2	A-3	A-4	A-5	A-6	A-7	A-8	A-9	A-10	A-11	A-12	A-13	A-14	A-15	A-16	

2.5000e+00	3.0000e+00	2.5000e+00	3.0000e+00	2.0000e+00	3.0000e+00	1.5000e+00	3.0000e+00	3.0000e+00	3.0000e+00	3.0000e+00	3.0000e+00	3.0000e+00	3.0000e+00	1.5000e+00	3.0000e+00	

B = Detector Channel
B-1	B-2	B-3	B-4	B-5	B-6	B-7	B-8	B-9	B-10	B-11	B-12	B-13	B-14	B-15	B-16	

1.0000e+01	1.0000e+01	1.0000e+01	1.4400e+00	1.0000e+01	1.0000e+01	1.5100e+00	1.9400e+00	1.0000e+01	1.0000e+01	1.9900e+00	2.4900e+00	2.4100e+00	2.9000e+00	1.0000e+01	2.9800e+00	




#DATA BEGINS
time	group	step	mark	flag	A-AC1	A-AC2	A-AC3	A-AC4	A-AC5	A-AC6	A-AC7	A-AC8	A-AC9	A-AC10	A-AC11	A-AC12	A-AC13	A-AC14	A-AC15	A-AC16	A-DC1	A-DC2	A-DC3	A-DC4	A-DC5	A-DC6	A-DC7	A-DC8	A-DC9	A-DC10	A-DC11	A-DC12	A-DC13	A-DC14	A-DC15	A-DC16	A-Ph1	A-Ph2	A-Ph3	A-Ph4	A-Ph5	A-Ph6	A-Ph7	A-Ph8	A-Ph9	A-Ph10	A-Ph11	A-Ph12	A-Ph13	A-Ph14	A-Ph15	A-Ph16	B-AC1	B-AC2	B-AC3	B-AC4	B-AC5	B-AC6	B-AC7	B-AC8	B-AC9	B-AC10	B-AC11	B-AC12	B-AC13	B-AC14	B-AC15	B-AC16	B-DC1	B-DC2	B-DC3	B-DC4	B-DC5	B-DC6	B-DC7	B-DC8	B-DC9	B-DC10	B-DC11	B-DC12	B-DC13	B-DC14	B-DC15	B-DC16	B-Ph1	B-Ph2	B-Ph3	B-Ph4	B-Ph5	B-Ph6	B-Ph7	B-Ph8	B-Ph9	B-Ph10	B-Ph11	B-Ph12	B-Ph13	B-Ph14	B-Ph15	B-Ph16	aux-1	digaux	

7926.727	1	1	0	256	0.25867	0.25078	0.21599	0.13806	0.2724	0.044036	0.13793	0.17818	0.17156	0.10837	0.20659	0.17598	0.26077	0.038962	0.096016	0.27115	-4.0333	-4.8	-4.4	-4.6604	-4.6792	-4.2188	-4.9563	-4.8083	-4.1375	-4.7542	-4.4354	-4.5583	-4.7312	-4.3562	-4.6021	-4.7979	68.796	300.907	171.569	26.644	230.560	292.863	327.116	262.955	111.273	262.842	350.194	56.241	25.444	166.575	256.696	284.855	0.00045974	0.00041035	0.00013179	1337.2	1.8894e-06	4.6033e-06	1338.2	362.62	9.4973e-06	3.302e-06	413.07	136.88	119.23	40.635	4.0205e-06	50.516	0.00036035	0.00035036	9.7454e-05	1349.6	3.7929e-06	3.7384e-06	1348.5	365.48	3.7233e-06	3.6676e-06	417.61	138.79	120	41.426	3.6448e-06	51.353	94.504	91.498	100.967	18.946	226.144	149.857	18.740	23.560	167.344	189.550	23.136	27.415	27.931	32.716	169.767	31.712	-8191	255	
7926.847	1	1	0	0	0.17678	0.21303	0.024343	0.20875	0.32855	0.19295	0.12646	0.1128	0.13906	0.14637	0.19746	0.13781	0.22583	0.13063	0.11637	0.079074	-4.0771	-4.6562	-4.5042	-4.65	-4.8583	-4.2917	-4.7688	-4.85	-4.2854	-4.8167	-4.5604	-4.4812	-4.7458	-4.3604	-4.7208	-4.7292	84.276	207.894	108.895	277.755	13.674	107.897	48.649	309.308	244.342	246.772	364.988	281.276	34.184	343.997	63.531	274.358	0.00049383	0.0003014	0.00015505	1334.2	3.4521e-06	6.4087e-06	1329.7	359.43	5.2493e-06	2.1849e-06	412.18	136.77	119.09	40.486	2.4383e-06	50.296	0.00034269	0.00033065	9.1641e-05	1346.3	3.6243e-06	3.6137e-06	1344.1	364.57	3.5802e-06	3.5364e-06	416.61	138.58	119.78	41.249	3.5846e-06	51.317	95.589	115.733	92.537	19.027	123.893	148.783	18.909	23.694	160.741	177.072	23.045	27.191	27.891	32.865	108.703	31.732	-8191	255	
7926.919	1	1	0	0	0.15768	0.058505	0.14059	0.18609	0.18325	0.082742	0.27301	0.33722	0.32363	0.10152	0.11988	0.13793	0.15964	0.14125	0.037941	0.24922	-3.8667	-4.8667	-4.3604	-4.4729	-4.7042	-4.4083	-4.8625	-4.7083	-4.1562	-4.775	-4.5271	-4.3771	-4.9667	-4.2542	-4.5854	-5.0479	286.112	336.809	344.089	347.254	64.849	186.916	297.320	337.992	232.843	210.933	79.870	356.017	311.440	359.153	219.012	271.896	0.0005221	0.00047829	0.00012231	1334.4	2.6059e-06	4.5918e-06	1333.2	361.24	4.6319e-06	2.2763e-06	413.62	137.13	118.42	40.528	5.1063e-06	50.658	0.00033837	0.00032705	8.8923e-05	1345.2	3.5804e-06	3.568e-06	1344.4	365	3.6297e-06	3.6196e-06	417.81	138.92	119.79	41.328	3.7119e-06	51.505	95.123	127.473	79.727	19.021	141.912	113.524	18.998	23.511	155.283	99.990	23.146	27.420	27.895	32.595	167.517	31.938	-8191	255	
7927.015	1	1	0	0	0.22499	0.15085	0.18245	0.37081	0.087642	0.26775	0.14546	0.20159	0.19817	0.045249	0.30872	0.30432	0.24478	0.18914	0.23394	0.22664	-3.8479	-4.8292	-4.5104	-4.5708	-4.8708	-4.225	-4.8812	-5.0417	-4.05	-4.6667	-4.7208	-4.1458	-4.8542	-4.4021	-4.3396	-4.9875	114.362	219.124	251.330	327.927	270.165	298.179	356.580	340.436	76.055	326.895	294.780	292.979	314.623	11.991	125.419	245.661	0.00048489	0.00081209	0.00014429	1340.6	4.7289e-06	3.9713e-06	1335.8	360.5	9.0106e-06	3.7454e-06	413.12	136.97	118.92	40.596	4.5253e-06	50.875	0.0003494	0.00033646	9.3473e-05	1350.3	3.7309e-06	3.6875e-06	1347.1	365.01	3.7485e-06	3.6893e-06	417.28	138.85	120.13	41.393	3.7123e-06	51.548	98.233	88.834	108.947	19.166	173.433	136.233	18.823	23.490	147.015	201.502	22.947	27.446	27.964	32.601	164.958	32.001	-8191	255	
7927.134	1	1	0	0	0.2772	0.12772	0.22396	0.25908	0.30551	0.079406	0.33197	0.19459	0.14951	0.13398	0.24752	0.127	0.077822	0.30609	0.23617	0.23668	-3.9146	-4.5375	-4.6604	-4.3979	-4.7333	-4.45	-4.5375	-4.8125	-4.3729	-4.6917	-4.7396	-4.4479	-4.8104	-4.5833	-4.3417	-5.0167	157.594	38.745	49.484	258.226	271.986	344.293	277.051	74.582	105.866	81.398	339.946	310.762	264.365	359.963	34.928	313.313	0.00041967	0.00056298	0.00021871	1339.7	6.0582e-06	3.2054e-06	1331.9	361.99	4.5582e-06	6.5022e-06	412.55	137.35	118.88	40.636	5.203e-06	50.863	0.00034933	0.00033998	9.327e-05	1349.9	3.7583e-06	3.7195e-06	1347.9	365.78	3.8246e-06	3.7325e-06	417.3	139.06	119.93	41.471	3.787e-06	51.632	98.333	90.949	114.344	19.057	165.721	185.414	18.811	23.550	159.323	172.624	23.347	27.659	27.978	32.697	204.758	31.724	-8191	255	
7927.230	1	1	0	0	0.15681	0.16379	0.28666	0.092263	0.20586	0.1959	0.14411	0.26379	0.044955	0.03662	0.22127	0.17525	0.10566	0.19795	0.16288	0.19528	-3.9813	-4.7312	-4.7	-4.2354	-4.5979	-4.5833	-4.4083	-5.0042	-4.2729	-4.6083	-4.6937	-4.2917	-4.7875	-4.5	-4.0771	-4.9208	169.896	63.720	238.353	325.222	250.255	295.432	291.721	267.597	57.940	15.708	280.079	365.022	81.701	349.157	163.999	305.220	0.00047674	0.00062001	6.6594e-05	1333.5	2.9888e-06	3.3674e-06	1336.9	360.62	6.2223e-06	4.5969e-06	412.97	137.01	119.39	40.791	3.0155e-06	50.843	0.00035507	0.00034191	9.4149e-05	1350	3.7943e-06	3.7835e-06	1351.1	365.5	3.7774e-06	3.7534e-06	418.12	139.18	120.37	41.487	3.7844e-06	51.638	92.627	128.060	153.698	19.077	107.874	100.746	18.740	23.512	178.059	145.944	23.001	27.515	27.919	32.703	113.656	31.745	-8191	255	
7927.326	1	1	0	0	0.21478	0.14231	0.12203	0.32991	0.12746	0.035313	0.093174	0.27035	0.092991	0.12683	0.20471	0.070319	0.29856	0.26945	0.14069	0.14635	-3.975	-4.2812	-4.6687	-4.2396	-4.7646	-4.4167	-4.4292	-5.0646	-4.2604	-4.3708	-4.8833	-4.4521	-4.6292	-4.6833	-4.25	-4.9354	114.054	23.910	179.264	330.382	158.103	135.520	61.013	15.094	152.558	99.192	318.740	317.969	318.270	141.598	47.121	307.248	0.00052097	0.00011421	0.00010072	1335.4	5.0221e-06	2.6205e-06	1336	361.83	5.5142e-06	3.5734e-06	413.07	137.53	118.75	40.645	4.1492e-06	50.803	0.0003522	0.00034478	9.4787e-05	1348.7	3.7624e-06	3.7581e-06	1348.9	365.82	3.833e-06	3.7387e-06	418.17	139.32	119.96	41.467	3.7431e-06	51.581	101.830	17.659	75.649	18.962	182.291	127.262	18.892	23.631	132.565	156.547	22.924	27.399	28.054	32.699	147.899	31.874	-8191	255	
7927.423	1	1	0	0	0.072114	0.14579	0.11663	0.18049	0.35153	0.14702	0.17678	0.39204	0.21583	0.30614	0.089852	0.090031	0.028039	0.20907	0.19613	0.12228	-4.05	-4.3729	-4.9167	-4.2708	-4.7396	-4.6312	-4.4583	-4.9354	-4.4875	-4.2708	-5.0042	-4.2375	-4.7292	-4.9208	-4.0708	-4.9333	100.718	227.451	105.791	306.615	265.248	11.335	352.004	314.238	50.939	54.317	182.420	15.941	142.013	15.186	243.377	10.333	0.00044127	0.00052724	0.0001257	1338.8	5.3323e-06	4.305e-06	1337.4	362.09	4.9981e-06	5.6195e-06	413.71	137.29	118.5	40.627	5.7611e-06	50.804	0.00034748	0.00033641	9.3389e-05	1349.1	3.6633e-06	3.5922e-06	1348.6	365.68	3.6641e-06	3.6019e-06	417.74	139.11	119.88	41.341	3.6478e-06	51.567	94.544	67.161	75.595	18.960	178.979	122.182	18.775	23.381	167.799	121.944	22.927	27.479	27.883	32.538	143.015	31.925	-8191	255	
7927.519	1	1	0	0	0.16917	0.18759	0.080246	0.21495	0.20085	0.20774	0.11256	0.015128	0.13025	0.14484	0.2124	0.21176	0.38222	0.20424	0.12066	0.022559	-4.15	-4.2896	-4.8833	-4.4083	-4.3229	-4.7438	-4.3438	-4.9958	-4.3729	-4.3229	-5.1667	-4.3708	-4.65	-4.7083	-4.0896	-4.7562	77.516	358.809	33.722	329.482	87.293	180.159	293.265	299.514	87.647	81.452	321.324	230.878	291.549	196.864	13.267	248.419	0.00046328	0.00055599	7.3167e-05	1333.9	4.8898e-06	5.111e-06	1335.5	361.25	2.8731e-06	6.7657e-06	412.28	136.95	118.72	40.671	4.8297e-06	50.653	0.00034773	0.00032956	9.1468e-05	1347.2	3.6832e-06	3.5462e-06	1346.7	365.25	3.6554e-06	3.6197e-06	417.02	138.82	119.97	41.39	3.6252e-06	51.565	95.732	115.994	102.568	19.132	160.555	149.250	18.858	23.654	113.902	144.319	22.887	27.493	28.263	32.897	139.415	31.754	-8191	255	
7927.615	1	1	0	0	0.065627	0.10084	0.10548	0.23892	0.1673	0.23562	0.16121	0.25821	0.038249	0.019513	0.42997	0.042221	0.084305	0.22983	0.28283	0.10806	-4.1021	-4.2083	-4.8479	-4.55	-4.2104	-4.8562	-4.2688	-5.0208	-4.6479	-4.1396	-4.8688	-4.5646	-4.3583	-4.7604	-4.1312	-4.6625	344.072	133.984	38.396	250.895	314.927	189.031	298.947	291.840	266.262	183.913	353.938	189.572	169.778	359.308	79.038	92.512	0.00049952	0.00027539	0.00013352	1335.8	3.5253e-06	3.7717e-06	1334.1	361.54	1.9379e-06	7.3683e-06	413.99	137.36	118.79	40.6	5.4947e-06	50.618	0.00034564	0.00032849	9.1815e-05	1349	3.6301e-06	3.63e-06	1348.1	365.61	3.6604e-06	3.6457e-06	418.08	139.14	120.17	41.389	3.6551e-06	51.578	101.143	85.799	83.714	19.102	176.575	121.697	18.863	23.717	189.743	149.611	23.323	27.561	27.971	32.741	147.820	31.973	-8191	255	
7927.711	1	1	0	0	0.22294	0.078885	0.14438	0.22864	0.1822	0.035738	0.20571	0.20688	0.19338	0.12291	0.2049	0.19675	0.21255	0.1966	0.3537	0.038387	-4.1708	-4.3083	-4.75	-4.6062	-4.2833	-4.7979	-4.4479	-4.6875	-4.75	-4.1937	-4.8708	-4.5167	-4.3083	-4.8688	-4.3063	-4.5604	94.599	177.671	183.717	313.135	82.952	15.675	356.219	262.332	311.251	218.601	272.774	309.722	337.210	340.152	32.041	338.623	0.00055243	0.0004237	5.5119e-05	1337.6	4.3657e-06	2.0273e-06	1338	361.58	5.8743e-06	4.2198e-06	414.9	137.18	118.83	40.757	4.9705e-06	50.866	0.00034706	0.00033481	9.3677e-05	1349.9	3.7153e-06	3.6116e-06	1349.4	365.91	3.6739e-06	3.713e-06	418.18	139.16	120	41.421	3.7158e-06	51.62	93.442	103.579	140.639	19.083	146.286	135.209	18.828	23.552	145.078	136.622	23.166	27.738	27.920	32.740	183.688	31.824	-8191	255	
7927.807	1	1	0	0	0.18024	0.086583	0.037538	0.066672	0.10925	0.19435	0.20224	0.18849	0.067083	0.29012	0.1414	0.19462	0.11472	0.1952	0.14887	0.039144	-4.3875	-4.0521	-4.7188	-4.8083	-4.1875	-4.9229	-4.6	-4.6458	-4.6292	-4.3	-4.7542	-4.4896	-4.3	-4.9417	-4.3229	-4.425	269.735	17.903	123.763	196.871	100.023	222.933	25.097	251.485	298.581	145.760	300.364	279.519	7.890	220.978	207.532	64.748	0.00045277	0.00063219	0.00012571	1337	3.624e-06	5.1067e-06	1342.2	361.28	8.4367e-06	3.0663e-06	414.19	137.54	118.98	40.969	6.2634e-06	50.906	0.00035038	0.00033697	9.462e-05	1350	3.7494e-06	3.7062e-06	1351.9	365.99	3.7635e-06	3.6997e-06	418.61	139.26	120.16	41.568	3.7029e-06	51.64	99.693	62.965	115.327	19.046	96.622	145.116	18.815	23.590	184.169	107.053	23.108	27.295	27.884	32.632	164.264	31.816	-8191	255	
7927.928	1	1	0	0	0.19531	0.094872	0.14538	0.14165	0.1688	0.10169	0.20136	0.17098	0.15195	0.051274	0.051806	0.20978	0.32056	0.20144	0.1652	0.13157	-4.375	-4.1438	-4.4396	-4.7521	-4.1667	-4.8187	-4.6687	-4.625	-4.7583	-4.0479	-4.6521	-4.8938	-4.1917	-4.9104	-4.4	-4.4667	129.270	93.205	23.681	313.391	347.285	186.106	88.722	339.980	352.856	70.293	244.342	209.651	326.555	107.376	199.077	169.476	0.00046394	0.00030396	9.639e-05	1344.4	6.7457e-06	3.6123e-06	1341.3	361.68	5.3844e-06	8.5822e-06	412.92	137.41	118.79	40.792	3.4071e-06	50.629	0.00035312	0.00034084	9.5946e-05	1352.9	3.7989e-06	3.78e-06	1352.4	365.91	3.8181e-06	3.7751e-06	418.3	139.1	120.12	41.503	3.7285e-06	51.607	86.985	92.730	116.556	19.012	168.526	198.814	18.813	23.554	171.443	165.772	22.902	27.488	27.976	32.757	149.046	31.804	-8191	255	
7928.022	1	1	0	0	0.10391	0.03655	0.10116	0.13689	0.27632	0.23226	0.020456	0.2692	0.14674	0.26378	0.22031	0.15878	0.29105	0.10354	0.24632	0.19231	-4.4396	-4.1	-4.5292	-4.8396	-4.2688	-4.7812	-4.5687	-4.5021	-4.7875	-4.2646	-4.6667	-4.9125	-4.1958	-4.675	-4.4792	-4.3292	85.042	345.252	60.191	316.360	331.447	342.506	275.020	249.890	169.332	168.228	287.909	58.848	334.036	53.474	16.397	12.559	0.00049914	0.00037726	0.00018732	1339.3	5.0144e-06	3.964e-06	1338.6	361.82	4.3064e-06	3.6713e-06	414.53	136.72	118.62	40.646	3.1252e-06	50.834	0.00035347	0.00033975	9.4944e-05	1351.8	3.7802e-06	3.6697e-06	1350.2	365.97	3.7311e-06	3.7217e-06	418.24	139.18	119.89	41.413	3.8177e-06	51.634	96.349	142.234	100.973	18.957	180.831	111.232	18.773	23.657	143.712	161.910	23.143	27.591	28.080	32.678	122.492	31.911	-8191	255	
7928.118	1	1	0	0	0.17687	0.24209	0.20398	0.16812	0.13313	0.17175	0.2964	0.14835	0.063567	0.033928	0.090413	0.17534	0.21676	0.22237	0.1092	0.26265	-4.6917	-4.2688	-4.3667	-4.725	-4.2083	-4.7625	-4.6937	-4.3333	-4.8688	-4.3562	-4.3	-4.9021	-4.2667	-4.6375	-4.6229	-4.3438	12.764	11.764	205.363	306.431	22.496	338.805	279.779	289.852	235.956	71.896	328.771	348.423	349.217	15.168	204.576	358.947	0.00046223	0.00033271	0.00016625	1340.5	3.1212e-06	4.2024e-06	1339.6	362.3	6.2726e-06	4.325e-06	413.7	137.43	118.34	40.692	3.952e-06	50.778	0.00036212	0.00035192	9.79e-05	1352	3.8939e-06	3.8925e-06	1351.1	366.61	3.8819e-06	3.8734e-06	418.83	139.48	120.15	41.549	3.8366e-06	51.693	99.351	150.078	94.329	18.880	190.510	156.953	18.922	23.561	144.764	145.308	23.086	27.459	28.203	32.759	132.781	31.977	-8191	255	
7928.214	1	1	0	0	0.10153	0.21554	0.15657	0.26947	0.079768	0.10047	0.12169	0.12486	0.074669	0.14027	0.093227	0.13517	0.16572	0.23607	0.12851	0.21111	-4.3396	-4.3042	-4.2667	-4.875	-4.1333	-4.6333	-4.9542	-4.1979	-4.7438	-4.5354	-4.3958	-4.8667	-4.2688	-4.6021	-4.9083	-4.2896	58.978	96.557	106.154	336.771	83.612	280.786	319.846	17.250	198.497	349.783	210.760	321.386	55.490	306.180	121.397	327.042	0.00047835	0.00051389	0.0002458	1342	6.7022e-06	4.852e-06	1339.4	362.08	7.1002e-06	5.6888e-06	416.46	137.66	119.26	40.981	3.9872e-06	51.002	0.00035825	0.00034493	9.605e-05	1354.5	3.7955e-06	3.7114e-06	1353.6	366.89	3.8225e-06	3.8151e-06	419.58	139.66	120.43	41.647	3.8435e-06	51.688	102.577	97.059	123.798	19.044	149.345	182.626	18.878	23.586	209.056	100.604	23.076	27.793	27.895	32.716	136.131	31.785	-8191	255	
7928.311	1	1	0	0	0.15499	0.098153	0.089422	0.29572	0.097298	0.17108	0.22149	0.15653	0.17248	0.18539	0.27318	0.26479	0.10758	0.22054	0.14014	0.054526	-4.2625	-4.5146	-4.3979	-4.9646	-4.1833	-4.375	-5.0875	-4.2438	-4.5396	-4.5729	-4.3646	-5.0771	-4.3083	-4.5042	-4.8688	-4.3021	150.184	295.044	52.912	9.261	32.311	89.385	266.159	347.380	278.199	245.651	46.951	45.507	287.962	340.652	301.411	347.050	0.00047081	0.0004758	0.0001675	1341.7	6.5553e-06	6.6232e-06	1342.7	361.91	5.2689e-06	3.1508e-06	415.16	137.39	119.27	40.769	2.7284e-06	50.888	0.00036496	0.00035073	9.7557e-05	1355.4	3.9099e-06	3.8688e-06	1354.2	366.79	3.8709e-06	3.8048e-06	419.65	139.4	120.32	41.563	3.7894e-06	51.703	89.748	132.200	81.806	18.919	175.883	86.590	18.948	23.655	179.416	186.996	22.957	27.476	27.924	32.640	184.443	31.899	-8191	255	
7928.407	1	1	0	0	0.13498	0.22113	0.1491	0.28728	0.082954	0.044176	0.19623	0.17546	0.10307	0.096886	0.054758	0.062975	0.12246	0.097523	0.034654	0.28308	-4.2729	-4.4708	-4.4375	-4.8583	-4.3354	-4.4396	-5.0813	-4.275	-4.5979	-4.5667	-4.3229	-4.8417	-4.4042	-4.3521	-4.7021	-4.1833	335.259	223.703	268.280	38.279	20.760	299.031	355.784	333.606	163.354	324.729	323.766	49.837	318.006	31.742	341.713	287.094	0.00054424	0.00028697	7.016e-05	1342.3	2.374e-06	5.4533e-06	1338.4	361.78	5.4079e-06	5.4395e-06	415.74	138.24	119.34	40.89	5.3006e-06	50.876	0.00036292	0.00034753	9.5159e-05	1355.8	3.775e-06	3.7603e-06	1353.5	366.1	3.7793e-06	3.7216e-06	419.03	139.66	120.2	41.49	3.7275e-06	51.621	93.578	92.882	101.527	19.013	129.963	178.605	18.658	23.630	158.439	156.718	23.143	27.259	28.073	32.600	132.784	31.785	-8191	255	
