BOXY.EXE: ISS Imagent and Oximeter Data Acquisition Program Version 0.80
Ascii Record File

#ACQ INFORMATION
2  Detector Channels 
16  External MUX Channels 
1  Auxiliary Channels 
5000  Waveform (CCF) Frequency (Hz)
1  Waveforms Skipped 
30  Waveforms Averaged 
1  Cycles Averaged 
16  Acquisitions per Waveform 
10.0806  Updata Rate (Hz) 

#FILE INFORMATION
TRUE -- External MUX Channel results are PARSED.
FALSE -- AC DC and Phase are NOT grouped.
TRUE -- Companion Program Settings File CREATED.
FALSE -- AC data not excluded
FALSE -- DC data not excluded
FALSE -- Phase data not excluded
FALSE -- Auxillary Chn. data not excluded
Tab delimiters

#CALIBRATION STATE
TRUE -- Waveform Calibration Values APPLIED.


#AUX CALIBRATION VALUES
Val Type	aux-1	

Term	1.0000e+00	
Factor	0.0000e+00	


#WF CALIBRATION VALUES
A = Detector Channel
Val Type	A-AC1	A-AC2	A-AC3	A-AC4	A-AC5	A-AC6	A-AC7	A-AC8	A-AC9	A-AC10	A-AC11	A-AC12	A-AC13	A-AC14	A-AC15	A-AC16	A-DC1	A-DC2	A-DC3	A-DC4	A-DC5	A-DC6	A-DC7	A-DC8	A-DC9	A-DC10	A-DC11	A-DC12	A-DC13	A-DC14	A-DC15	A-DC16	A-Ph1	A-Ph2	A-Ph3	A-Ph4	A-Ph5	A-Ph6	A-Ph7	A-Ph8	A-Ph9	A-Ph10	A-Ph11	A-Ph12	A-Ph13	A-Ph14	A-Ph15	A-Ph16	

Term	0.00000e+00	0.00000e+00	0.00000e+00	0.00000e+00	0.00000e+00	0.00000e+00	0.00000e+00	0.00000e+00	0.00000e+00	0.00000e+00	0.00000e+00	0.00000e+00	0.00000e+00	0.00000e+00	0.00000e+00	0.00000e+00	0.00000e+00	0.00000e+00	0.00000e+00	0.00000e+00	0.00000e+00	0.00000e+00	0.00000e+00	0.00000e+00	0.00000e+00	0.00000e+00	0.00000e+00	0.00000e+00	0.00000e+00	0.00000e+00	0.00000e+00	0.00000e+00	0.00000e+00	0.00000e+00	0.00000e+00	0.00000e+00	0.00000e+00	0.00000e+00	0.00000e+00	0.00000e+00	0.00000e+00	0.00000e+00	0.00000e+00	0.00000e+00	0.00000e+00	0.00000e+00	0.00000e+00	0.00000e+00	
Factor	1.00000e+00	1.00000e+00	1.00000e+00	1.00000e+00	1.00000e+00	1.00000e+00	1.00000e+00	1.00000e+00	1.00000e+00	1.00000e+00	1.00000e+00	1.00000e+00	1.00000e+00	1.00000e+00	1.00000e+00	1.00000e+00	1.00000e+00	1.00000e+00	1.00000e+00	1.00000e+00	1.00000e+00	1.00000e+00	1.00000e+00	1.00000e+00	1.00000e+00	1.00000e+00	1.00000e+00	1.00000e+00	1.00000e+00	1.00000e+00	1.00000e+00	1.00000e+00	X	X	X	X	X	X	X	X	X	X	X	X	X	X	X	X	

B = Detector Channel
Val Type	B-AC1	B-AC2	B-AC3	B-AC4	B-AC5	B-AC6	B-AC7	B-AC8	B-AC9	B-AC10	B-AC11	B-AC12	B-AC13	B-AC14	B-AC15	B-AC16	B-DC1	B-DC2	B-DC3	B-DC4	B-DC5	B-DC6	B-DC7	B-DC8	B-DC9	B-DC10	B-DC11	B-DC12	B-DC13	B-DC14	B-DC15	B-DC16	B-Ph1	B-Ph2	B-Ph3	B-Ph4	B-Ph5	B-Ph6	B-Ph7	B-Ph8	B-Ph9	B-Ph10	B-Ph11	B-Ph12	B-Ph13	B-Ph14	B-Ph15	B-Ph16	

Term	0.00000e+00	0.00000e+00	0.00000e+00	0.00000e+00	0.00000e+00	0.00000e+00	0.00000e+00	0.00000e+00	0.00000e+00	0.00000e+00	0.00000e+00	0.00000e+00	0.00000e+00	0.00000e+00	0.00000e+00	0.00000e+00	0.00000e+00	0.00000e+00	0.00000e+00	0.00000e+00	0.00000e+00	0.00000e+00	0.00000e+00	0.00000e+00	0.00000e+00	0.00000e+00	0.00000e+00	0.00000e+00	0.00000e+00	0.00000e+00	0.00000e+00	0.00000e+00	-6.18844e+01	-1.31176e+02	-1.30945e+02	-1.82064e+02	-5.12520e+01	-6.31214e+01	-1.57560e+02	-1.62015e+02	-4.68082e+01	-6.38604e+01	-1.72371e+02	-1.70432e+02	-1.78256e+02	-1.76759e+02	-5.34657e+01	-1.49349e+02	
Factor	1.65308e-05	1.37929e-04	3.69494e-05	1.57704e-01	1.33523e-06	1.42652e-06	1.70755e-01	4.46573e-02	1.03347e-06	1.38636e-06	7.56219e-02	2.61641e-02	2.21170e-02	8.12295e-03	1.35262e-06	1.13021e-02	1.00626e-05	1.67098e-05	4.71134e-06	8.54066e-02	1.71346e-07	1.86818e-07	8.69103e-02	2.43396e-02	1.67811e-07	1.87038e-07	3.98308e-02	1.38576e-02	1.22449e-02	4.47032e-03	1.76786e-07	6.00929e-03	X	X	X	X	X	X	X	X	X	X	X	X	X	X	X	X	



#DISTANCE SETTINGS
A = Detector Channel
A-1	A-2	A-3	A-4	A-5	A-6	A-7	A-8	A-9	A-10	A-11	A-12	A-13	A-14	A-15	A-16	

2.5000e+00	3.0000e+00	2.5000e+00	3.0000e+00	2.0000e+00	3.0000e+00	1.5000e+00	3.0000e+00	3.0000e+00	3.0000e+00	3.0000e+00	3.0000e+00	3.0000e+00	3.0000e+00	1.5000e+00	3.0000e+00	

B = Detector Channel
B-1	B-2	B-3	B-4	B-5	B-6	B-7	B-8	B-9	B-10	B-11	B-12	B-13	B-14	B-15	B-16	

1.0000e+01	1.0000e+01	1.0000e+01	1.4400e+00	1.0000e+01	1.0000e+01	1.5100e+00	1.9400e+00	1.0000e+01	1.0000e+01	1.9900e+00	2.4900e+00	2.4100e+00	2.9000e+00	1.0000e+01	2.9800e+00	




#DATA BEGINS
time	group	step	mark	flag	A-AC1	A-AC2	A-AC3	A-AC4	A-AC5	A-AC6	A-AC7	A-AC8	A-AC9	A-AC10	A-AC11	A-AC12	A-AC13	A-AC14	A-AC15	A-AC16	A-DC1	A-DC2	A-DC3	A-DC4	A-DC5	A-DC6	A-DC7	A-DC8	A-DC9	A-DC10	A-DC11	A-DC12	A-DC13	A-DC14	A-DC15	A-DC16	A-Ph1	A-Ph2	A-Ph3	A-Ph4	A-Ph5	A-Ph6	A-Ph7	A-Ph8	A-Ph9	A-Ph10	A-Ph11	A-Ph12	A-Ph13	A-Ph14	A-Ph15	A-Ph16	B-AC1	B-AC2	B-AC3	B-AC4	B-AC5	B-AC6	B-AC7	B-AC8	B-AC9	B-AC10	B-AC11	B-AC12	B-AC13	B-AC14	B-AC15	B-AC16	B-DC1	B-DC2	B-DC3	B-DC4	B-DC5	B-DC6	B-DC7	B-DC8	B-DC9	B-DC10	B-DC11	B-DC12	B-DC13	B-DC14	B-DC15	B-DC16	B-Ph1	B-Ph2	B-Ph3	B-Ph4	B-Ph5	B-Ph6	B-Ph7	B-Ph8	B-Ph9	B-Ph10	B-Ph11	B-Ph12	B-Ph13	B-Ph14	B-Ph15	B-Ph16	aux-1	digaux	

806.732	1	1	0	256	0.17286	0.01313	0.16514	0.22442	0.22915	0.15704	0.23428	0.22432	0.31335	0.10886	0.090125	0.34187	0.028731	0.062733	0.16464	0.16542	-1.3312	-0.77708	-1.4271	-1.775	-0.93125	-1.6271	-1.2875	-0.8375	-1.7104	-0.94167	-1.3854	-1.7167	-0.9625	-1.5312	-0.98333	-1.0063	78.629	203.611	111.322	330.474	356.909	125.662	265.213	65.714	81.038	35.028	214.425	251.233	280.125	282.352	134.671	358.526	0.00034737	0.00078174	9.0558e-05	1375.6	2.9718e-06	9.0163e-06	1383.6	368.85	8.7659e-06	5.5114e-06	426.29	140.92	121.09	40.551	4.5924e-06	50.136	0.0015325	0.0022514	0.00063632	1397.2	2.3533e-05	2.5641e-05	1404.3	377.43	2.2603e-05	2.5273e-05	437.33	145.08	124.83	42.112	2.3971e-05	52.1	211.794	108.737	163.243	43.540	215.706	198.090	43.474	48.583	193.773	162.794	47.419	52.458	51.851	55.178	203.705	54.378	-8191	255	
806.853	1	1	0	0	0.10976	0.12609	0.21015	0.22541	0.068326	0.16176	0.18121	0.33004	0.14216	0.23742	0.23713	0.15909	0.27086	0.087258	0.045427	0.13521	-1.3188	-0.78958	-1.0521	-1.7396	-0.7375	-1.3646	-1.3188	-1.0063	-1.7313	-0.9375	-1.1896	-1.6833	-0.84375	-1.3792	-1.3563	-0.9125	69.916	146.207	104.756	307.926	29.213	191.410	236.913	324.297	59.769	32.690	243.831	306.207	145.906	381.033	320.030	358.658	0.00033405	0.00026094	7.7339e-05	1370.8	6.5858e-06	6.2167e-06	1377.4	367.95	5.2122e-06	7.3519e-06	425.29	140.23	120.35	40.584	6.0601e-06	50.1	0.0015287	0.0022356	0.00064541	1394.6	2.3347e-05	2.5381e-05	1401.8	376.92	2.3192e-05	2.5514e-05	437.16	144.59	124.7	42.217	2.4219e-05	51.936	215.855	179.896	106.992	41.565	221.938	201.434	41.727	46.428	240.285	190.673	45.688	50.557	50.871	55.441	233.943	54.284	-8191	255	
806.947	1	1	0	0	0.27309	0.032984	0.11072	0.33705	0.13434	0.083031	0.11532	0.24335	0.06202	0.081936	0.2328	0.074592	0.21765	0.15768	0.22853	0.13512	-1	-1.0458	-1.0771	-1.8417	-0.88125	-1.2771	-1.6958	-0.78958	-1.6833	-1.1667	-1.0167	-1.8125	-0.82917	-1.3417	-1.5729	-0.98125	348.680	202.235	365.043	366.784	182.722	237.192	352.686	318.048	53.483	221.956	360.617	243.334	272.772	265.914	245.132	264.566	0.00034902	0.00036446	0.0001646	1373.3	4.2546e-06	8.9891e-06	1377.8	366.64	4.4165e-06	6.2722e-06	427.15	140.06	120.78	40.322	7.3203e-06	49.732	0.0015466	0.0023234	0.00064496	1394	2.4256e-05	2.6042e-05	1399.6	376.45	2.3627e-05	2.5704e-05	437.26	144.86	124.83	42.122	2.4207e-05	51.868	209.455	78.033	103.325	41.893	167.493	185.648	41.891	46.501	196.677	190.424	45.886	50.794	51.150	55.089	179.328	54.425	-8191	255	
807.045	1	1	0	0	0.1171	0.069768	0.1314	0.08853	0.17785	0.003905	0.35209	0.26249	0.15994	0.14844	0.13507	0.33057	0.29368	0.21076	0.25275	0.16842	-1.1604	-1.375	-0.71042	-1.9458	-0.8375	-1.0917	-1.6104	-0.9125	-1.4208	-1.0667	-1.1437	-1.6562	-1.0562	-1.2646	-1.5688	-1.0083	164.361	248.370	334.261	248.460	289.630	126.585	318.198	317.151	69.144	250.240	66.859	366.117	368.449	268.889	363.748	350.115	0.00036167	0.00074359	0.00011194	1369.1	4.5771e-06	8.5073e-06	1370.8	367.38	1.9941e-06	6.712e-06	427.25	140.25	121	40.535	6.5649e-06	50.14	0.0015773	0.0022902	0.00064788	1395.8	2.4063e-05	2.5636e-05	1400.9	376.91	2.359e-05	2.5692e-05	437.42	144.96	124.88	42.146	2.4419e-05	52.035	213.582	145.554	113.964	41.665	169.347	163.978	41.956	46.633	226.913	192.145	45.948	50.911	50.991	55.537	186.398	54.582	-8191	255	
807.139	1	1	0	0	0.13265	0.034868	0.23132	0.27531	0.19441	0.17882	0.22962	0.36451	0.40019	0.2101	0.20318	0.34182	0.23393	0.081657	0.28867	0.1336	-1.0396	-1.3917	-0.81458	-1.8771	-1.0229	-0.91875	-1.9562	-0.99375	-1.4688	-1.3896	-1.0938	-1.8354	-1.4875	-1.2375	-1.8312	-1.0396	185.774	63.770	113.510	318.927	254.381	353.234	295.334	329.981	46.626	257.015	307.082	384.831	322.232	233.840	352.094	325.772	0.0003847	0.00048753	6.5047e-05	1363.3	5.3563e-06	6.957e-06	1378.2	366.76	4.0427e-06	1.5497e-06	427.03	139.66	120.65	40.603	8.0252e-06	49.824	0.0015665	0.0022437	0.00064162	1392.3	2.3884e-05	2.5424e-05	1400.5	377.12	2.3044e-05	2.5079e-05	436.98	144.48	124.44	42.079	2.405e-05	51.84	210.928	122.601	169.632	41.769	196.630	179.782	41.783	46.675	235.888	145.310	46.000	50.993	51.217	55.554	184.467	54.636	-8191	255	
807.235	1	1	0	0	0.11528	0.11535	0.20782	0.30908	0.12667	0.1854	0.51033	0.50572	0.11525	0.098336	0.30358	0.12728	0.29946	0.2985	0.033217	0.2686	-0.98125	-1.4417	-0.73542	-1.5833	-1.1646	-1.0938	-1.8104	-0.90417	-1.2104	-1.4646	-0.76875	-1.6688	-1.275	-0.89792	-1.6	-0.99167	362.327	100.947	80.032	367.535	360.288	62.932	363.557	314.876	178.238	65.657	328.306	387.118	323.084	38.225	188.058	302.854	0.00034763	0.00046162	6.1634e-05	1366.7	2.6863e-06	9.587e-06	1379	367.77	4.9463e-06	4.8203e-06	425.6	139.71	120.3	40.588	3.678e-06	50.076	0.0015162	0.0022223	0.0006228	1392.1	2.3753e-05	2.5072e-05	1400.7	376.84	2.302e-05	2.4947e-05	436.76	144.64	124.33	42.15	2.4011e-05	51.972	220.962	83.249	90.800	42.042	174.865	191.515	42.095	46.620	237.642	178.734	46.250	51.196	51.585	55.631	234.187	54.868	-8191	255	
807.332	1	1	0	0	0.3466	0.35268	0.13442	0.12977	0.20097	0.16444	0.14596	0.36343	0.13633	0.33498	0.095085	0.078793	0.24207	0.40826	0.16834	0.20944	-0.81458	-1.4771	-0.725	-1.6333	-1.2396	-0.8375	-2.0187	-1.1812	-1.0708	-1.5583	-1.0187	-1.5417	-1.6833	-1.0063	-1.55	-0.84375	329.870	243.570	155.963	384.043	303.139	297.856	329.899	337.917	353.088	378.031	258.202	231.293	35.850	99.071	359.450	120.040	0.00032169	0.00077983	0.00023436	1371.9	3.6662e-06	5.4485e-06	1375.4	367.93	3.8068e-06	8.1802e-06	424.17	140.2	120.16	40.686	6.0874e-06	50.269	0.0015343	0.0022066	0.00064246	1395.1	2.3247e-05	2.502e-05	1402.1	376.65	2.2882e-05	2.55e-05	436.08	144.95	124.41	42.164	2.399e-05	52.049	213.116	118.153	119.564	42.348	193.785	239.490	42.332	46.953	223.362	176.784	46.301	51.189	51.600	55.737	158.821	54.878	-8191	255	
807.452	1	1	0	0	0.18367	0.35416	0.26894	0.023346	0.21035	0.16699	0.16439	0.014166	0.25698	0.21145	0.2002	0.44288	0.23186	0.028966	0.12619	0.20123	-0.6875	-1.7958	-0.66875	-1.5771	-1.5771	-0.82292	-1.775	-1.3937	-0.78542	-1.5021	-0.8125	-1.3771	-1.6542	-0.81042	-1.5646	-1.1208	223.778	268.046	86.320	138.670	163.529	271.848	375.385	61.180	65.438	293.967	271.036	350.718	372.885	49.023	316.015	245.459	0.00035164	0.00057706	0.00010555	1367	3.5621e-06	4.7977e-06	1382.2	368.08	4.0031e-06	4.4657e-06	427.75	140.37	120.54	40.488	5.8331e-06	50.226	0.0015374	0.0022741	0.00064684	1393.7	2.3915e-05	2.565e-05	1403.5	376.94	2.3353e-05	2.516e-05	437.6	144.97	124.64	42.123	2.4155e-05	51.989	225.906	115.480	165.767	42.048	220.353	190.265	42.047	46.679	234.668	134.639	46.001	51.164	51.422	55.447	168.771	54.747	-8191	255	
807.548	1	1	0	0	0.033653	0.1585	0.11267	0.23091	0.16733	0.16118	0.40108	0.17356	0.2507	0.07187	0.050361	0.17423	0.18097	0.1825	0.20753	0.35272	-0.57917	-1.7042	-0.63958	-1.4875	-1.65	-0.70625	-1.6021	-1.2792	-0.75	-1.7771	-1.0375	-1.3563	-1.625	-0.86042	-1.4729	-1.2354	352.512	29.003	31.877	241.773	258.913	329.882	322.477	263.427	216.468	371.862	323.923	227.620	29.382	352.967	307.098	254.994	0.0003887	0.00046784	0.000171	1369.9	2.7418e-06	4.4989e-06	1377.3	367.35	3.9926e-06	7.1883e-06	426.2	140.22	120.78	40.502	5.4363e-06	50.186	0.0015335	0.0022851	0.00065501	1394.7	2.3885e-05	2.5345e-05	1404.2	376.9	2.3832e-05	2.5279e-05	437.27	145.03	124.75	42.18	2.4502e-05	52.007	213.484	108.641	103.282	41.949	148.066	177.936	42.059	46.808	198.834	152.558	46.096	51.263	51.153	55.468	214.778	54.968	-8191	255	
807.620	1	1	0	0	0.037716	0.25741	0.23505	0.29561	0.30336	0.23127	0.20717	0.26739	0.29965	0.2525	0.15511	0.083835	0.38322	0.23276	0.077151	0.12924	-0.53125	-1.6854	-0.84167	-1.1437	-1.4604	-0.69583	-1.5646	-1.2979	-0.63125	-1.4396	-1.1792	-1.1271	-1.4937	-0.90833	-1.225	-1.5438	58.000	36.195	124.609	328.278	125.906	255.123	343.700	359.221	257.361	268.540	238.519	331.808	344.630	375.564	171.660	234.278	0.00035502	0.00049364	0.00012295	1372.4	9.4532e-06	5.5228e-06	1376.4	367.23	3.8553e-06	5.0381e-07	424.03	140.27	120.89	40.533	2.1376e-06	49.899	0.0015518	0.002318	0.00065844	1398.6	2.3813e-05	2.5698e-05	1404.9	377.02	2.3763e-05	2.5789e-05	436.83	144.94	124.91	42.083	2.4931e-05	51.872	218.583	74.113	65.450	41.998	200.846	157.444	42.239	46.887	244.083	191.705	45.986	51.214	51.363	55.573	215.199	54.814	-8191	255	
807.716	1	1	0	0	0.17767	0.28055	0.12947	0.38371	0.048851	0.20641	0.085407	0.44092	0.17421	0.23831	0.23412	0.44225	0.26774	0.32293	0.032019	0.063013	-0.36042	-1.5646	-0.95625	-1.15	-1.6021	-0.80833	-1.475	-1.5354	-0.59375	-1.5354	-1.2875	-1.0438	-1.8667	-0.95208	-1.1667	-1.6313	100.220	385.902	206.061	347.399	53.566	155.695	333.351	278.061	175.563	69.292	328.505	363.678	81.526	331.009	358.423	178.952	0.00038355	0.00066309	0.00018027	1376.1	6.4682e-06	9.2682e-06	1381.6	367.75	6.0343e-06	6.6203e-06	428.62	139.8	120.38	40.478	3.3795e-06	50.431	0.0015849	0.002336	0.0006481	1399.6	2.4379e-05	2.6262e-05	1404.5	377.9	2.3991e-05	2.6054e-05	438.43	144.82	124.62	42.153	2.5156e-05	52.135	212.445	132.796	103.473	42.039	239.104	166.524	42.239	46.699	216.776	212.009	46.020	51.078	51.415	55.684	223.386	55.209	-8191	255	
807.837	1	1	0	0	0.056598	0.26055	0.1685	0.037664	0.17164	0.15993	0.35163	0.14778	0.181	0.17941	0.23298	0.36482	0.40491	0.13633	0.12261	0.27951	-0.28542	-1.3896	-1.2625	-1.0271	-1.7021	-1.2458	-1.5104	-1.6792	-0.7125	-1.5083	-1.4937	-0.8	-1.6646	-0.99792	-1.1437	-1.7771	347.421	191.897	193.285	369.867	180.245	255.364	299.002	320.887	309.716	233.584	270.752	351.453	388.479	82.720	340.000	31.890	0.00036029	0.00049851	0.00014587	1371.7	7.8891e-06	6.2189e-06	1377.1	367.87	5.0965e-06	5.7737e-06	426.14	140.22	120.71	40.627	5.1085e-06	50.222	0.0016045	0.002385	0.00066184	1400.5	2.4497e-05	2.6792e-05	1406.8	377.83	2.4138e-05	2.644e-05	438.04	145.04	124.97	42.129	2.5271e-05	52.075	211.624	116.634	163.730	42.104	181.846	200.481	42.385	46.824	186.024	158.106	46.029	51.054	51.527	55.557	206.926	55.117	-8191	255	
807.931	1	1	0	0	0.09995	0.11461	0.11378	0.23465	0.059367	0.19431	0.24109	0.22842	0.22551	0.29584	0.044711	0.076742	0.060898	0.11116	0.24596	0.26431	-0.23125	-1.4896	-1.3687	-0.94792	-1.725	-1.1479	-1.15	-1.6958	-0.80625	-1.3	-1.7021	-0.68333	-1.6583	-1.1271	-0.97917	-1.8375	340.204	346.932	348.058	302.074	85.859	73.944	43.198	283.504	301.734	172.607	251.908	367.528	74.080	348.274	328.495	352.703	0.00037969	0.00063809	0.0002077	1367.7	6.0365e-06	5.5969e-06	1384.3	367.61	5.139e-06	6.3858e-06	426.89	140.12	120.68	40.436	5.3131e-06	50.201	0.0016207	0.0024013	0.00067618	1398.4	2.4938e-05	2.63e-05	1406.1	377.85	2.4661e-05	2.6322e-05	437.61	144.88	124.75	42.162	2.5611e-05	51.989	215.805	126.628	127.337	42.339	192.763	195.460	42.566	47.062	212.021	180.194	46.094	51.028	51.524	55.633	177.031	54.818	-8191	255	
808.027	1	1	0	0	0.13309	0.17581	0.14311	0.30385	0.20045	0.027093	0.16794	0.16498	0.091195	0.10082	0.15407	0.10432	0.16185	0.41683	0.26342	0.13905	-0.61458	-1.2729	-1.3917	-0.90625	-1.5792	-1.2417	-1.0208	-1.7208	-0.82083	-1.2896	-1.675	-0.93542	-1.4688	-1.2521	-1.0292	-1.7167	91.839	222.027	42.605	366.620	308.599	382.665	355.077	314.192	222.725	135.374	375.173	30.917	335.549	364.612	270.263	367.513	0.00038289	0.00042861	0.00016073	1370.5	5.0755e-06	4.6924e-06	1386.1	368.27	5.1984e-06	3.7113e-06	426.26	140.14	120.56	40.538	5.3895e-06	50.371	0.0016042	0.0023951	0.00066171	1398.9	2.4558e-05	2.6346e-05	1409.4	377.49	2.4734e-05	2.6803e-05	438.51	144.99	124.7	42.191	2.5537e-05	52.146	214.783	130.302	103.195	42.168	148.698	187.001	42.227	46.819	236.100	243.391	45.972	50.992	51.288	55.719	167.316	54.875	-8191	255	
808.125	1	1	0	0	0.15042	0.29137	0.1814	0.0587	0.13523	0.27002	0.25124	0.17272	0.032711	0.11545	0.12013	0.22614	0.32276	0.35321	0.23224	0.1842	-0.43542	-1.1646	-1.5562	-1.0896	-1.6292	-1.3375	-1.0292	-1.7146	-0.79792	-1.1396	-1.7604	-1.0729	-1.4042	-1.5396	-0.86667	-1.575	371.466	215.491	292.478	66.212	257.793	225.251	332.803	363.898	116.496	363.791	291.608	333.043	380.378	339.279	342.336	34.050	0.00039245	0.00071882	0.00016501	1375.2	4.8386e-06	4.8463e-06	1383.2	368.62	5.0988e-06	6.8805e-06	427.48	140.27	121.34	40.38	3.9823e-06	50.295	0.0016285	0.0023894	0.00067914	1402.1	2.5135e-05	2.6818e-05	1410.2	377.9	2.493e-05	2.7442e-05	439.07	145.27	125.35	42.154	2.638e-05	52.164	210.395	121.430	146.610	42.061	212.204	207.702	42.101	46.945	184.053	181.799	45.805	51.315	51.503	55.418	197.371	54.991	-8191	255	
808.244	1	1	0	0	0.059434	0.1619	0.15972	0.080681	0.45076	0.18118	0.12626	0.1727	0.14471	0.30992	0.1189	0.13551	0.1835	0.31062	0.04746	0.40536	-0.72917	-0.99375	-1.7687	-1.0896	-1.4854	-1.5375	-0.95208	-1.7583	-1.1125	-0.95417	-1.9438	-0.96042	-1.2812	-1.5146	-0.89792	-1.6542	107.740	350.774	69.103	329.485	260.275	182.402	293.424	384.802	89.726	319.560	308.437	269.484	57.462	43.271	82.144	330.833	0.0003693	0.00039188	0.00020101	1378.8	7.5216e-06	5.6111e-06	1389.6	369.85	5.2835e-06	2.273e-06	429.69	140.17	121.33	40.743	6.0535e-06	50.379	0.0016328	0.002444	0.0006909	1401.2	2.5386e-05	2.7262e-05	1412.8	378.97	2.493e-05	2.709e-05	439.78	145.21	125.34	42.29	2.6387e-05	52.137	210.751	102.462	66.279	42.165	207.191	173.455	42.070	46.963	202.959	196.173	46.476	51.171	51.690	55.710	226.639	54.985	-8191	255	
808.316	1	1	0	0	0.18653	0.27066	0.17616	0.28762	0.12174	0.18749	0.2968	0.47449	0.11557	0.3722	0.4604	0.16284	0.077443	0.16552	0.17841	0.24251	-0.78542	-0.86667	-1.5854	-1.1354	-1.2042	-1.575	-0.98333	-1.6875	-1.2646	-0.925	-1.7646	-1.1083	-1.2375	-1.7042	-0.86875	-1.5583	119.118	248.313	259.275	308.277	76.012	301.478	61.338	349.606	374.570	93.404	340.070	311.066	83.107	96.266	331.596	54.896	0.00033183	0.00054784	6.1666e-05	1378.8	7.4189e-06	5.9865e-06	1385.4	369.98	2.2097e-06	8.5367e-06	428.35	140.48	120.86	40.601	6.3631e-06	50.182	0.0016381	0.0024598	0.00069581	1403.1	2.5749e-05	2.7251e-05	1409.1	379.04	2.4381e-05	2.7263e-05	439	145.17	125.17	42.219	2.5596e-05	52.191	217.154	106.285	124.747	42.299	225.647	237.222	42.398	46.951	230.423	169.686	46.450	51.369	51.938	55.935	174.601	55.242	-8191	255	
808.412	1	1	0	0	0.087967	0.12164	0.52912	0.36967	0.18528	0.18684	0.45738	0.23285	0.22958	0.13847	0.27727	0.11156	0.15642	0.15596	0.026089	0.15923	-0.99792	-0.87083	-1.4917	-0.96458	-1.0312	-1.5167	-0.99792	-1.5938	-1.4271	-0.79792	-1.6625	-1.1604	-1.1125	-1.9167	-0.66458	-1.4771	241.752	203.110	67.138	365.682	249.645	65.865	312.031	339.615	271.343	38.893	384.978	364.686	339.394	51.635	332.722	48.511	0.00036717	0.00094226	8.5013e-05	1376.5	5.3518e-06	4.8735e-06	1394.8	369.93	4.7699e-06	4.3392e-06	426.77	140.62	120.8	40.607	6.9204e-06	50.456	0.0016464	0.0024773	0.00068361	1404.5	2.5617e-05	2.7384e-05	1414.7	379.4	2.52e-05	2.7984e-05	439.75	145.34	125.15	42.287	2.6493e-05	52.221	215.111	111.893	79.289	42.180	221.455	175.147	42.484	47.297	217.894	244.676	46.550	51.313	51.737	55.951	219.580	55.404	-8191	255	
