BOXY.EXE: ISS Imagent and Oximeter Data Acquisition Program Version 0.80
Ascii Record File

#ACQ INFORMATION
2  Detector Channels 
16  External MUX Channels 
1  Auxiliary Channels 
5000  Waveform (CCF) Frequency (Hz)
1  Waveforms Skipped 
30  Waveforms Averaged 
1  Cycles Averaged 
16  Acquisitions per Waveform 
10.0806  Updata Rate (Hz) 

#FILE INFORMATION
TRUE -- External MUX Channel results are PARSED.
FALSE -- AC DC and Phase are NOT grouped.
TRUE -- Companion Program Settings File CREATED.
FALSE -- AC data not excluded
FALSE -- DC data not excluded
FALSE -- Phase data not excluded
FALSE -- Auxillary Chn. data not excluded
Tab delimiters

#CALIBRATION STATE
TRUE -- Waveform Calibration Values APPLIED.


#AUX CALIBRATION VALUES
Val Type	aux-1	

Term	1.0000e+00	
Factor	0.0000e+00	


#WF CALIBRATION VALUES
A = Detector Channel
Val Type	A-AC1	A-AC2	A-AC3	A-AC4	A-AC5	A-AC6	A-AC7	A-AC8	A-AC9	A-AC10	A-AC11	A-AC12	A-AC13	A-AC14	A-AC15	A-AC16	A-DC1	A-DC2	A-DC3	A-DC4	A-DC5	A-DC6	A-DC7	A-DC8	A-DC9	A-DC10	A-DC11	A-DC12	A-DC13	A-DC14	A-DC15	A-DC16	A-Ph1	A-Ph2	A-Ph3	A-Ph4	A-Ph5	A-Ph6	A-Ph7	A-Ph8	A-Ph9	A-Ph10	A-Ph11	A-Ph12	A-Ph13	A-Ph14	A-Ph15	A-Ph16	

Term	0.00000e+00	0.00000e+00	0.00000e+00	0.00000e+00	0.00000e+00	0.00000e+00	0.00000e+00	0.00000e+00	0.00000e+00	0.00000e+00	0.00000e+00	0.00000e+00	0.00000e+00	0.00000e+00	0.00000e+00	0.00000e+00	0.00000e+00	0.00000e+00	0.00000e+00	0.00000e+00	0.00000e+00	0.00000e+00	0.00000e+00	0.00000e+00	0.00000e+00	0.00000e+00	0.00000e+00	0.00000e+00	0.00000e+00	0.00000e+00	0.00000e+00	0.00000e+00	0.00000e+00	0.00000e+00	0.00000e+00	0.00000e+00	0.00000e+00	0.00000e+00	0.00000e+00	0.00000e+00	0.00000e+00	0.00000e+00	0.00000e+00	0.00000e+00	0.00000e+00	0.00000e+00	0.00000e+00	0.00000e+00	
Factor	1.00000e+00	1.00000e+00	1.00000e+00	1.00000e+00	1.00000e+00	1.00000e+00	1.00000e+00	1.00000e+00	1.00000e+00	1.00000e+00	1.00000e+00	1.00000e+00	1.00000e+00	1.00000e+00	1.00000e+00	1.00000e+00	1.00000e+00	1.00000e+00	1.00000e+00	1.00000e+00	1.00000e+00	1.00000e+00	1.00000e+00	1.00000e+00	1.00000e+00	1.00000e+00	1.00000e+00	1.00000e+00	1.00000e+00	1.00000e+00	1.00000e+00	1.00000e+00	X	X	X	X	X	X	X	X	X	X	X	X	X	X	X	X	

B = Detector Channel
Val Type	B-AC1	B-AC2	B-AC3	B-AC4	B-AC5	B-AC6	B-AC7	B-AC8	B-AC9	B-AC10	B-AC11	B-AC12	B-AC13	B-AC14	B-AC15	B-AC16	B-DC1	B-DC2	B-DC3	B-DC4	B-DC5	B-DC6	B-DC7	B-DC8	B-DC9	B-DC10	B-DC11	B-DC12	B-DC13	B-DC14	B-DC15	B-DC16	B-Ph1	B-Ph2	B-Ph3	B-Ph4	B-Ph5	B-Ph6	B-Ph7	B-Ph8	B-Ph9	B-Ph10	B-Ph11	B-Ph12	B-Ph13	B-Ph14	B-Ph15	B-Ph16	

Term	0.00000e+00	0.00000e+00	0.00000e+00	0.00000e+00	0.00000e+00	0.00000e+00	0.00000e+00	0.00000e+00	0.00000e+00	0.00000e+00	0.00000e+00	0.00000e+00	0.00000e+00	0.00000e+00	0.00000e+00	0.00000e+00	0.00000e+00	0.00000e+00	0.00000e+00	0.00000e+00	0.00000e+00	0.00000e+00	0.00000e+00	0.00000e+00	0.00000e+00	0.00000e+00	0.00000e+00	0.00000e+00	0.00000e+00	0.00000e+00	0.00000e+00	0.00000e+00	-6.18844e+01	-1.31176e+02	-1.30945e+02	-1.82064e+02	-5.12520e+01	-6.31214e+01	-1.57560e+02	-1.62015e+02	-4.68082e+01	-6.38604e+01	-1.72371e+02	-1.70432e+02	-1.78256e+02	-1.76759e+02	-5.34657e+01	-1.49349e+02	
Factor	1.65308e-05	1.37929e-04	3.69494e-05	1.57704e-01	1.33523e-06	1.42652e-06	1.70755e-01	4.46573e-02	1.03347e-06	1.38636e-06	7.56219e-02	2.61641e-02	2.21170e-02	8.12295e-03	1.35262e-06	1.13021e-02	1.00626e-05	1.67098e-05	4.71134e-06	8.54066e-02	1.71346e-07	1.86818e-07	8.69103e-02	2.43396e-02	1.67811e-07	1.87038e-07	3.98308e-02	1.38576e-02	1.22449e-02	4.47032e-03	1.76786e-07	6.00929e-03	X	X	X	X	X	X	X	X	X	X	X	X	X	X	X	X	



#DISTANCE SETTINGS
A = Detector Channel
A-1	A-2	A-3	A-4	A-5	A-6	A-7	A-8	A-9	A-10	A-11	A-12	A-13	A-14	A-15	A-16	

2.5000e+00	3.0000e+00	2.5000e+00	3.0000e+00	2.0000e+00	3.0000e+00	1.5000e+00	3.0000e+00	3.0000e+00	3.0000e+00	3.0000e+00	3.0000e+00	3.0000e+00	3.0000e+00	1.5000e+00	3.0000e+00	

B = Detector Channel
B-1	B-2	B-3	B-4	B-5	B-6	B-7	B-8	B-9	B-10	B-11	B-12	B-13	B-14	B-15	B-16	

1.0000e+01	1.0000e+01	1.0000e+01	1.4400e+00	1.0000e+01	1.0000e+01	1.5100e+00	1.9400e+00	1.0000e+01	1.0000e+01	1.9900e+00	2.4900e+00	2.4100e+00	2.9000e+00	1.0000e+01	2.9800e+00	




#DATA BEGINS
time	group	step	mark	flag	A-AC1	A-AC2	A-AC3	A-AC4	A-AC5	A-AC6	A-AC7	A-AC8	A-AC9	A-AC10	A-AC11	A-AC12	A-AC13	A-AC14	A-AC15	A-AC16	A-DC1	A-DC2	A-DC3	A-DC4	A-DC5	A-DC6	A-DC7	A-DC8	A-DC9	A-DC10	A-DC11	A-DC12	A-DC13	A-DC14	A-DC15	A-DC16	A-Ph1	A-Ph2	A-Ph3	A-Ph4	A-Ph5	A-Ph6	A-Ph7	A-Ph8	A-Ph9	A-Ph10	A-Ph11	A-Ph12	A-Ph13	A-Ph14	A-Ph15	A-Ph16	B-AC1	B-AC2	B-AC3	B-AC4	B-AC5	B-AC6	B-AC7	B-AC8	B-AC9	B-AC10	B-AC11	B-AC12	B-AC13	B-AC14	B-AC15	B-AC16	B-DC1	B-DC2	B-DC3	B-DC4	B-DC5	B-DC6	B-DC7	B-DC8	B-DC9	B-DC10	B-DC11	B-DC12	B-DC13	B-DC14	B-DC15	B-DC16	B-Ph1	B-Ph2	B-Ph3	B-Ph4	B-Ph5	B-Ph6	B-Ph7	B-Ph8	B-Ph9	B-Ph10	B-Ph11	B-Ph12	B-Ph13	B-Ph14	B-Ph15	B-Ph16	aux-1	digaux	

1113.953	1	1	0	256	0.15017	0.21924	0.30306	0.096149	0.3434	0.10829	0.25743	0.14734	0.1596	0.090309	0.18559	0.10385	0.15531	0.14355	0.16769	0.053291	-0.8625	-1.4062	-0.84792	-1.6583	-1.1375	-0.84167	-1.8479	-1.1375	-1.2938	-1.4708	-0.79375	-1.4312	-1.2208	-0.9125	-1.7271	-1.0979	333.910	168.248	335.926	165.189	422.335	221.200	408.010	156.250	316.924	305.144	459.910	458.541	330.799	456.176	446.658	397.146	0.00048397	0.00070524	0.00017834	979.52	2.4458e-06	1.4719e-05	671.25	323.96	3.0718e-06	8.3507e-06	238.74	97.378	129.91	56.347	7.5536e-06	46.59	0.011828	0.018545	0.0051888	1055.8	0.00018325	0.00019692	749.64	345.08	0.0001724	0.00019134	276.94	110.44	141.15	61.058	0.00017568	52.187	250.967	134.934	460.620	137.613	301.076	347.842	135.982	142.045	182.115	198.270	139.319	143.663	146.195	149.627	232.287	145.472	-8191	255	
1114.074	1	1	0	0	0.14778	0.1523	0.25251	0.13256	0.051042	0.041192	0.22871	0.24258	0.14617	0.16244	0.17562	0.087711	0.25788	0.14825	0.097047	0.20781	-0.55	-1.5771	-0.77708	-1.4292	-1.2979	-0.86875	-1.7792	-1.1562	-0.94167	-1.3687	-0.90833	-1.6063	-1.3542	-0.93333	-1.6625	-1.1542	134.415	251.904	468.615	447.184	231.066	276.893	393.130	432.163	234.016	226.362	370.833	400.007	134.467	125.661	233.356	295.323	0.00059101	0.00066634	0.00035319	978.68	6.8025e-06	8.0947e-06	674.84	320.57	6.027e-06	1.5481e-06	238.61	95.821	127.3	55.966	7.0617e-06	46.261	0.0098252	0.015884	0.004474	1044.1	0.00015863	0.00017328	741.16	340.06	0.0001556	0.00017081	271.05	107.31	137.28	59.905	0.00015517	51.16	243.853	243.654	245.633	137.528	336.614	244.466	136.203	142.249	187.607	447.219	139.446	143.507	145.855	150.069	231.698	145.486	-8191	255	
1114.145	1	1	0	0	0.17409	0.17621	0.25348	0.14112	0.19436	0.16434	0.042744	0.0024604	0.27998	0.053941	0.15091	0.21281	0.25123	0.36111	0.27212	0.2118	-0.53542	-1.6375	-0.71042	-1.4354	-1.4667	-0.625	-1.5479	-1.2167	-0.89792	-1.6313	-0.91042	-1.4167	-1.525	-0.77708	-1.2938	-1.2687	342.560	354.412	152.573	400.189	364.871	441.395	438.515	190.089	283.008	397.728	443.348	387.016	443.048	424.863	452.869	423.942	0.00059993	0.00079265	6.5302e-05	981.68	8.8699e-06	8.2846e-06	678.61	319.74	8.9028e-06	8.3735e-06	240.44	97.67	128.52	56.622	7.4254e-06	47.139	0.0089008	0.014349	0.0040669	1039.9	0.00014524	0.00015785	737.54	337.34	0.0001401	0.00015768	271.72	107.88	138.25	60.372	0.00014913	51.801	261.745	272.254	238.130	137.358	383.303	266.558	136.025	141.948	303.613	179.927	138.851	143.816	146.116	149.696	259.266	145.247	-8191	255	
1114.240	1	1	0	0	0.11575	0.21597	0.29839	0.099145	0.097837	0.2483	0.21291	0.2605	0.12878	0.094917	0.2803	0.16928	0.23173	0.2871	0.093489	0.27546	-0.50625	-1.4083	-0.80833	-1.1688	-1.2437	-0.7375	-1.4438	-1.2708	-0.61875	-1.6271	-1.0542	-0.96875	-1.5146	-0.83125	-1.3563	-1.2104	479.121	247.044	458.736	433.389	383.579	459.542	434.874	464.726	465.429	219.904	402.678	340.804	443.434	153.693	296.327	396.805	0.00045349	0.00040794	9.1005e-05	996.23	9.3567e-06	8.0083e-06	693.15	329.64	6.9699e-07	8.9386e-06	248.44	100.15	133	57.908	4.5926e-06	48.656	0.008603	0.014057	0.0039555	1051.9	0.00014111	0.00015754	753.62	346.13	0.00014848	0.00016991	282.31	112.07	143.32	62.218	0.00017474	54.102	250.120	180.236	206.209	137.145	276.299	234.624	135.839	142.050	234.675	219.355	139.657	143.835	145.960	149.541	388.841	145.527	-8191	255	
1114.336	1	1	0	0	0.24207	0.35489	0.18971	0.32843	0.10647	0.039267	0.1734	0.03879	0.12627	0.16801	0.10337	0.059342	0.2692	0.058234	0.41293	0.27113	-0.38333	-1.5958	-0.975	-1.1708	-1.6	-0.82292	-1.4083	-1.7583	-0.65	-1.5063	-1.0396	-1.15	-1.6688	-0.87292	-1.2521	-1.3604	315.687	160.451	441.344	453.520	374.330	243.773	350.525	437.767	409.097	132.873	433.391	137.600	379.855	437.381	431.729	166.282	0.00042463	0.00076452	0.00030204	1021.4	9.2378e-06	8.0295e-06	718.43	337.3	5.8117e-06	1.1348e-05	256.24	103.01	134.43	58.473	1.6572e-05	48.853	0.010337	0.017252	0.0048754	1092.1	0.000177	0.00019332	788.72	357.97	0.00016515	0.00018299	290.47	114.82	145.87	62.955	0.00017463	54.808	259.774	158.862	374.070	137.374	265.397	238.489	136.023	142.026	264.208	312.196	139.591	143.826	146.108	149.710	294.738	145.773	-8191	255	
1114.456	1	1	0	0	0.19512	0.15209	0.20349	0.29518	0.14597	0.45229	0.29226	0.28749	0.21348	0.24119	0.14556	0.2187	0.16843	0.28734	0.24988	0.35028	-0.46667	-1.6146	-1.0396	-1.0104	-1.5396	-0.9375	-1.2042	-1.5396	-0.67708	-1.3771	-1.3167	-0.84583	-1.6708	-0.97708	-1.1458	-1.5958	480.430	222.611	419.010	477.781	247.096	187.193	376.739	402.103	199.409	375.031	214.952	475.733	359.659	127.283	238.740	361.062	0.00044931	0.00099841	0.00027017	1034.5	7.371e-06	7.9066e-06	719.98	342.26	8.9202e-06	1.4144e-05	259.98	103.95	136.69	58.986	1.4429e-05	49.286	0.010477	0.017378	0.0048835	1108.7	0.00018408	0.00020265	802.23	366.12	0.00018741	0.00020865	298.48	117.66	149.37	64.085	0.00019368	55.558	260.118	242.854	175.248	137.494	258.228	155.786	135.910	142.048	163.699	168.494	139.349	143.844	146.158	149.510	300.523	145.727	-8191	255	
1114.553	1	1	0	0	0.069452	0.17145	0.25483	0.1516	0.2986	0.10635	0.13441	0.41197	0.19584	0.26164	0.23802	0.096917	0.14901	0.08539	0.088156	0.2573	-0.38125	-1.3208	-1.1708	-0.79583	-1.5958	-0.91042	-1.0792	-1.6375	-0.78958	-1.5292	-1.3542	-0.95833	-1.7083	-1.2021	-0.93333	-1.7	274.154	220.009	312.142	131.456	135.843	155.368	390.545	411.076	149.580	399.298	132.390	416.727	142.298	257.497	431.434	413.438	0.00043377	0.00097121	6.394e-05	1036.7	6.4777e-06	1.2558e-05	722.61	343.05	1.2237e-05	1.2255e-06	257.59	104.03	137.92	59.63	7.7346e-06	49.687	0.011229	0.018139	0.0050655	1113.5	0.00018453	0.00019907	798.4	365.22	0.0001805	0.00020343	298.11	117.97	150.54	64.564	0.00019658	55.898	262.748	174.025	200.706	137.311	193.378	177.508	135.686	141.833	291.461	411.569	139.357	143.424	145.985	149.109	289.519	145.089	-8191	255	
1114.649	1	1	0	0	0.13598	0.10812	0.12737	0.1088	0.14134	0.3535	0.19196	0.20866	0.22073	0.24106	0.075752	0.28199	0.37016	0.19315	0.063782	0.14511	-0.50417	-1.2958	-1.1667	-0.79583	-1.4542	-1.0833	-0.96042	-1.7125	-0.89583	-1.3625	-1.5167	-0.91042	-1.6688	-1.2271	-0.83333	-1.6729	299.835	433.055	310.453	153.460	392.014	345.262	355.614	435.696	321.885	353.701	193.090	430.436	160.247	379.205	190.953	134.829	0.0005792	0.00069764	0.00020005	1042.4	7.9078e-06	6.7564e-06	722.76	342.5	8.6533e-06	1.0421e-05	260.96	103.84	137.17	59.54	1.4901e-05	49.66	0.011562	0.018697	0.005235	1120.5	0.00019188	0.00020669	802.53	366.56	0.00018581	0.00020561	298.06	117.81	149.73	64.477	0.00019142	55.916	241.187	468.612	223.728	137.417	224.020	271.765	136.129	141.873	323.721	291.476	139.595	143.583	145.692	149.584	229.054	145.560	-8191	255	
1114.745	1	1	0	0	0.23308	0.20597	0.049175	0.095038	0.20587	0.22704	0.067868	0.23558	0.25801	0.14907	0.26337	0.38153	0.32093	0.49787	0.095996	0.19845	-0.41458	-1.1646	-1.5333	-0.97917	-1.3354	-1.175	-0.96458	-1.9417	-0.91667	-1.1396	-1.6812	-0.92708	-1.5312	-1.3354	-0.97292	-1.7625	282.960	447.930	282.765	245.512	129.224	171.020	434.611	433.113	172.983	187.377	452.469	421.913	171.369	128.044	157.010	479.760	0.00059132	0.0013244	0.00018754	1035.9	9.0757e-06	1.148e-05	720.62	342.87	1.4995e-05	1.7411e-05	258.99	103.52	137.19	59.295	6.6587e-06	49.674	0.011127	0.017916	0.0050415	1112.5	0.00018416	0.00019885	799.72	365.9	0.00017887	0.00019812	296.16	116.86	148.8	64.02	0.00017867	55.296	254.926	227.238	227.872	137.269	243.096	224.816	136.205	141.865	236.125	281.528	139.836	143.893	146.339	149.696	249.262	146.305	-8191	255	
1114.839	1	1	0	0	0.12767	0.08994	0.30934	0.33258	0.10532	0.15696	0.21195	0.41974	0.16528	0.14543	0.060841	0.35776	0.14153	0.28888	0.20722	0.16144	-0.60833	-1.0292	-1.4375	-0.84375	-1.4583	-1.3896	-0.80833	-1.7333	-0.99167	-1.1771	-1.6583	-1	-1.3687	-1.5979	-0.89375	-1.6833	430.275	221.523	451.260	452.718	446.243	341.263	168.456	386.049	440.404	399.644	239.276	421.959	445.488	398.650	315.286	413.653	0.00050508	0.00073579	0.00027644	1034.9	1.0819e-05	1.0334e-05	720.2	340.78	9.6484e-06	1.0813e-05	256.28	102.99	135.62	59.198	1.3215e-05	48.872	0.010287	0.016493	0.0046371	1101.9	0.0001672	0.00017871	788.57	360.07	0.00015948	0.00017553	290.78	114.52	145.92	63.167	0.00016086	54.058	255.517	292.970	279.211	137.709	259.323	204.035	136.576	142.518	235.925	295.812	139.971	144.524	146.495	149.739	295.628	146.179	-8191	255	
1114.935	1	1	0	0	0.12676	0.21788	0.20834	0.21528	0.14823	0.16275	0.10139	0.30266	0.10367	0.10898	0.31935	0.41097	0.10827	0.2694	0.20458	0.28829	-0.78958	-0.9375	-1.4875	-0.81875	-1.2625	-1.4813	-0.73958	-1.9438	-1.1	-0.75	-1.8458	-0.87292	-1.5312	-1.6021	-0.76042	-1.5979	133.117	193.999	373.961	372.893	446.160	378.587	379.575	436.967	385.854	154.035	376.589	155.335	419.637	401.050	429.447	361.951	0.00057793	0.00068689	0.00011362	1031.3	3.2769e-06	9.0116e-06	714.28	338.03	3.2441e-06	4.9128e-06	254.92	101.98	135.03	58.589	1.401e-05	48.421	0.009152	0.014839	0.0041724	1089.3	0.00015231	0.0001654	778.44	356.72	0.00014748	0.00016377	285.81	112.75	144.11	62.156	0.00014293	52.806	249.881	130.963	131.295	137.889	359.148	169.390	136.170	142.422	402.044	127.517	139.567	143.861	146.400	149.626	276.811	146.246	-8191	255	
1115.056	1	1	0	0	0.14613	0.10454	0.11313	0.1799	0.019087	0.1887	0.034047	0.19811	0.30195	0.11148	0.089494	0.25542	0.10576	0.38166	0.15129	0.25641	-0.73333	-0.65833	-1.5667	-1.025	-0.94167	-1.475	-0.82708	-1.6208	-1.2708	-0.6625	-1.7792	-1.0396	-0.95625	-1.6271	-0.68333	-1.4979	438.515	390.110	187.770	343.178	273.578	430.448	237.255	379.355	437.210	345.078	179.945	470.400	448.884	443.266	256.793	382.419	0.00056157	0.00010412	1.6906e-05	1029.5	4.7205e-06	3.4376e-06	719.08	338.38	4.9403e-06	9.9444e-06	255.38	101.07	134.37	58.292	5.087e-06	48.278	0.0079298	0.012633	0.0035099	1075.5	0.0001236	0.000134	763.22	352.5	0.00011811	0.00013309	279.35	109.87	141.61	61.243	0.00012453	51.946	254.639	409.752	197.184	137.432	321.399	219.490	135.998	142.803	301.620	407.909	140.557	144.484	146.351	149.907	335.254	146.080	-8191	255	
1115.152	1	1	0	0	0.18453	0.15124	0.087641	0.5853	0.17014	0.13774	0.15173	0.18668	0.058386	0.04872	0.15662	0.041564	0.012575	0.19431	0.30635	0.35615	-0.78958	-0.67917	-1.4979	-1.1875	-0.80833	-1.5	-1.025	-1.375	-1.4625	-0.81875	-1.6042	-1.0979	-1.0667	-1.6292	-0.78125	-1.3937	188.108	330.578	256.002	470.595	330.824	413.687	368.879	373.776	183.735	383.668	323.308	428.503	448.177	204.978	274.826	480.081	0.00055321	0.00062982	0.00023875	1023.8	7.6446e-06	7.1992e-06	718.25	335.24	8.6227e-06	5.1144e-06	255.96	102.59	133.95	58.164	7.5316e-06	48.526	0.0070862	0.01152	0.0032208	1066.4	0.00011402	0.00012369	757.01	348.37	0.0001089	0.00012108	277.26	109.94	140.83	61.145	0.00011604	51.986	245.142	223.513	230.019	137.405	324.261	298.899	136.094	142.106	279.516	297.922	139.676	143.586	146.647	149.963	223.979	146.350	-8191	255	
1115.248	1	1	0	0	0.037056	0.26159	0.10459	0.13879	0.21585	0.28033	0.23406	0.10685	0.028082	0.26245	0.082468	0.04808	0.266	0.10808	0.21887	0.026218	-1.0083	-0.62292	-1.6313	-1.1979	-0.79375	-1.7	-1.0187	-1.4562	-1.55	-0.91667	-1.6187	-1.1896	-1.0771	-1.5833	-0.78958	-1.175	191.243	437.817	477.075	317.138	259.942	338.451	426.886	386.771	469.646	156.587	219.915	148.412	379.254	387.515	441.671	406.455	0.00058339	0.00050755	0.00036342	1027.5	6.6221e-06	1.2635e-05	717.66	337.92	1.0909e-05	5.7518e-06	255.06	102.15	134.39	58.195	2.5675e-06	48.488	0.0068314	0.011188	0.0031597	1068.6	0.00011683	0.00012883	760.33	350.86	0.00011682	0.00013216	279.74	110.81	142.14	61.412	0.00012461	52.423	253.701	138.087	234.986	137.270	438.401	227.865	135.963	142.294	329.522	258.847	139.323	143.937	146.252	149.887	362.948	145.725	-8191	255	
1115.344	1	1	0	0	0.16485	0.28471	0.095901	0.27056	0.19845	0.25983	0.059682	0.40203	0.21245	0.1343	0.38184	0.1469	0.16457	0.20862	0.10909	0.13975	-1.3083	-0.73542	-1.3542	-1.3604	-0.825	-1.7646	-1.0604	-1.1479	-1.7521	-0.80625	-1.3625	-1.2771	-0.975	-1.7625	-1.0688	-1.0375	186.633	219.630	351.517	443.692	400.552	233.492	431.473	413.172	149.990	260.822	129.817	471.422	421.736	212.977	184.739	418.766	0.0005328	0.00082599	0.00013461	1020.6	8.0574e-06	5.5924e-06	714.58	337.14	2.9118e-06	9.6338e-06	255.05	102.24	133.43	57.675	4.0367e-06	47.927	0.0073262	0.011874	0.0032903	1064.2	0.00012092	0.00013028	757.88	349.95	0.00011605	0.00013016	277.37	110.1	141.03	60.861	0.00012117	51.638	254.916	258.836	141.411	137.320	355.068	444.863	136.014	142.286	250.604	277.343	139.866	144.345	146.586	150.291	385.084	146.072	-8191	255	
1115.441	1	1	0	0	0.16671	0.14265	0.060541	0.041103	0.2047	0.32857	0.25909	0.25564	0.20365	0.17203	0.16559	0.41805	0.15862	0.12447	0.24768	0.34354	-1.2792	-0.65833	-1.1792	-1.5	-0.775	-1.3896	-1.1479	-1.1938	-1.8833	-0.75625	-1.3813	-1.4229	-0.85625	-1.7062	-1.0875	-1.0917	406.283	365.529	257.025	302.410	130.715	403.243	401.872	452.247	265.071	154.515	458.948	439.480	447.791	463.065	176.085	417.871	0.00055248	0.0010301	0.00021541	1021.6	1.0268e-05	1.0347e-05	707.74	334.73	5.2292e-06	1.0016e-05	252.17	101.09	133.89	58.05	7.1004e-06	47.86	0.0070749	0.011351	0.0031932	1059.2	0.00011713	0.00012804	748.8	347.9	0.00011355	0.00012532	274.49	108.66	140.59	60.677	0.00011384	51.175	252.674	217.798	159.148	137.823	289.604	184.029	136.105	142.596	261.291	238.380	140.277	144.535	147.415	150.708	247.535	146.038	-8191	255	
1115.537	1	1	0	0	0.066096	0.084171	0.14776	0.16287	0.084817	0.072367	0.10379	0.29823	0.15344	0.054085	0.20929	0.1322	0.031047	0.1394	0.22797	0.2906	-1.3375	-0.69792	-0.89792	-1.6792	-0.675	-1.4083	-1.3458	-0.96667	-1.5896	-1.1125	-1.2604	-1.5875	-0.83333	-1.6896	-1.2604	-0.87083	180.933	422.935	287.759	461.713	310.697	399.351	196.195	452.561	401.472	261.705	159.878	159.170	160.942	385.959	447.835	429.932	0.00055834	0.0014032	0.0004416	1015.4	1.1486e-06	1.5792e-05	705.96	335.14	3.2915e-06	7.7688e-06	253.08	101.96	133.58	58.149	4.3897e-06	47.865	0.0066567	0.010682	0.0029572	1054.7	0.00010974	0.00011857	747.16	347.21	0.0001077	0.00011844	274.55	108.83	140.49	60.871	0.00010963	51.32	248.281	224.583	237.131	137.518	467.883	262.818	136.338	143.113	317.276	278.804	139.981	144.199	147.241	150.687	271.204	146.758	-8191	255	
1115.656	1	1	0	0	0.074882	0.26281	0.17999	0.18879	0.31098	0.13117	0.17299	0.20292	0.14312	0.2178	0.36377	0.28252	0.22809	0.33168	0.16866	0.041708	-1.2729	-1.1938	-1.1167	-1.7938	-0.78125	-1.3	-1.3625	-0.93542	-1.5625	-1.0333	-1.0562	-1.7208	-0.93542	-1.45	-1.4271	-0.65208	140.342	275.807	126.957	459.434	145.941	435.938	414.273	483.629	211.776	245.861	450.927	459.395	455.063	401.122	471.226	225.008	0.00043156	0.00061778	0.00022581	1014.1	6.0295e-06	1.0317e-05	708.78	335.94	3.4854e-06	9.8435e-06	254.51	101.43	134.51	57.781	3.7963e-06	48.207	0.0066018	0.010577	0.0030106	1053.5	0.00011198	0.00012076	748.57	347.85	0.00011089	0.00012271	275.97	109.6	141.3	60.729	0.00011989	51.749	252.580	203.995	218.605	137.427	309.410	334.054	135.815	142.122	239.969	244.006	139.282	143.898	146.422	149.991	288.501	146.011	-8191	255	
