BOXY.EXE: ISS Imagent and Oximeter Data Acquisition Program Version 0.80
Ascii Record File

#ACQ INFORMATION
2  Detector Channels 
16  External MUX Channels 
1  Auxiliary Channels 
5000  Waveform (CCF) Frequency (Hz)
1  Waveforms Skipped 
30  Waveforms Averaged 
1  Cycles Averaged 
16  Acquisitions per Waveform 
10.0806  Updata Rate (Hz) 

#FILE INFORMATION
TRUE -- External MUX Channel results are PARSED.
FALSE -- AC DC and Phase are NOT grouped.
TRUE -- Companion Program Settings File CREATED.
FALSE -- AC data not excluded
FALSE -- DC data not excluded
FALSE -- Phase data not excluded
FALSE -- Auxillary Chn. data not excluded
Tab delimiters

#CALIBRATION STATE
TRUE -- Waveform Calibration Values APPLIED.


#AUX CALIBRATION VALUES
Val Type	aux-1	

Term	1.0000e+00	
Factor	0.0000e+00	


#WF CALIBRATION VALUES
A = Detector Channel
Val Type	A-AC1	A-AC2	A-AC3	A-AC4	A-AC5	A-AC6	A-AC7	A-AC8	A-AC9	A-AC10	A-AC11	A-AC12	A-AC13	A-AC14	A-AC15	A-AC16	A-DC1	A-DC2	A-DC3	A-DC4	A-DC5	A-DC6	A-DC7	A-DC8	A-DC9	A-DC10	A-DC11	A-DC12	A-DC13	A-DC14	A-DC15	A-DC16	A-Ph1	A-Ph2	A-Ph3	A-Ph4	A-Ph5	A-Ph6	A-Ph7	A-Ph8	A-Ph9	A-Ph10	A-Ph11	A-Ph12	A-Ph13	A-Ph14	A-Ph15	A-Ph16	

Term	0.00000e+00	0.00000e+00	0.00000e+00	0.00000e+00	0.00000e+00	0.00000e+00	0.00000e+00	0.00000e+00	0.00000e+00	0.00000e+00	0.00000e+00	0.00000e+00	0.00000e+00	0.00000e+00	0.00000e+00	0.00000e+00	0.00000e+00	0.00000e+00	0.00000e+00	0.00000e+00	0.00000e+00	0.00000e+00	0.00000e+00	0.00000e+00	0.00000e+00	0.00000e+00	0.00000e+00	0.00000e+00	0.00000e+00	0.00000e+00	0.00000e+00	0.00000e+00	0.00000e+00	0.00000e+00	0.00000e+00	0.00000e+00	0.00000e+00	0.00000e+00	0.00000e+00	0.00000e+00	0.00000e+00	0.00000e+00	0.00000e+00	0.00000e+00	0.00000e+00	0.00000e+00	0.00000e+00	0.00000e+00	
Factor	1.00000e+00	1.00000e+00	1.00000e+00	1.00000e+00	1.00000e+00	1.00000e+00	1.00000e+00	1.00000e+00	1.00000e+00	1.00000e+00	1.00000e+00	1.00000e+00	1.00000e+00	1.00000e+00	1.00000e+00	1.00000e+00	1.00000e+00	1.00000e+00	1.00000e+00	1.00000e+00	1.00000e+00	1.00000e+00	1.00000e+00	1.00000e+00	1.00000e+00	1.00000e+00	1.00000e+00	1.00000e+00	1.00000e+00	1.00000e+00	1.00000e+00	1.00000e+00	X	X	X	X	X	X	X	X	X	X	X	X	X	X	X	X	

B = Detector Channel
Val Type	B-AC1	B-AC2	B-AC3	B-AC4	B-AC5	B-AC6	B-AC7	B-AC8	B-AC9	B-AC10	B-AC11	B-AC12	B-AC13	B-AC14	B-AC15	B-AC16	B-DC1	B-DC2	B-DC3	B-DC4	B-DC5	B-DC6	B-DC7	B-DC8	B-DC9	B-DC10	B-DC11	B-DC12	B-DC13	B-DC14	B-DC15	B-DC16	B-Ph1	B-Ph2	B-Ph3	B-Ph4	B-Ph5	B-Ph6	B-Ph7	B-Ph8	B-Ph9	B-Ph10	B-Ph11	B-Ph12	B-Ph13	B-Ph14	B-Ph15	B-Ph16	

Term	0.00000e+00	0.00000e+00	0.00000e+00	0.00000e+00	0.00000e+00	0.00000e+00	0.00000e+00	0.00000e+00	0.00000e+00	0.00000e+00	0.00000e+00	0.00000e+00	0.00000e+00	0.00000e+00	0.00000e+00	0.00000e+00	0.00000e+00	0.00000e+00	0.00000e+00	0.00000e+00	0.00000e+00	0.00000e+00	0.00000e+00	0.00000e+00	0.00000e+00	0.00000e+00	0.00000e+00	0.00000e+00	0.00000e+00	0.00000e+00	0.00000e+00	0.00000e+00	-6.18844e+01	-1.31176e+02	-1.30945e+02	-1.82064e+02	-5.12520e+01	-6.31214e+01	-1.57560e+02	-1.62015e+02	-4.68082e+01	-6.38604e+01	-1.72371e+02	-1.70432e+02	-1.78256e+02	-1.76759e+02	-5.34657e+01	-1.49349e+02	
Factor	1.65308e-05	1.37929e-04	3.69494e-05	1.57704e-01	1.33523e-06	1.42652e-06	1.70755e-01	4.46573e-02	1.03347e-06	1.38636e-06	7.56219e-02	2.61641e-02	2.21170e-02	8.12295e-03	1.35262e-06	1.13021e-02	1.00626e-05	1.67098e-05	4.71134e-06	8.54066e-02	1.71346e-07	1.86818e-07	8.69103e-02	2.43396e-02	1.67811e-07	1.87038e-07	3.98308e-02	1.38576e-02	1.22449e-02	4.47032e-03	1.76786e-07	6.00929e-03	X	X	X	X	X	X	X	X	X	X	X	X	X	X	X	X	



#DISTANCE SETTINGS
A = Detector Channel
A-1	A-2	A-3	A-4	A-5	A-6	A-7	A-8	A-9	A-10	A-11	A-12	A-13	A-14	A-15	A-16	

2.5000e+00	3.0000e+00	2.5000e+00	3.0000e+00	2.0000e+00	3.0000e+00	1.5000e+00	3.0000e+00	3.0000e+00	3.0000e+00	3.0000e+00	3.0000e+00	3.0000e+00	3.0000e+00	1.5000e+00	3.0000e+00	

B = Detector Channel
B-1	B-2	B-3	B-4	B-5	B-6	B-7	B-8	B-9	B-10	B-11	B-12	B-13	B-14	B-15	B-16	

1.0000e+01	1.0000e+01	1.0000e+01	1.4400e+00	1.0000e+01	1.0000e+01	1.5100e+00	1.9400e+00	1.0000e+01	1.0000e+01	1.9900e+00	2.4900e+00	2.4100e+00	2.9000e+00	1.0000e+01	2.9800e+00	




#DATA BEGINS
time	group	step	mark	flag	A-AC1	A-AC2	A-AC3	A-AC4	A-AC5	A-AC6	A-AC7	A-AC8	A-AC9	A-AC10	A-AC11	A-AC12	A-AC13	A-AC14	A-AC15	A-AC16	A-DC1	A-DC2	A-DC3	A-DC4	A-DC5	A-DC6	A-DC7	A-DC8	A-DC9	A-DC10	A-DC11	A-DC12	A-DC13	A-DC14	A-DC15	A-DC16	A-Ph1	A-Ph2	A-Ph3	A-Ph4	A-Ph5	A-Ph6	A-Ph7	A-Ph8	A-Ph9	A-Ph10	A-Ph11	A-Ph12	A-Ph13	A-Ph14	A-Ph15	A-Ph16	B-AC1	B-AC2	B-AC3	B-AC4	B-AC5	B-AC6	B-AC7	B-AC8	B-AC9	B-AC10	B-AC11	B-AC12	B-AC13	B-AC14	B-AC15	B-AC16	B-DC1	B-DC2	B-DC3	B-DC4	B-DC5	B-DC6	B-DC7	B-DC8	B-DC9	B-DC10	B-DC11	B-DC12	B-DC13	B-DC14	B-DC15	B-DC16	B-Ph1	B-Ph2	B-Ph3	B-Ph4	B-Ph5	B-Ph6	B-Ph7	B-Ph8	B-Ph9	B-Ph10	B-Ph11	B-Ph12	B-Ph13	B-Ph14	B-Ph15	B-Ph16	aux-1	digaux	

788.388	1	1	0	256	0.16447	0.23351	0.18235	0.28824	0.37716	0.13574	0.090922	0.23629	0.09298	0.27307	0.31031	0.49242	0.053524	0.080018	0.19276	0.036143	-0.50625	-1.6021	-0.78542	-1.4521	-1.3062	-0.85	-1.7583	-1.0208	-0.85417	-1.5438	-0.83333	-1.0542	-1.2979	-0.75625	-1.4312	-1.0875	352.736	156.781	197.038	303.261	294.818	375.305	379.075	325.802	192.351	233.481	211.642	333.797	329.440	155.360	370.864	288.942	0.00018005	0.0001404	5.3687e-05	1048.4	2.7068e-06	3.4865e-06	1150.1	217.24	4.1454e-06	4.5474e-06	276.61	78.757	61.847	17.375	1.4666e-06	24.255	0.00032108	0.00037893	0.00010873	1033.7	4.2397e-06	4.4377e-06	1137	216.17	4.3121e-06	4.2976e-06	276.3	79.558	61.838	17.559	4.2889e-06	24.619	216.303	119.678	64.169	43.491	199.180	185.235	43.907	51.453	190.096	160.838	50.839	58.222	58.808	65.206	176.667	64.481	-8191	255	
788.484	1	1	0	0	0.04227	0.11578	0.15237	0.26809	0.17557	0.17127	0.27253	0.20573	0.091167	0.048886	0.44241	0.17759	0.21599	0.17246	0.12477	0.24501	-0.64792	-1.6063	-0.93542	-1.3896	-1.5187	-0.81667	-1.65	-1.2188	-0.79375	-1.6583	-1.0292	-1.2604	-1.5542	-0.86042	-1.5083	-1.4583	264.687	236.411	318.679	336.072	264.403	141.180	332.417	280.672	280.171	117.835	45.386	297.835	302.047	326.810	210.393	369.956	0.00016843	0.00025503	4.5363e-05	1047	3.1511e-06	2.8724e-06	1151.4	215.65	1.9528e-06	3.066e-06	274.08	78.486	61.248	17.193	3.6885e-06	24.339	0.0003249	0.00038739	0.00011492	1031.2	4.4311e-06	4.6354e-06	1136.1	216.06	4.4799e-06	4.3529e-06	275.48	79.458	61.886	17.555	4.6369e-06	24.641	214.992	115.858	143.728	43.799	258.638	203.992	43.985	51.567	215.368	168.656	50.941	58.524	58.725	65.184	212.242	64.567	-8191	255	
788.581	1	1	0	0	0.21635	0.041774	0.22427	0.3089	0.18575	0.22756	0.52287	0.16412	0.1049	0.11333	0.15129	0.15662	0.16	0.10208	0.27273	0.22543	-0.42708	-1.5812	-0.98333	-1.2104	-1.5063	-0.75	-1.5958	-1.4729	-0.82292	-1.8104	-1.175	-0.97292	-1.3833	-0.77917	-1.3687	-1.2938	76.572	246.222	137.225	326.135	35.445	207.484	369.322	348.435	333.153	203.473	295.655	318.672	127.599	69.244	248.168	308.624	0.00015709	0.00047845	8.5192e-05	1046.5	4.1416e-06	4.3206e-06	1151.3	216.16	2.8379e-06	3.8831e-06	277.37	78.401	61.367	17.293	3.4658e-06	24.147	0.00033005	0.00039745	0.0001193	1031.8	4.4725e-06	4.5358e-06	1136.2	216.32	4.5096e-06	4.3989e-06	276.36	79.461	61.758	17.587	4.2771e-06	24.501	215.763	127.026	103.915	43.879	208.477	202.860	43.824	51.642	216.874	164.721	50.954	58.421	58.859	65.410	224.178	64.683	-8191	255	
788.677	1	1	0	0	0.17776	0.17157	0.22746	0.20112	0.049536	0.060995	0.11335	0.249	0.26239	0.027182	0.059366	0.14442	0.13136	0.27543	0.10976	0.094116	-0.41042	-1.5458	-0.92292	-0.99167	-1.6292	-0.725	-1.5063	-1.575	-0.77083	-1.675	-1.2021	-0.9625	-1.7292	-0.89375	-1.1521	-1.4146	310.172	381.112	286.217	386.297	217.206	234.221	320.663	385.898	282.932	298.029	34.363	140.260	113.674	87.775	229.810	61.318	0.00016953	0.00013366	8.5707e-05	1047.1	3.1412e-06	3.7176e-06	1152.8	216.49	2.61e-06	1.9616e-06	275.2	78.145	61.464	17.346	3.6649e-06	24.283	0.00032989	0.0003846	0.00011093	1032	4.264e-06	4.4646e-06	1134.6	216.05	4.3351e-06	4.1729e-06	275.41	79.336	61.653	17.54	4.1316e-06	24.542	216.096	137.207	117.619	43.740	220.070	196.571	44.045	51.435	230.783	175.509	50.489	58.321	58.228	64.729	196.156	64.350	-8191	255	
788.773	1	1	0	0	0.25558	0.11928	0.064663	0.43253	0.19471	0.030767	0.37928	0.18049	0.078996	0.11273	0.23783	0.18946	0.20036	0.33287	0.1781	0.08753	-0.43333	-1.4479	-1.2958	-1.0292	-1.6771	-0.97917	-1.25	-1.7458	-0.71667	-1.4354	-1.3646	-1.05	-1.7313	-0.6625	-1.1042	-1.5104	335.716	156.801	113.843	347.888	257.180	295.331	355.187	363.167	370.843	34.103	51.570	42.506	275.758	216.268	358.203	377.993	0.00018612	0.00021445	6.1141e-05	1042.1	4.8875e-06	8.0693e-07	1140.8	216.03	3.3806e-06	3.7235e-06	275.36	78.27	61.48	17.184	3.9117e-06	24.247	0.00032825	0.00037103	0.00010559	1027.3	4.2015e-06	4.1789e-06	1128.9	215.39	4.1376e-06	4.0088e-06	275.04	79.097	61.669	17.487	3.9961e-06	24.552	219.861	134.391	103.286	43.544	209.541	47.882	44.173	51.677	235.254	195.318	50.828	58.357	58.731	65.596	207.497	64.456	-8191	255	
788.869	1	1	0	0	0.1126	0.21024	0.13183	0.18404	0.21335	0.10932	0.23737	0.16395	0.17565	0.24995	0.14997	0.18799	0.1171	0.095448	0.14174	0.042716	-0.42292	-1.4146	-1.325	-1.0042	-1.3729	-0.85833	-1.2333	-1.4771	-0.88958	-1.3312	-1.4083	-0.93958	-1.7687	-1.2	-0.95208	-1.8979	80.030	372.877	43.117	381.262	71.081	220.750	143.846	322.918	322.730	67.955	332.585	231.029	366.559	346.830	263.461	334.534	0.00017039	0.00027413	4.952e-05	1044.2	4.178e-06	2.4961e-06	1146.7	215.63	2.2803e-06	2.4524e-06	276.04	78.318	61.282	17.181	1.1758e-06	24.168	0.00031228	0.00036145	0.0001056	1026.7	4.2422e-06	4.1835e-06	1129.5	215.31	4.0666e-06	4.1238e-06	274.55	78.978	61.571	17.445	3.9162e-06	24.526	220.342	116.435	115.195	43.698	194.861	209.951	43.879	51.454	232.289	183.123	50.777	58.369	58.903	65.458	145.309	64.525	-8191	255	
788.990	1	1	0	0	0.019325	0.22709	0.15895	0.23177	0.20642	0.14763	0.3243	0.061113	0.082222	0.028277	0.076087	0.067952	0.25795	0.15755	0.11615	0.13609	-0.39167	-1.4146	-1.5667	-0.8625	-1.6896	-1.3438	-1.0896	-1.7896	-0.77292	-1.3854	-1.6958	-0.825	-1.5229	-1.2604	-0.91875	-1.8896	272.663	348.082	64.495	303.303	361.080	359.987	312.946	78.397	116.315	128.261	49.013	176.607	385.470	365.370	281.335	377.572	0.00018282	0.00034077	0.00012316	1039	2.7616e-06	3.1809e-06	1145.3	216.33	2.4547e-06	1.8735e-06	274.34	77.677	60.648	17.207	3.197e-06	24.081	0.00031875	0.00038158	0.00010224	1023.9	4.2201e-06	4.3906e-06	1128.1	215.39	4.1827e-06	4.3143e-06	274.5	78.674	61.324	17.404	4.2075e-06	24.504	216.593	140.774	144.389	43.669	211.022	200.082	43.926	51.246	213.511	187.392	51.093	58.581	58.572	65.477	184.198	65.219	-8191	255	
789.086	1	1	0	0	0.089288	0.28481	0.0078833	0.24646	0.074722	0.3021	0.37773	0.2042	0.20046	0.10401	0.17554	0.074337	0.21851	0.28789	0.084127	0.39455	-0.62917	-1.1896	-1.4583	-0.88958	-1.4771	-1.2333	-1.0688	-1.6542	-0.975	-1.2125	-1.6042	-0.98958	-1.4417	-1.4396	-0.79792	-1.9125	201.239	380.363	207.097	330.723	325.883	230.734	303.390	296.360	40.467	155.117	366.659	325.978	306.585	334.639	225.589	324.830	0.00019125	0.00023493	3.7456e-05	1038.9	3.3324e-06	3.4896e-06	1143.3	215.35	3.4419e-06	3.678e-06	274.35	78.544	60.587	17.186	3.3145e-06	24.167	0.00032724	0.00035421	0.00010394	1025.2	4.1634e-06	3.9601e-06	1128.1	215.72	4.1159e-06	4.0182e-06	274.7	78.831	61.259	17.45	4.1633e-06	24.469	222.213	125.525	134.936	43.591	206.382	214.966	43.846	51.445	215.452	207.597	50.774	58.341	58.738	65.270	187.258	64.880	-8191	255	
789.182	1	1	0	0	0.19697	0.037093	0.32854	0.1143	0.13629	0.11577	0.014029	0.2334	0.038389	0.25972	0.061595	0.035153	0.10978	0.28422	0.17936	0.12303	-0.70625	-1.0458	-1.5917	-1.0604	-1.35	-1.3667	-1.0312	-1.75	-0.96667	-1.0438	-1.8396	-1.0667	-1.4021	-1.6583	-0.93333	-1.6042	41.919	349.147	374.158	72.055	346.926	55.176	389.903	329.537	45.275	287.191	65.684	56.248	300.776	112.633	196.978	321.489	0.00016705	0.00033104	8.3215e-05	1037	3.6068e-06	2.2485e-06	1135.2	216.12	1.8019e-06	4.0656e-06	275.62	78.459	60.897	17.192	2.64e-06	24.205	0.00031293	0.00038057	0.00010173	1024.2	4.2437e-06	4.0707e-06	1123.8	215.18	4.118e-06	4.2762e-06	274.98	79.023	61.393	17.471	4.2093e-06	24.54	221.166	145.642	136.150	43.788	238.789	223.414	43.901	51.279	240.368	228.912	51.409	58.531	58.368	64.879	189.003	64.342	-8191	255	
789.254	1	1	0	0	0.28725	0.29995	0.14858	0.26939	0.082098	0.12474	0.28424	0.33417	0.15313	0.10314	0.11204	0.056458	0.14137	0.1842	0.20071	0.084111	-0.92708	-0.86042	-1.6625	-1.2104	-1.325	-1.6854	-1.0583	-1.7458	-1.2563	-0.84792	-1.7521	-0.91042	-1.475	-1.675	-0.71042	-1.5604	148.736	276.115	128.470	61.951	150.338	176.388	331.646	104.527	327.074	199.047	297.029	248.233	45.541	89.794	166.018	101.892	0.00018037	0.00030393	4.4019e-05	1041.7	2.6107e-06	2.5763e-06	1139.7	214.96	1.7654e-06	2.6502e-06	274.52	78.45	61.025	17.235	1.0491e-06	23.89	0.00031919	0.00038864	0.00010585	1025.7	4.224e-06	4.2015e-06	1126.9	214.9	3.9694e-06	4.206e-06	274.74	78.963	61.386	17.466	4.1887e-06	24.469	218.049	124.073	113.813	43.714	195.311	152.753	44.202	51.382	238.291	186.984	50.703	57.932	58.653	65.525	168.727	65.037	-8191	255	
789.374	1	1	0	0	0.22849	0.1534	0.031037	0.26789	0.201	0.2775	0.41572	0.21569	0.1348	0.17513	0.12311	0.091487	0.13359	0.22615	0.32233	0.093237	-0.83542	-0.97708	-1.7812	-1.2313	-1.2375	-1.7854	-0.91667	-1.5167	-1.2979	-0.69167	-1.8646	-0.95417	-1.0417	-1.6354	-0.80625	-1.625	272.598	388.676	196.003	337.836	365.636	233.174	36.108	339.384	318.548	203.737	63.442	181.520	306.181	188.944	309.771	245.776	0.00019418	0.00032507	6.1553e-05	1037.1	2.7357e-06	2.602e-06	1145.3	215.65	3.2125e-06	1.8432e-06	276.03	77.974	61.264	17.134	2.0408e-06	23.855	0.00030171	0.00038412	0.000101	1023.4	4.1316e-06	3.9348e-06	1127.6	215.38	3.9034e-06	4.0918e-06	275.22	78.669	61.394	17.445	3.928e-06	24.387	218.533	133.245	135.182	43.577	231.344	220.037	43.998	51.588	172.507	185.846	51.184	58.032	58.419	65.575	199.942	64.639	-8191	255	
789.469	1	1	0	0	0.13212	0.27943	0.16452	0.12483	0.045722	0.20882	0.21943	0.06559	0.021356	0.08352	0.2144	0.23314	0.098255	0.12424	0.18375	0.17832	-1.0875	-0.78958	-1.45	-1.25	-1.0604	-1.6583	-1.0104	-1.3479	-1.3854	-0.75208	-1.4604	-1.3479	-0.81875	-1.5521	-0.85833	-1.325	387.630	350.814	135.649	42.201	363.505	141.290	318.511	232.750	390.096	147.359	78.533	196.383	346.207	377.795	257.322	380.283	0.00017936	0.00036683	8.0477e-05	1034.2	4.2338e-06	5.1207e-06	1137.8	214.41	2.0988e-06	1.7754e-06	273.96	77.683	60.319	17.028	2.4014e-06	23.96	0.00029632	0.00036539	9.9164e-05	1021.4	4.0281e-06	3.6889e-06	1122.5	214.2	3.4873e-06	3.9874e-06	272.92	78.543	60.997	17.346	3.6337e-06	24.335	224.268	130.567	128.555	43.756	207.108	194.825	43.989	51.689	214.850	179.785	50.982	58.071	58.700	65.227	197.657	64.811	-8191	255	
789.566	1	1	0	0	0.35825	0.2291	0.15213	0.19996	0.013825	0.023707	0.40625	0.096252	0.070324	0.16632	0.12557	0.20465	0.26815	0.11552	0.24886	0.069109	-1.1208	-0.72292	-1.3458	-1.3438	-0.87917	-1.6583	-1.1167	-1.4104	-1.6167	-0.85208	-1.6187	-1.4292	-1.0104	-1.6292	-1.1896	-1.2729	294.782	340.781	296.757	384.055	99.733	63.778	324.640	62.355	349.840	54.407	307.892	312.245	303.295	209.168	196.250	338.705	0.00018961	0.00030997	6.0872e-05	1031.9	2.6875e-06	3.1388e-06	1131.2	214.56	2.9241e-06	1.8686e-06	274.6	77.763	60.69	17.198	4.554e-06	24.022	0.00028496	0.00033928	9.5159e-05	1018.9	3.7425e-06	3.4168e-06	1118.8	213.85	3.6604e-06	3.6387e-06	273.34	78.542	60.943	17.418	3.6248e-06	24.354	217.583	96.154	117.367	43.655	214.290	196.304	44.019	51.483	191.374	184.087	50.928	58.239	58.859	65.126	212.309	64.690	-8191	255	
789.685	1	1	0	0	0.05441	0.060336	0.073332	0.11011	0.1323	0.31558	0.3346	0.58827	0.15612	0.097169	0.26434	0.050554	0.25195	0.13682	0.035967	0.099497	-1.2479	-0.8125	-1.4875	-1.4583	-0.85833	-1.7458	-1.1792	-1.1313	-1.7604	-1.025	-1.6771	-1.5646	-0.78542	-1.7604	-0.9875	-1.2354	100.356	107.343	95.095	309.625	332.946	276.687	382.693	320.599	44.238	203.409	62.491	286.138	347.561	40.004	124.986	201.937	0.00016519	0.0001953	0.0001224	1030.1	3.7987e-06	1.6927e-06	1129.1	214.77	3.4018e-06	3.3837e-06	273.86	77.251	60.866	17.125	3.9986e-06	23.764	0.00029205	0.00032922	9.9066e-05	1016.7	3.8264e-06	3.5943e-06	1118.4	213.85	3.7866e-06	3.7193e-06	273.57	78.12	61.032	17.363	3.8399e-06	24.344	219.699	74.790	144.580	43.872	193.331	99.978	43.974	51.594	226.464	181.736	50.907	58.355	58.768	65.262	201.548	64.453	-8191	255	
789.782	1	1	0	0	0.15067	0.12582	0.27284	0.16053	0.19619	0.1711	0.10714	0.24353	0.18985	0.18496	0.12781	0.14147	0.24889	0.14039	0.20413	0.23356	-1.4167	-0.84167	-1.3125	-1.7313	-0.93542	-1.7521	-1.3125	-1.0896	-1.7042	-0.83125	-1.5125	-1.6604	-0.92292	-1.5896	-1.4021	-1.0917	59.354	85.589	187.204	387.231	58.859	331.047	365.361	228.347	228.655	206.435	338.553	260.176	129.664	78.026	185.614	60.994	0.00019741	0.0004366	8.9709e-05	1035.4	8.6014e-07	3.8985e-06	1128.2	215.08	2.2497e-06	1.6781e-06	273.36	77.614	60.492	16.908	3.3404e-06	23.993	0.00027951	0.00034387	9.4109e-05	1017.2	3.8867e-06	3.6982e-06	1117.7	214.15	3.5167e-06	3.8074e-06	273.04	78.256	60.82	17.316	3.4492e-06	24.347	219.307	113.139	120.768	43.843	179.246	175.952	44.043	51.601	191.716	141.492	50.984	58.818	58.502	65.752	233.780	64.608	-8191	255	
789.853	1	1	0	0	0.2574	0.19809	0.16055	0.3063	0.29295	0.12204	0.23753	0.25543	0.2777	0.23263	0.31255	0.25666	0.19352	0.2229	0.070013	0.086159	-1.4771	-0.94583	-1.1729	-1.6604	-0.95625	-1.5792	-1.4333	-0.89375	-1.6833	-0.86458	-1.0667	-1.7292	-1.0479	-1.4521	-1.3271	-0.94792	231.056	164.354	250.923	341.583	74.271	50.090	327.107	369.917	51.153	321.020	318.343	318.267	349.902	86.409	381.229	360.279	0.00018318	0.00020833	3.7905e-05	1025.6	2.4464e-06	2.6388e-06	1131.1	212.8	2.4997e-06	3.0509e-06	273.31	77.433	60.321	17.057	3.4344e-06	23.776	0.0002866	0.00033524	8.7867e-05	1011.6	3.8264e-06	3.3308e-06	1114.2	213	3.3608e-06	3.5564e-06	272.78	78.337	60.582	17.305	3.2941e-06	24.24	214.888	118.063	113.584	43.802	185.721	180.180	44.003	51.262	217.863	151.395	51.137	58.423	58.630	65.450	206.652	64.840	-8191	255	
789.974	1	1	0	0	0.081382	0.17188	0.24294	0.11653	0.11416	0.31048	0.23675	0.18262	0.23324	0.064219	0.18797	0.22104	0.17376	0.15816	0.050856	0.11208	-1.2021	-0.91667	-1.0292	-1.8521	-0.97917	-1.425	-1.6583	-0.90208	-1.6646	-1.1896	-1.2188	-1.7729	-1.0167	-1.4333	-1.5396	-1.025	40.364	247.319	87.525	314.250	293.017	250.253	361.808	318.249	312.726	154.668	318.552	210.686	57.786	342.487	197.805	344.470	0.00019567	0.00032068	4.0999e-05	1026.6	3.7792e-06	2.1083e-06	1128.4	213.6	3.1999e-06	2.7815e-06	274.58	77.079	60.541	17.014	3.2382e-06	23.975	0.00027569	0.00030144	8.9427e-05	1008.5	3.4655e-06	3.1086e-06	1112.6	213.24	3.2601e-06	3.3488e-06	272.34	78.051	60.731	17.272	3.2646e-06	24.235	214.027	148.127	157.719	43.886	206.603	200.981	44.289	51.700	201.888	160.350	51.121	58.662	58.748	65.531	211.921	64.999	-8191	255	
790.070	1	1	0	0	0.19229	0.21407	0.10295	0.1501	0.25391	0.18705	0.35603	0.23784	0.17408	0.15206	0.068225	0.095945	0.34252	0.24708	0.1181	0.068176	-1.2229	-1.2625	-0.92708	-1.7812	-0.83333	-1.35	-1.8	-0.83125	-1.5729	-1.3771	-1.0604	-1.7479	-0.98333	-1.225	-1.7375	-0.8625	65.043	65.218	362.838	133.528	331.193	117.303	276.510	66.838	352.647	156.626	176.429	36.749	230.130	376.125	102.787	302.745	0.00019128	0.00036263	3.6679e-05	1022.4	3.465e-06	1.8064e-06	1123.5	212.96	2.7976e-06	1.6882e-06	272.15	77.839	60.778	17.047	1.8383e-06	23.873	0.00027507	0.00028247	8.4097e-05	1008.2	3.5469e-06	3.0552e-06	1111	212.34	3.1877e-06	3.3589e-06	271.55	78.138	60.705	17.276	3.2223e-06	24.253	215.669	132.739	128.957	43.847	223.297	191.644	43.960	51.448	225.454	170.043	51.000	58.490	58.640	65.168	208.068	64.427	-8191	255	
