BOXY.EXE: ISS Imagent and Oximeter Data Acquisition Program Version 0.80
Ascii Record File

#ACQ INFORMATION
2  Detector Channels 
16  External MUX Channels 
1  Auxiliary Channels 
5000  Waveform (CCF) Frequency (Hz)
1  Waveforms Skipped 
30  Waveforms Averaged 
1  Cycles Averaged 
16  Acquisitions per Waveform 
10.0806  Updata Rate (Hz) 

#FILE INFORMATION
TRUE -- External MUX Channel results are PARSED.
FALSE -- AC DC and Phase are NOT grouped.
TRUE -- Companion Program Settings File CREATED.
FALSE -- AC data not excluded
FALSE -- DC data not excluded
FALSE -- Phase data not excluded
FALSE -- Auxillary Chn. data not excluded
Tab delimiters

#CALIBRATION STATE
TRUE -- Waveform Calibration Values APPLIED.


#AUX CALIBRATION VALUES
Val Type	aux-1	

Term	1.0000e+00	
Factor	0.0000e+00	


#WF CALIBRATION VALUES
A = Detector Channel
Val Type	A-AC1	A-AC2	A-AC3	A-AC4	A-AC5	A-AC6	A-AC7	A-AC8	A-AC9	A-AC10	A-AC11	A-AC12	A-AC13	A-AC14	A-AC15	A-AC16	A-DC1	A-DC2	A-DC3	A-DC4	A-DC5	A-DC6	A-DC7	A-DC8	A-DC9	A-DC10	A-DC11	A-DC12	A-DC13	A-DC14	A-DC15	A-DC16	A-Ph1	A-Ph2	A-Ph3	A-Ph4	A-Ph5	A-Ph6	A-Ph7	A-Ph8	A-Ph9	A-Ph10	A-Ph11	A-Ph12	A-Ph13	A-Ph14	A-Ph15	A-Ph16	

Term	0.00000e+00	0.00000e+00	0.00000e+00	0.00000e+00	0.00000e+00	0.00000e+00	0.00000e+00	0.00000e+00	0.00000e+00	0.00000e+00	0.00000e+00	0.00000e+00	0.00000e+00	0.00000e+00	0.00000e+00	0.00000e+00	0.00000e+00	0.00000e+00	0.00000e+00	0.00000e+00	0.00000e+00	0.00000e+00	0.00000e+00	0.00000e+00	0.00000e+00	0.00000e+00	0.00000e+00	0.00000e+00	0.00000e+00	0.00000e+00	0.00000e+00	0.00000e+00	0.00000e+00	0.00000e+00	0.00000e+00	0.00000e+00	0.00000e+00	0.00000e+00	0.00000e+00	0.00000e+00	0.00000e+00	0.00000e+00	0.00000e+00	0.00000e+00	0.00000e+00	0.00000e+00	0.00000e+00	0.00000e+00	
Factor	1.00000e+00	1.00000e+00	1.00000e+00	1.00000e+00	1.00000e+00	1.00000e+00	1.00000e+00	1.00000e+00	1.00000e+00	1.00000e+00	1.00000e+00	1.00000e+00	1.00000e+00	1.00000e+00	1.00000e+00	1.00000e+00	1.00000e+00	1.00000e+00	1.00000e+00	1.00000e+00	1.00000e+00	1.00000e+00	1.00000e+00	1.00000e+00	1.00000e+00	1.00000e+00	1.00000e+00	1.00000e+00	1.00000e+00	1.00000e+00	1.00000e+00	1.00000e+00	X	X	X	X	X	X	X	X	X	X	X	X	X	X	X	X	

B = Detector Channel
Val Type	B-AC1	B-AC2	B-AC3	B-AC4	B-AC5	B-AC6	B-AC7	B-AC8	B-AC9	B-AC10	B-AC11	B-AC12	B-AC13	B-AC14	B-AC15	B-AC16	B-DC1	B-DC2	B-DC3	B-DC4	B-DC5	B-DC6	B-DC7	B-DC8	B-DC9	B-DC10	B-DC11	B-DC12	B-DC13	B-DC14	B-DC15	B-DC16	B-Ph1	B-Ph2	B-Ph3	B-Ph4	B-Ph5	B-Ph6	B-Ph7	B-Ph8	B-Ph9	B-Ph10	B-Ph11	B-Ph12	B-Ph13	B-Ph14	B-Ph15	B-Ph16	

Term	0.00000e+00	0.00000e+00	0.00000e+00	0.00000e+00	0.00000e+00	0.00000e+00	0.00000e+00	0.00000e+00	0.00000e+00	0.00000e+00	0.00000e+00	0.00000e+00	0.00000e+00	0.00000e+00	0.00000e+00	0.00000e+00	0.00000e+00	0.00000e+00	0.00000e+00	0.00000e+00	0.00000e+00	0.00000e+00	0.00000e+00	0.00000e+00	0.00000e+00	0.00000e+00	0.00000e+00	0.00000e+00	0.00000e+00	0.00000e+00	0.00000e+00	0.00000e+00	-1.45867e+02	-1.23783e+02	-1.30834e+02	-1.84083e+02	-7.58095e+01	-7.30478e+01	-1.55713e+02	-1.62015e+02	-9.03867e+01	-7.43714e+01	-1.85725e+02	-1.70521e+02	-1.87050e+02	-1.76710e+02	-7.51131e+01	-1.49456e+02	
Factor	2.10453e-05	1.52073e-04	4.08231e-05	2.21187e-01	1.33617e-06	1.51758e-06	1.55432e-01	4.94518e-02	1.27884e-06	1.69986e-06	1.93204e-01	2.92118e-02	6.10080e-02	8.76291e-03	1.36065e-06	1.24210e-02	3.01981e-06	3.36426e-06	9.36133e-07	1.14310e-01	3.63966e-08	3.69298e-08	7.62793e-02	2.57675e-02	3.62490e-08	3.68367e-08	9.47209e-02	1.47461e-02	3.12550e-02	4.57521e-03	3.64405e-08	6.30051e-03	X	X	X	X	X	X	X	X	X	X	X	X	X	X	X	X	



#DISTANCE SETTINGS
A = Detector Channel
A-1	A-2	A-3	A-4	A-5	A-6	A-7	A-8	A-9	A-10	A-11	A-12	A-13	A-14	A-15	A-16	

2.5000e+00	3.0000e+00	2.5000e+00	3.0000e+00	2.0000e+00	3.0000e+00	1.5000e+00	3.0000e+00	3.0000e+00	3.0000e+00	3.0000e+00	3.0000e+00	3.0000e+00	3.0000e+00	1.5000e+00	3.0000e+00	

B = Detector Channel
B-1	B-2	B-3	B-4	B-5	B-6	B-7	B-8	B-9	B-10	B-11	B-12	B-13	B-14	B-15	B-16	

1.0000e+01	1.0000e+01	1.0000e+01	1.4400e+00	1.0000e+01	1.0000e+01	1.5100e+00	1.9400e+00	1.0000e+01	1.0000e+01	1.9900e+00	2.4900e+00	2.4100e+00	2.9000e+00	1.0000e+01	2.9800e+00	




#DATA BEGINS
time	group	step	mark	flag	A-AC1	A-AC2	A-AC3	A-AC4	A-AC5	A-AC6	A-AC7	A-AC8	A-AC9	A-AC10	A-AC11	A-AC12	A-AC13	A-AC14	A-AC15	A-AC16	A-DC1	A-DC2	A-DC3	A-DC4	A-DC5	A-DC6	A-DC7	A-DC8	A-DC9	A-DC10	A-DC11	A-DC12	A-DC13	A-DC14	A-DC15	A-DC16	A-Ph1	A-Ph2	A-Ph3	A-Ph4	A-Ph5	A-Ph6	A-Ph7	A-Ph8	A-Ph9	A-Ph10	A-Ph11	A-Ph12	A-Ph13	A-Ph14	A-Ph15	A-Ph16	B-AC1	B-AC2	B-AC3	B-AC4	B-AC5	B-AC6	B-AC7	B-AC8	B-AC9	B-AC10	B-AC11	B-AC12	B-AC13	B-AC14	B-AC15	B-AC16	B-DC1	B-DC2	B-DC3	B-DC4	B-DC5	B-DC6	B-DC7	B-DC8	B-DC9	B-DC10	B-DC11	B-DC12	B-DC13	B-DC14	B-DC15	B-DC16	B-Ph1	B-Ph2	B-Ph3	B-Ph4	B-Ph5	B-Ph6	B-Ph7	B-Ph8	B-Ph9	B-Ph10	B-Ph11	B-Ph12	B-Ph13	B-Ph14	B-Ph15	B-Ph16	aux-1	digaux	

11601.554	1	1	0	256	0.035487	0.056747	0.12372	0.1846	0.31525	0.19751	0.17197	0.21257	0.30742	0.11117	0.35259	0.25677	0.26014	0.070447	0.18563	0.16604	-1.8771	-2.3583	-1.8083	-2.3875	-2.2313	-1.9937	-2.6063	-2.1958	-2.15	-2.5604	-1.9375	-2.2687	-2.2583	-2.0667	-2.3417	-2.2687	174.375	36.566	174.941	340.964	320.994	85.843	377.599	317.196	193.768	276.596	301.950	358.631	221.935	197.354	273.655	296.835	0.00039781	0.00053349	0.00012482	1401.7	3.0015e-06	4.2722e-06	1401.5	370.87	2.2795e-06	3.4915e-06	425.08	142.12	123.04	41.459	4.1995e-06	51.31	0.00040911	0.0004019	0.00011131	1410.4	4.4674e-06	4.45e-06	1414	375.62	4.4572e-06	4.6014e-06	426.53	143.84	124.23	42.357	4.4057e-06	52.315	132.297	107.048	88.527	40.539	193.170	181.035	40.438	45.296	163.005	207.076	44.777	49.120	49.657	53.960	202.256	53.643	-8191	255	
11601.673	1	1	0	0	0.25917	0.13343	0.17282	0.15135	0.037608	0.23074	0.10302	0.1948	0.19402	0.23797	0.2723	0.098495	0.17815	0.42462	0.3039	0.11583	-1.4813	-2.4917	-1.7938	-2.2979	-2.4	-1.8875	-2.3271	-2.2062	-1.8521	-2.3625	-2.0583	-2.3375	-2.4188	-2.1063	-2.2708	-2.2917	41.435	381.361	52.238	314.636	139.480	31.662	350.715	302.659	374.875	182.565	29.011	335.451	196.158	144.311	75.201	229.065	0.00043667	0.00067936	0.00010327	1403.6	2.8171e-06	3.1714e-06	1403.6	370.18	5.8755e-06	3.8341e-06	422.75	141.61	122.78	41.431	5.7116e-06	51.461	0.00041687	0.00040056	0.00011123	1412.4	4.4132e-06	4.3852e-06	1415.6	375.58	4.3286e-06	4.306e-06	425.21	143.71	124.17	42.282	4.2936e-06	52.295	129.257	171.285	97.352	40.919	155.420	163.217	40.920	45.439	164.918	160.190	44.969	49.499	49.930	54.673	210.253	53.919	-8191	255	
11601.746	1	1	0	0	0.0087084	0.18521	0.060449	0.21473	0.16778	0.23687	0.35993	0.15052	0.28476	0.20827	0.12499	0.15366	0.20437	0.16777	0.1319	0.12472	-1.4375	-2.2854	-1.7958	-2.2354	-2.2104	-1.6812	-2.525	-2.1625	-1.9333	-2.3625	-1.9458	-2.2542	-2.3542	-1.875	-2.2125	-2.4542	98.960	60.606	219.366	303.277	237.536	268.257	315.480	290.770	248.490	198.565	113.601	272.068	330.510	117.436	312.294	252.040	0.00039771	0.00068361	4.5669e-05	1401.5	4.4555e-06	6.6363e-06	1398	369.95	4.4e-06	2.4851e-06	425.6	141.48	122.14	41.48	3.5421e-06	51.205	0.00039382	0.00038694	0.00011009	1411.2	4.3116e-06	4.2636e-06	1412.2	375.13	4.3752e-06	4.2586e-06	426.31	143.53	124.11	42.313	4.1631e-06	52.311	138.273	123.589	75.411	40.397	221.900	189.661	40.289	44.798	161.426	152.599	44.499	48.815	49.638	54.087	179.187	52.971	-8191	255	
11601.842	1	1	0	0	0.30877	0.046655	0.077635	0.23967	0.16666	0.014251	0.28684	0.18906	0.095163	0.32837	0.33842	0.11747	0.29614	0.383	0.03797	0.31377	-1.3563	-2.45	-1.8438	-2.1854	-2.175	-1.9	-2.5187	-2.0604	-1.9062	-2.4042	-2.2958	-2.1562	-2.4271	-1.9354	-2.2958	-2.3021	235.026	269.194	125.472	319.384	284.608	80.457	318.348	93.526	300.723	356.473	85.074	330.088	383.971	333.438	312.745	351.246	0.0004119	0.000507	0.00015064	1404.5	4.3504e-06	1.9872e-06	1403.8	371.44	5.1324e-06	6.1218e-06	423.3	141.64	122.35	41.537	3.4272e-06	51.251	0.00039928	0.00038329	0.00010835	1415	4.2646e-06	4.2759e-06	1414.3	375.61	4.3014e-06	4.2097e-06	425.13	143.49	123.69	42.352	4.2994e-06	52.316	125.447	123.023	115.975	40.370	196.256	209.605	40.087	44.925	164.515	113.797	44.425	48.995	49.746	53.951	173.531	53.499	-8191	255	
11601.961	1	1	0	0	0.18837	0.15973	0.085224	0.19413	0.10744	0.21421	0.14404	0.37226	0.08171	0.18698	0.086042	0.25474	0.30064	0.056817	0.20593	0.037279	-1.45	-2.4125	-2.05	-2.0083	-2.55	-2.1562	-2.4938	-2.5083	-1.7625	-2.2938	-1.9312	-2.1292	-2.5208	-2.0229	-1.9708	-2.5667	199.072	75.671	215.916	321.221	279.539	323.174	306.645	327.354	312.962	364.817	376.139	70.700	36.405	105.995	119.677	329.429	0.00044204	0.00049983	0.00017367	1401.7	4.4562e-06	3.5365e-06	1403.6	370.41	4.4407e-06	1.5754e-06	425.59	141.58	122.76	41.366	4.8164e-06	51.414	0.00041073	0.00038618	0.00010832	1411.8	4.3143e-06	4.2619e-06	1416.1	375.31	4.4026e-06	4.2973e-06	426.27	143.63	124.18	42.312	4.3204e-06	52.378	128.272	120.271	151.928	40.192	194.508	171.533	40.506	45.222	137.559	120.986	44.372	49.221	49.203	54.103	191.079	53.310	-8191	255	
11602.057	1	1	0	0	0.024655	0.087002	0.34037	0.21307	0.035878	0.11869	0.57667	0.30857	0.10629	0.053466	0.13041	0.23248	0.2229	0.14235	0.13789	0.091019	-1.3354	-2.4313	-2.0938	-1.9125	-2.3042	-1.8687	-2.3354	-2.4854	-1.9708	-2.3021	-2.2854	-2.1458	-2.4125	-2.0687	-2.1562	-2.3625	177.874	228.580	50.752	32.656	351.810	172.350	304.630	335.720	190.049	181.951	321.668	372.848	195.365	286.151	74.208	200.369	0.00041687	0.00057689	7.9404e-05	1410.7	6.4994e-06	4.3807e-06	1409.3	372.6	2.6184e-06	5.4816e-06	424.64	141.79	122.73	41.623	8.4655e-07	51.497	0.00040819	0.00039502	0.00011107	1419.3	4.331e-06	4.33e-06	1421.5	376.98	4.4061e-06	4.3436e-06	427.17	144.01	124.18	42.482	4.3653e-06	52.514	126.655	148.806	150.906	40.208	155.340	260.646	40.136	44.885	219.659	174.732	44.428	48.878	49.233	54.004	179.353	53.205	-8191	255	
11602.153	1	1	0	0	0.25313	0.081113	0.4038	0.16823	0.052104	0.1186	0.16612	0.23632	0.28589	0.070661	0.19259	0.18062	0.27339	0.25474	0.42792	0.082168	-1.525	-2.175	-2.2625	-2.0312	-2.2625	-2.1792	-2.2625	-2.7188	-1.8667	-2.1917	-2.2479	-2.1312	-2.4021	-2.0625	-2.0771	-2.6104	72.700	370.285	73.302	341.407	228.350	119.900	299.201	347.901	29.806	170.797	51.495	339.200	304.547	371.675	262.150	370.113	0.00046016	0.00058285	8.6918e-05	1407.1	4.6638e-06	4.188e-06	1408.6	372.83	1.579e-06	6.5469e-06	423.85	141.57	123.11	41.712	1.7563e-06	51.442	0.00041051	0.00040215	0.00011314	1418.2	4.5426e-06	4.4115e-06	1421.6	377.43	4.4564e-06	4.3974e-06	427.12	144.05	124.5	42.5	4.394e-06	52.515	129.507	147.711	86.289	40.510	172.071	173.598	40.272	45.090	167.845	163.085	44.788	49.055	49.671	54.172	240.745	53.330	-8191	255	
11602.250	1	1	0	0	0.15222	0.23557	0.22308	0.15967	0.11046	0.19255	0.28785	0.45218	0.14315	0.13063	0.12109	0.046767	0.27121	0.20071	0.3392	0.20828	-1.6063	-2.15	-2.3396	-1.975	-2.2396	-2.2771	-2.2333	-2.6479	-1.9375	-2.2396	-2.3271	-1.8312	-2.15	-2.3271	-1.8146	-2.3729	90.417	292.301	295.853	95.498	301.699	386.683	285.343	294.384	137.524	196.575	291.629	353.498	180.324	324.840	144.598	280.109	0.00041701	0.00039196	0.00012309	1406.6	3.1873e-06	8.4239e-06	1408	372.13	2.6976e-06	6.8939e-06	424.14	141.27	122.92	41.615	1.8802e-06	51.451	0.00041152	0.00039919	0.00011418	1418.4	4.3513e-06	4.4373e-06	1421.8	376.68	4.4579e-06	4.3031e-06	427.03	143.74	124.33	42.472	4.4066e-06	52.462	133.594	145.904	110.561	40.666	135.652	154.338	40.609	45.087	175.252	197.802	44.587	49.124	49.825	54.054	173.294	53.305	-8191	255	
11602.346	1	1	0	0	0.14392	0.25993	0.075968	0.11848	0.25554	0.10149	0.18405	0.2206	0.14465	0.061528	0.19318	0.074621	0.085159	0.22448	0.19576	0.33058	-1.5438	-2.1854	-2.2292	-2.0625	-2.3146	-2.2104	-2.0667	-2.5354	-2.0375	-1.8896	-2.4958	-1.9729	-2.2708	-2.3979	-1.7792	-2.4833	224.887	76.000	363.596	228.940	386.575	74.913	363.875	358.260	355.286	316.049	58.713	53.861	136.254	119.385	212.999	337.825	0.00045232	0.00035786	0.00010092	1410.5	4.6443e-06	7.54e-06	1408.9	371.51	4.5377e-06	9.7896e-06	423.44	141.86	123.71	41.774	1.7761e-06	51.417	0.00041273	0.00039911	0.0001104	1418.5	4.367e-06	4.3846e-06	1421.9	377.02	4.4534e-06	4.3909e-06	427.14	143.94	124.56	42.513	4.3601e-06	52.483	130.013	142.843	78.669	40.543	176.790	182.540	40.578	45.463	191.598	215.876	45.016	49.064	49.586	54.051	385.171	53.660	-8191	255	
11602.442	1	1	0	0	0.13369	0.21356	0.2281	0.18953	0.15734	0.071901	0.35942	0.25566	0.16458	0.1689	0.26682	0.059298	0.15598	0.366	0.055109	0.15596	-1.6542	-1.9229	-2.2333	-1.975	-2.1896	-2.2646	-1.9208	-2.4896	-2.0563	-1.9583	-2.3896	-2.0729	-2.1417	-2.1625	-1.6667	-2.3229	349.042	355.989	166.002	54.855	82.624	255.955	341.034	248.784	125.891	96.953	49.836	333.661	90.622	37.581	121.024	124.526	0.00040338	0.00072267	0.00018256	1409.3	4.1412e-06	5.9903e-08	1409.2	371.35	7.1642e-06	4.6754e-06	425.67	141.46	122.4	41.551	4.9088e-06	51.267	0.00041712	0.00040034	0.00011046	1420.1	4.3439e-06	4.4196e-06	1422.7	376.92	4.4128e-06	4.318e-06	427.82	144.08	124.27	42.476	4.3634e-06	52.374	126.880	124.144	163.151	40.388	170.951	110.263	40.599	45.151	187.473	196.517	44.685	48.955	49.638	54.298	178.344	53.422	-8191	255	
11602.562	1	1	0	0	0.1259	0.17709	0.11009	0.22549	0.12106	0.050416	0.21018	0.048099	0.1573	0.21488	0.17073	0.080851	0.069022	0.1393	0.20815	0.2076	-1.8646	-1.9125	-2.2833	-2.0375	-2.0604	-2.1188	-1.9438	-2.4938	-2.2021	-1.9521	-2.4667	-2.1792	-2.1333	-2.3688	-1.8188	-2.3292	291.335	116.588	301.411	306.803	76.093	87.267	328.320	130.768	99.728	315.850	36.408	203.192	354.278	54.280	146.748	382.167	0.00042971	0.00019802	7.1665e-05	1407.1	5.7001e-06	2.8012e-06	1403.9	370.99	4.0232e-06	4.7942e-06	424.2	141.66	122.38	41.515	2.5683e-06	51.561	0.00040577	0.00039719	0.0001102	1418.4	4.2981e-06	4.305e-06	1420.3	376.32	4.3234e-06	4.3007e-06	427.17	143.76	124.03	42.45	4.2862e-06	52.466	140.437	376.289	163.948	40.424	190.072	165.512	40.602	45.103	162.855	118.884	44.691	49.160	49.855	54.167	123.305	53.582	-8191	255	
11602.659	1	1	0	0	0.066105	0.17569	0.085034	0.038341	0.14074	0.24509	0.078716	0.25268	0.37554	0.18642	0.098007	0.28104	0.21155	0.24687	0.047394	0.071445	-1.6583	-1.8708	-2.2062	-2	-2.0563	-2.3458	-1.9521	-2.45	-2.1979	-1.9167	-2.4458	-2.3417	-2.0438	-2.3083	-1.8375	-2.2771	237.634	58.218	185.334	329.481	161.894	362.385	353.204	329.027	180.609	96.821	303.612	349.859	148.580	382.755	365.294	74.528	0.00045488	0.00046651	0.00016768	1410.9	8.4254e-06	7.1471e-06	1407	371.91	5.9661e-06	6.4209e-06	424.99	141.01	123.58	41.563	5.5962e-06	51.479	0.00040582	0.00039262	0.00010784	1417.8	4.2984e-06	4.2836e-06	1419.9	376.7	4.3064e-06	4.2765e-06	427.07	143.81	124.13	42.495	4.3348e-06	52.435	126.378	119.974	96.100	40.677	159.585	191.312	40.607	45.606	180.293	147.994	45.267	49.450	50.102	54.736	178.692	53.974	-8191	255	
11602.755	1	1	0	0	0.1845	0.066042	0.2558	0.16741	0.11219	0.10403	0.031525	0.064057	0.13621	0.19436	0.15306	0.16025	0.29767	0.14045	0.29209	0.14432	-1.925	-1.7646	-2.3396	-2.1813	-1.8312	-2.3167	-2.1792	-2.1958	-2.1917	-1.9042	-2.3625	-2.3271	-1.9208	-2.4188	-2.0167	-2.2542	222.177	108.020	258.164	324.930	204.453	280.941	54.727	296.294	130.453	129.008	174.580	285.103	241.249	316.348	378.289	298.252	0.00039062	0.00090723	0.00012903	1414	5.1242e-06	4.2547e-06	1411.9	371.37	5.05e-06	5.1362e-06	422.8	141.93	123.32	41.717	4.5475e-06	51.614	0.00039734	0.00039974	0.00010798	1422	4.2852e-06	4.3695e-06	1424.3	376.45	4.3269e-06	4.2809e-06	426.31	144.13	124.62	42.539	4.2551e-06	52.514	133.301	157.530	100.001	40.904	189.881	211.383	40.911	45.415	171.291	143.435	45.380	49.883	50.563	54.844	187.441	54.075	-8191	255	
11602.849	1	1	0	0	0.065913	0.17653	0.22049	0.13852	0.049137	0.027231	0.20208	0.088943	0.13899	0.10849	0.22858	0.16435	0.050762	0.27349	0.14648	0.18032	-1.9667	-1.7812	-2.2958	-2.3354	-1.9479	-2.4062	-2.2458	-2.1958	-2.2396	-1.8417	-2.1271	-2.3312	-2.025	-2.3146	-2.2083	-2.2583	136.311	159.736	288.648	31.155	137.989	317.458	305.027	261.562	247.733	106.598	130.702	142.349	376.877	365.225	48.415	56.728	0.00048041	0.00042802	9.4249e-05	1416.3	4.0692e-06	3.0568e-06	1415.7	373.55	4.2588e-06	8.7412e-06	428.38	141.89	124.42	41.966	4.8025e-06	51.733	0.00040706	0.00039623	0.0001093	1425.2	4.361e-06	4.2949e-06	1428	379.27	4.3614e-06	4.4187e-06	429.21	144.8	125.38	42.77	4.4515e-06	52.846	138.365	101.382	97.827	41.077	189.045	130.825	40.973	45.923	225.801	144.375	45.815	50.071	50.549	55.080	181.254	54.140	-8191	255	
11602.970	1	1	0	0	0.12698	0.16648	0.17333	0.098755	0.12939	0.1004	0.37289	0.23536	0.14428	0.22658	0.12623	0.27636	0.15759	0.29299	0.083227	0.16482	-1.7437	-1.85	-2.1792	-2.35	-1.8188	-2.3354	-2.2292	-2.2	-2.175	-1.9646	-2.1854	-2.3146	-1.9229	-2.3458	-1.9188	-1.9354	52.343	124.514	113.044	351.543	374.244	294.443	358.223	364.882	337.420	94.329	172.864	221.366	358.391	232.384	128.422	351.271	0.00043257	0.00037856	0.0001635	1420.1	6.8465e-06	3.3672e-06	1421.9	376.01	4.6462e-06	4.2029e-06	430.14	143.58	124.1	42.136	4.2162e-06	51.985	0.00042048	0.00040007	0.00011163	1430.3	4.5037e-06	4.4499e-06	1435	381.77	4.5793e-06	4.5383e-06	433.69	145.74	126.03	43.101	4.5734e-06	53.109	131.441	141.578	113.046	41.594	162.059	216.580	40.619	45.479	200.469	171.986	44.667	49.418	49.860	54.422	211.309	54.092	-8191	255	
11603.041	1	1	0	0	0.079885	0.11531	0.19278	0.26762	0.28824	0.29201	0.028063	0.13068	0.039007	0.49353	0.18179	0.23775	0.10807	0.37515	0.14036	0.10491	-2.0125	-1.9229	-2.0563	-2.3333	-1.6917	-2.2896	-2.35	-1.8208	-2.4854	-1.9458	-2.1021	-2.3563	-1.8292	-2.3354	-2.0458	-1.85	90.836	231.064	155.608	316.872	82.266	370.271	317.065	328.564	245.073	221.865	85.841	350.467	68.143	306.827	379.962	352.098	0.0004441	0.00037639	0.00014879	1429	5.7855e-06	5.6329e-06	1428.1	380.7	4.7584e-06	5.5152e-06	435.44	144.53	125.31	42.548	6.4096e-06	52.491	0.00042637	0.00042029	0.0001168	1439.6	4.6209e-06	4.6619e-06	1443.7	385.74	4.8315e-06	4.7475e-06	436.89	146.84	127.39	43.499	4.9117e-06	53.558	131.884	112.526	120.148	40.653	186.860	160.454	41.142	45.765	153.821	207.426	45.903	49.867	50.436	54.981	183.242	54.293	-8191	255	
11603.138	1	1	0	0	0.30707	0.13802	0.067568	0.24522	0.17042	0.093371	0.26004	0.057921	0.18864	0.04906	0.28155	0.22555	0.3558	0.1145	0.11788	0.079712	-1.9375	-1.9062	-2.1833	-2.5938	-2.0271	-2.2833	-2.3771	-2.0875	-2.4688	-1.9292	-2.0271	-2.3771	-1.9458	-2.3917	-2.0125	-1.8833	81.062	363.651	193.634	319.174	290.283	183.626	281.819	214.997	239.351	279.058	117.699	356.864	46.145	337.665	92.797	357.414	0.00043058	0.00074847	0.00010645	1433.7	4.0946e-06	2.1608e-06	1442	383.01	2.2566e-06	6.5705e-06	437.92	144.87	125.78	42.938	6.3682e-06	52.286	0.00044736	0.00045167	0.00012641	1447.1	4.9606e-06	4.8976e-06	1453.8	387.93	4.9831e-06	4.9629e-06	439.7	147.46	127.7	43.706	4.8955e-06	53.674	140.993	102.071	80.485	41.224	187.062	235.287	40.859	45.355	177.463	162.588	45.174	49.445	49.614	54.236	193.563	53.259	-8191	255	
11603.234	1	1	0	0	0.082481	0.13503	0.17089	0.28277	0.089357	0.10619	0.44745	0.27625	0.14206	0.13838	0.062626	0.12623	0.29047	0.10235	0.15218	0.29467	-1.8563	-1.9292	-1.8833	-2.4021	-1.9292	-2.2167	-2.45	-2.2021	-2.3229	-2	-1.9771	-2.4062	-1.9625	-2.4458	-2.1875	-1.9813	161.453	214.542	175.106	386.375	178.674	251.356	344.835	330.067	114.485	326.969	304.933	338.887	52.875	73.787	171.593	326.445	0.00040077	0.000441	0.00012004	1440.6	4.3649e-06	1.8581e-06	1436.8	383.05	7.5732e-06	7.7348e-06	438.53	145.07	126.55	42.811	7.6936e-06	52.51	0.00045652	0.00044169	0.00012283	1452.2	4.8856e-06	4.8851e-06	1454.5	388.63	4.8385e-06	4.9034e-06	439.08	147.62	127.99	43.686	4.8267e-06	53.678	126.738	142.928	142.461	40.379	192.782	259.684	40.299	45.177	180.797	173.043	44.522	48.824	49.373	53.886	170.504	53.169	-8191	255	
