BOXY.EXE: ISS Imagent and Oximeter Data Acquisition Program Version 0.80
Ascii Record File

#ACQ INFORMATION
2  Detector Channels 
16  External MUX Channels 
1  Auxiliary Channels 
5000  Waveform (CCF) Frequency (Hz)
1  Waveforms Skipped 
30  Waveforms Averaged 
1  Cycles Averaged 
16  Acquisitions per Waveform 
10.0806  Updata Rate (Hz) 

#FILE INFORMATION
TRUE -- External MUX Channel results are PARSED.
FALSE -- AC DC and Phase are NOT grouped.
TRUE -- Companion Program Settings File CREATED.
FALSE -- AC data not excluded
FALSE -- DC data not excluded
FALSE -- Phase data not excluded
FALSE -- Auxillary Chn. data not excluded
Tab delimiters

#CALIBRATION STATE
TRUE -- Waveform Calibration Values APPLIED.


#AUX CALIBRATION VALUES
Val Type	aux-1	

Term	1.0000e+00	
Factor	0.0000e+00	


#WF CALIBRATION VALUES
A = Detector Channel
Val Type	A-AC1	A-AC2	A-AC3	A-AC4	A-AC5	A-AC6	A-AC7	A-AC8	A-AC9	A-AC10	A-AC11	A-AC12	A-AC13	A-AC14	A-AC15	A-AC16	A-DC1	A-DC2	A-DC3	A-DC4	A-DC5	A-DC6	A-DC7	A-DC8	A-DC9	A-DC10	A-DC11	A-DC12	A-DC13	A-DC14	A-DC15	A-DC16	A-Ph1	A-Ph2	A-Ph3	A-Ph4	A-Ph5	A-Ph6	A-Ph7	A-Ph8	A-Ph9	A-Ph10	A-Ph11	A-Ph12	A-Ph13	A-Ph14	A-Ph15	A-Ph16	

Term	0.00000e+00	0.00000e+00	0.00000e+00	0.00000e+00	0.00000e+00	0.00000e+00	0.00000e+00	0.00000e+00	0.00000e+00	0.00000e+00	0.00000e+00	0.00000e+00	0.00000e+00	0.00000e+00	0.00000e+00	0.00000e+00	0.00000e+00	0.00000e+00	0.00000e+00	0.00000e+00	0.00000e+00	0.00000e+00	0.00000e+00	0.00000e+00	0.00000e+00	0.00000e+00	0.00000e+00	0.00000e+00	0.00000e+00	0.00000e+00	0.00000e+00	0.00000e+00	0.00000e+00	0.00000e+00	0.00000e+00	0.00000e+00	0.00000e+00	0.00000e+00	0.00000e+00	0.00000e+00	0.00000e+00	0.00000e+00	0.00000e+00	0.00000e+00	0.00000e+00	0.00000e+00	0.00000e+00	0.00000e+00	
Factor	1.00000e+00	1.00000e+00	1.00000e+00	1.00000e+00	1.00000e+00	1.00000e+00	1.00000e+00	1.00000e+00	1.00000e+00	1.00000e+00	1.00000e+00	1.00000e+00	1.00000e+00	1.00000e+00	1.00000e+00	1.00000e+00	1.00000e+00	1.00000e+00	1.00000e+00	1.00000e+00	1.00000e+00	1.00000e+00	1.00000e+00	1.00000e+00	1.00000e+00	1.00000e+00	1.00000e+00	1.00000e+00	1.00000e+00	1.00000e+00	1.00000e+00	1.00000e+00	X	X	X	X	X	X	X	X	X	X	X	X	X	X	X	X	

B = Detector Channel
Val Type	B-AC1	B-AC2	B-AC3	B-AC4	B-AC5	B-AC6	B-AC7	B-AC8	B-AC9	B-AC10	B-AC11	B-AC12	B-AC13	B-AC14	B-AC15	B-AC16	B-DC1	B-DC2	B-DC3	B-DC4	B-DC5	B-DC6	B-DC7	B-DC8	B-DC9	B-DC10	B-DC11	B-DC12	B-DC13	B-DC14	B-DC15	B-DC16	B-Ph1	B-Ph2	B-Ph3	B-Ph4	B-Ph5	B-Ph6	B-Ph7	B-Ph8	B-Ph9	B-Ph10	B-Ph11	B-Ph12	B-Ph13	B-Ph14	B-Ph15	B-Ph16	

Term	0.00000e+00	0.00000e+00	0.00000e+00	0.00000e+00	0.00000e+00	0.00000e+00	0.00000e+00	0.00000e+00	0.00000e+00	0.00000e+00	0.00000e+00	0.00000e+00	0.00000e+00	0.00000e+00	0.00000e+00	0.00000e+00	0.00000e+00	0.00000e+00	0.00000e+00	0.00000e+00	0.00000e+00	0.00000e+00	0.00000e+00	0.00000e+00	0.00000e+00	0.00000e+00	0.00000e+00	0.00000e+00	0.00000e+00	0.00000e+00	0.00000e+00	0.00000e+00	-2.02558e+02	-1.16413e+02	-1.30120e+02	-1.82161e+02	-9.57707e+01	-1.01369e+02	-1.59306e+02	-1.62015e+02	-1.14350e+02	-5.77035e+01	-1.70639e+02	-1.72301e+02	-1.77500e+02	-1.76674e+02	-5.36760e+01	-1.49496e+02	
Factor	4.10936e-05	9.52974e-05	2.49006e-05	1.49428e-01	8.83243e-07	8.91524e-07	1.68800e-01	4.93801e-02	1.17695e-06	7.15398e-07	8.34437e-02	2.98807e-02	2.54106e-02	8.75613e-03	1.20421e-06	1.26828e-02	6.26555e-07	6.35961e-07	1.78841e-07	7.42432e-02	6.95763e-09	6.96690e-09	7.86376e-02	2.43642e-02	6.96256e-09	6.98071e-09	3.91092e-02	1.39300e-02	1.23175e-02	4.23067e-03	7.03845e-09	5.88851e-03	X	X	X	X	X	X	X	X	X	X	X	X	X	X	X	X	



#DISTANCE SETTINGS
A = Detector Channel
A-1	A-2	A-3	A-4	A-5	A-6	A-7	A-8	A-9	A-10	A-11	A-12	A-13	A-14	A-15	A-16	

2.5000e+00	3.0000e+00	2.5000e+00	3.0000e+00	2.0000e+00	3.0000e+00	1.5000e+00	3.0000e+00	3.0000e+00	3.0000e+00	3.0000e+00	3.0000e+00	3.0000e+00	3.0000e+00	1.5000e+00	3.0000e+00	

B = Detector Channel
B-1	B-2	B-3	B-4	B-5	B-6	B-7	B-8	B-9	B-10	B-11	B-12	B-13	B-14	B-15	B-16	

1.0000e+01	1.0000e+01	1.0000e+01	1.4400e+00	1.0000e+01	1.0000e+01	1.5100e+00	1.9400e+00	1.0000e+01	1.0000e+01	1.9900e+00	2.4900e+00	2.4100e+00	2.9000e+00	1.0000e+01	2.9800e+00	




#DATA BEGINS
time	group	step	mark	flag	A-AC1	A-AC2	A-AC3	A-AC4	A-AC5	A-AC6	A-AC7	A-AC8	A-AC9	A-AC10	A-AC11	A-AC12	A-AC13	A-AC14	A-AC15	A-AC16	A-DC1	A-DC2	A-DC3	A-DC4	A-DC5	A-DC6	A-DC7	A-DC8	A-DC9	A-DC10	A-DC11	A-DC12	A-DC13	A-DC14	A-DC15	A-DC16	A-Ph1	A-Ph2	A-Ph3	A-Ph4	A-Ph5	A-Ph6	A-Ph7	A-Ph8	A-Ph9	A-Ph10	A-Ph11	A-Ph12	A-Ph13	A-Ph14	A-Ph15	A-Ph16	B-AC1	B-AC2	B-AC3	B-AC4	B-AC5	B-AC6	B-AC7	B-AC8	B-AC9	B-AC10	B-AC11	B-AC12	B-AC13	B-AC14	B-AC15	B-AC16	B-DC1	B-DC2	B-DC3	B-DC4	B-DC5	B-DC6	B-DC7	B-DC8	B-DC9	B-DC10	B-DC11	B-DC12	B-DC13	B-DC14	B-DC15	B-DC16	B-Ph1	B-Ph2	B-Ph3	B-Ph4	B-Ph5	B-Ph6	B-Ph7	B-Ph8	B-Ph9	B-Ph10	B-Ph11	B-Ph12	B-Ph13	B-Ph14	B-Ph15	B-Ph16	aux-1	digaux	

7604.975	1	1	0	256	0.14996	0.040797	0.28149	0.16639	0.27413	0.3216	0.13761	0.29718	0.29246	0.25309	0.11977	0.17629	0.16489	0.19409	0.18492	0.10984	-1.4667	-1.6104	-2.1354	-1.7896	-1.9937	-2.2625	-1.7625	-2.3771	-1.95	-1.525	-2.3083	-1.9771	-2.0125	-2.1146	-1.7313	-2.2229	210.624	73.269	281.957	151.340	128.823	133.334	396.193	314.260	287.055	324.252	249.530	323.265	123.057	139.115	138.353	292.873	0.00087689	0.0011054	0.00010254	816.49	5.7878e-06	6.2155e-06	1092.5	243.82	6.7845e-06	2.1231e-06	386.45	119.03	59.375	17.402	1.3397e-05	48.888	0.0014737	0.0014056	0.00038527	938.96	1.6244e-05	1.5398e-05	1195.2	282.95	1.6213e-05	1.5436e-05	437.47	141.04	82.274	25.246	1.5259e-05	58.287	97.162	261.189	296.442	60.423	370.944	126.093	60.279	64.365	212.427	300.505	64.384	69.824	68.816	75.043	187.415	75.660	-8191	255	
7605.047	1	1	0	0	0.10075	0.065919	0.15393	0.15543	0.18129	0.095053	0.19024	0.1153	0.062331	0.27166	0.10259	0.17037	0.14312	0.41878	0.16928	0.044495	-1.4937	-1.6354	-2.0917	-1.6854	-1.8292	-2.1771	-1.7375	-2.2167	-2.0375	-1.6	-2.2875	-1.9104	-1.7979	-1.9917	-1.5938	-2.0021	345.720	97.939	193.458	62.627	167.497	84.651	79.265	58.399	324.953	396.844	335.996	229.104	389.221	96.217	209.065	339.156	0.00097183	0.00024391	0.00037268	809.36	9.2277e-06	8.9877e-07	1087.3	242.4	4.0197e-06	6.0355e-06	383.66	119.19	59.016	17.408	9.476e-06	48.895	0.0014597	0.0013877	0.00038727	936.86	1.5933e-05	1.5224e-05	1193.2	283.16	1.5706e-05	1.5184e-05	437.18	141.9	81.108	25.247	1.5615e-05	58.724	62.723	78.688	195.717	60.424	324.174	395.419	60.311	64.517	91.230	398.105	64.491	69.968	69.117	75.263	137.288	75.287	-8191	255	
7605.143	1	1	0	0	0.17861	0.14874	0.21542	0.07121	0.0098731	0.25616	0.30362	0.23567	0.17832	0.11738	0.10174	0.084898	0.27401	0.19461	0.12011	0.14358	-1.7646	-1.5688	-2.0917	-2.0979	-1.6604	-2.1792	-1.9062	-1.9625	-2.1958	-1.4771	-2.3	-2.1063	-1.8438	-2.2958	-1.7354	-1.7979	157.447	384.956	78.587	290.070	312.226	394.232	358.163	337.240	309.214	365.631	72.269	301.538	308.071	95.904	124.940	344.192	0.00049869	0.00072186	0.00036226	806.52	2.2491e-06	3.3213e-06	1081.6	240.31	8.2783e-06	1.2741e-06	381.7	118.68	58.593	17.643	1.3398e-05	48.657	0.0014163	0.0013844	0.00040061	935.23	1.5545e-05	1.5147e-05	1195.2	282.71	1.5568e-05	1.5197e-05	439.91	141.35	80.527	25.225	1.6302e-05	58.464	103.277	126.037	140.555	60.429	50.169	155.258	60.183	64.493	106.627	377.877	64.440	69.861	69.191	75.137	160.587	75.889	-8191	255	
7605.239	1	1	0	0	0.042968	0.1398	0.11383	0.095588	0.10377	0.24511	0.14928	0.17055	0.17542	0.15109	0.17954	0.11307	0.21512	0.24029	0.12258	0.093589	-1.7333	-1.5667	-2.1917	-2.1146	-1.6583	-2.0521	-2.0208	-2	-2.1937	-1.5896	-2.15	-2.0187	-1.6083	-2.35	-1.8375	-1.9896	308.868	103.102	230.516	374.428	279.906	102.621	330.759	307.866	143.476	191.976	365.874	82.569	156.695	264.719	195.904	286.341	0.0010509	0.0006132	0.0002442	802.62	8.392e-06	7.4718e-06	1080.9	240.1	1.354e-05	7.3049e-06	383.23	119.08	58.905	17.51	1.0346e-05	49.229	0.0013968	0.0013884	0.00041885	929.66	1.5471e-05	1.5203e-05	1203.2	281.38	1.5467e-05	1.5536e-05	444.95	141.34	80.786	25.473	1.687e-05	58.532	66.388	248.192	155.527	60.614	145.920	184.141	60.296	64.543	184.024	163.680	64.521	69.877	69.482	74.681	251.103	75.735	-8191	255	
7605.359	1	1	0	0	0.096616	0.1673	0.22928	0.26826	0.08491	0.10654	0.41071	0.20832	0.18693	0.18865	0.25127	0.26784	0.14913	0.14709	0.18682	0.090865	-1.8	-1.7333	-1.9792	-2.1333	-1.5417	-2.1937	-2.0396	-1.9083	-2.025	-1.6146	-2.0062	-2.1292	-1.7333	-2.2104	-1.7792	-1.6812	341.304	255.783	349.369	339.881	182.570	337.575	337.148	186.749	274.893	294.100	322.446	389.977	146.889	280.769	228.603	326.113	0.00093207	0.0010078	0.00027166	797.93	8.3438e-06	8.9549e-06	1083.3	238.79	2.0309e-06	5.3479e-06	384.57	119.32	58.67	17.534	8.2309e-06	49.323	0.0013911	0.0014048	0.00042569	921.15	1.5121e-05	1.5424e-05	1199.9	278.1	1.4878e-05	1.5459e-05	442.74	140.03	79.407	25.464	1.6362e-05	57.993	82.752	156.989	210.239	60.502	343.401	202.002	60.484	64.676	84.313	241.647	64.097	70.008	68.735	74.931	130.542	75.618	-8191	255	
7605.456	1	1	0	0	0.038064	0.41387	0.12819	0.33016	0.14428	0.10899	0.1859	0.14476	0.11668	0.13438	0.19039	0.087221	0.042633	0.097551	0.18921	0.32762	-1.8937	-1.6646	-1.9229	-2.1208	-1.5208	-2.0438	-2.0833	-1.8062	-2.0604	-1.8292	-2	-2.2625	-1.5521	-2.1021	-1.9125	-1.9104	375.769	270.428	132.680	397.660	283.693	275.774	338.956	95.719	338.153	97.703	281.367	222.605	356.503	324.352	108.380	380.950	0.0011307	0.00035158	8.2863e-05	799.02	8.5732e-06	1.4935e-05	1076.6	239.4	3.0241e-06	9.2398e-06	383.51	120.37	59.587	17.816	3.6109e-06	49.135	0.0013446	0.0014255	0.0004128	910.48	1.4705e-05	1.5669e-05	1193.9	277.17	1.4695e-05	1.5745e-05	441.26	139.47	79.843	25.81	1.5935e-05	57.466	79.447	123.786	163.446	60.413	131.177	226.599	60.603	64.533	282.877	228.427	64.344	69.814	68.960	75.102	256.685	75.309	-8191	255	
7605.550	1	1	0	0	0.3264	0.056129	0.20595	0.23796	0.024814	0.019731	0.23407	0.17918	0.18684	0.11325	0.10969	0.19632	0.30513	0.077249	0.093583	0.12922	-1.7667	-1.7479	-1.8917	-2.0375	-1.6938	-2.1708	-2.1417	-1.5958	-2.4	-1.9458	-1.7458	-2.3917	-1.6812	-1.9271	-2.0229	-1.6729	229.565	329.807	243.034	372.419	279.997	256.216	396.059	298.099	102.457	270.012	218.180	57.105	373.912	160.572	300.700	353.638	0.0013793	0.00076731	0.00017238	807.34	8.8335e-06	1.1591e-05	1082.4	244.32	2.0786e-05	6.7715e-06	386.34	120.29	59.751	17.441	5.5078e-06	48.533	0.0013362	0.001459	0.00040005	919.4	1.4807e-05	1.6012e-05	1196.3	279.68	1.4923e-05	1.6142e-05	439.52	138.65	80.498	25.796	1.5375e-05	56.792	74.243	156.948	316.276	60.585	93.889	178.336	60.470	64.469	121.718	167.077	63.981	69.797	68.876	75.087	368.090	75.869	-8191	255	
7605.646	1	1	0	0	0.10218	0.1312	0.10888	0.048151	0.31833	0.056883	0.11317	0.065328	0.30141	0.20376	0.0026013	0.19613	0.072158	0.1501	0.12178	0.11362	-1.8188	-1.9479	-1.5187	-2.4271	-1.5854	-1.8979	-2.3208	-1.5979	-2.1333	-1.9625	-1.9625	-2.3042	-1.7354	-1.9958	-2.2458	-1.7458	160.432	105.875	383.184	398.950	150.730	116.689	111.627	181.404	46.864	344.818	174.401	388.476	261.687	104.553	92.000	394.692	0.0012052	0.00071509	0.00047115	804.86	5.3649e-06	8.7438e-06	1071.7	240.71	1.0359e-05	1.9948e-06	381.08	119.73	59.085	17.406	1.0827e-05	49.152	0.0013666	0.0014673	0.00038795	911.23	1.5103e-05	1.5897e-05	1180.4	275.21	1.521e-05	1.5881e-05	434.55	137.99	80.866	25.627	1.5117e-05	57.123	76.896	214.733	111.212	60.307	195.901	115.509	60.155	64.533	204.933	97.044	64.463	69.765	69.116	75.017	386.910	75.697	-8191	255	
7605.744	1	1	0	0	0.30252	0.086541	0.13342	0.22737	0.070528	0.08064	0.32603	0.35642	0.2818	0.17263	0.22436	0.16887	0.21813	0.089582	0.047222	0.23442	-1.6437	-1.7667	-1.45	-2.2521	-1.8062	-1.8146	-2.4979	-1.7667	-1.9521	-2.1125	-1.8042	-2.2979	-1.8271	-1.9667	-1.9979	-1.9271	224.604	184.691	160.345	254.545	72.903	193.212	387.745	371.207	87.662	363.728	398.946	373.191	155.708	198.626	202.526	323.141	0.0013614	0.00035017	0.00024706	803.27	6.4033e-06	2.9224e-06	1069.1	239.16	6.7763e-06	4.8203e-06	379.65	119.57	58.745	17.546	2.551e-06	49.689	0.0014194	0.0014402	0.00038346	905.53	1.5714e-05	1.5604e-05	1172.7	274.06	1.5803e-05	1.5593e-05	432.22	138.58	81.556	25.547	1.4982e-05	57.831	83.137	136.662	76.083	60.618	92.787	320.795	60.398	64.347	154.918	365.748	64.080	69.984	68.885	75.054	256.480	75.852	-8191	255	
7605.838	1	1	0	0	0.12161	0.095181	0.23831	0.06983	0.052918	0.098595	0.12531	0.24142	0.1406	0.178	0.31291	0.06402	0.24084	0.2609	0.072013	0.124	-1.4875	-2.1667	-1.6979	-2.2812	-2.1104	-1.9188	-2.5396	-1.8708	-2.1375	-2.1021	-1.7021	-2.1458	-1.8479	-1.7125	-2.3812	-1.6917	220.987	209.536	96.524	152.178	165.340	179.551	368.314	334.585	384.931	287.830	375.883	295.220	114.472	286.319	285.304	51.485	0.0011906	0.00086057	0.00021468	790.06	5.4907e-06	1.067e-05	1072.7	238.53	6.8976e-06	3.0839e-06	382.87	121.14	59.004	17.861	6.5505e-06	50.831	0.0014544	0.0014064	0.00038057	904.39	1.6064e-05	1.5296e-05	1172.1	275.62	1.616e-05	1.5323e-05	434.24	140.86	82.055	25.626	1.5048e-05	59.203	102.242	305.318	273.321	60.626	181.568	320.405	60.392	64.507	205.880	149.615	64.693	70.027	69.436	75.096	154.206	75.665	-8191	255	
7605.935	1	1	0	0	0.11679	0.153	0.090264	0.19639	0.23782	0.089567	0.11447	0.14962	0.16494	0.15047	0.097205	0.17517	0.26953	0.049264	0.039201	0.42679	-1.3312	-1.9562	-1.4104	-1.9667	-1.9792	-1.4396	-2.3375	-1.8062	-2.0458	-2.2583	-1.6979	-2.1937	-2.0583	-1.7021	-2.2958	-1.9167	347.522	244.403	184.881	247.610	267.665	185.484	395.216	235.372	243.625	384.626	120.661	154.362	369.298	284.200	380.665	364.556	0.0014481	0.0015481	0.00032599	786.74	1.152e-05	8.8242e-06	1060.6	236.35	7.0508e-06	4.7525e-06	382.6	120.99	58.67	18.024	6.2158e-06	51.352	0.0014678	0.0013952	0.00038003	905.62	1.6009e-05	1.5192e-05	1163.3	275.52	1.5821e-05	1.5021e-05	432.6	142.28	80.922	25.539	1.4757e-05	60.021	63.861	236.912	59.296	60.665	277.504	156.275	60.406	64.547	237.093	198.520	64.603	70.200	68.854	75.521	320.983	75.620	-8191	255	
7606.055	1	1	0	0	0.21885	0.072555	0.19705	0.27786	0.19888	0.10459	0.25614	0.17166	0.16817	0.2478	0.18929	0.27579	0.17753	0.016251	0.3713	0.29367	-1.5021	-2.3937	-1.7292	-2.0271	-2.1583	-1.6583	-2.6708	-1.9771	-2.0354	-2.2083	-1.7708	-2.0958	-2.1437	-1.6583	-2.25	-1.95	116.280	114.242	352.386	389.288	377.018	282.722	364.256	333.320	209.936	123.375	124.424	330.069	397.337	353.494	213.184	396.536	0.00073809	0.00094242	0.00021537	778.25	2.1813e-06	6.5274e-06	1055.4	238.49	9.1752e-06	6.9932e-06	384.31	122.19	59.731	18.246	3.9172e-06	51.887	0.0014049	0.0013446	0.00037631	902.41	1.5348e-05	1.4839e-05	1165.5	278.45	1.5569e-05	1.5057e-05	437.69	144.23	81.942	25.913	1.5601e-05	60.909	98.100	50.957	175.197	60.627	397.336	158.745	60.498	64.689	132.536	270.866	64.608	69.965	69.108	75.382	245.380	75.431	-8191	255	
7606.151	1	1	0	0	0.30911	0.14854	0.1753	0.1296	0.13396	0.098981	0.23371	0.25654	0.28427	0.020635	0.10606	0.38689	0.14698	0.10958	0.084769	0.10687	-1.3042	-2.2313	-1.7875	-2.0687	-2.1229	-1.7458	-2.3312	-2.0958	-1.5854	-2.2	-1.8271	-2.1125	-2.125	-1.5104	-2.2146	-2.0312	334.171	151.728	310.819	100.785	260.505	381.169	71.844	306.595	306.787	377.153	111.442	359.438	73.675	66.629	363.803	253.224	0.0010205	0.001137	0.00027175	796.01	1.736e-06	6.9887e-06	1076.7	244.04	1.5562e-05	7.7541e-06	392.32	123.71	60.979	18.521	1.7683e-05	51.797	0.0014031	0.0013798	0.00040051	922.57	1.5558e-05	1.5102e-05	1189	285.33	1.5593e-05	1.5259e-05	447.96	146	82.896	26.221	1.6365e-05	61.225	70.468	159.000	116.098	60.523	222.190	218.287	60.359	64.551	304.690	237.443	64.581	70.105	69.452	75.065	259.899	75.391	-8191	255	
7606.248	1	1	0	0	0.41218	0.17717	0.088689	0.16907	0.15893	0.10895	0.2207	0.23573	0.27087	0.14551	0.17849	0.22643	0.26867	0.16403	0.046241	0.094742	-1.3292	-2.1396	-1.6542	-2.0833	-2.2083	-1.8125	-2.2104	-2.1562	-1.6729	-2.3958	-2.2042	-1.9146	-2.1333	-1.4813	-2.0917	-2	185.365	270.383	344.063	89.405	157.802	401.457	340.286	307.584	161.555	308.680	324.921	374.396	121.680	371.212	173.328	123.976	0.0010049	0.00053547	0.00028561	796.07	5.2984e-06	9.2619e-06	1077.7	243.41	6.9754e-06	2.7323e-06	390.73	123.39	61.184	18.566	2.2614e-05	51.868	0.001407	0.0013866	0.00042235	925.35	1.5592e-05	1.5365e-05	1202	285.02	1.548e-05	1.5491e-05	451.79	145.33	82.613	26.418	1.6723e-05	60.839	73.985	385.540	163.142	60.471	338.811	129.989	60.304	64.534	151.838	243.262	64.379	70.218	69.479	74.863	227.769	75.581	-8191	255	
7606.344	1	1	0	0	0.085708	0.11072	0.085564	0.036281	0.043153	0.27402	0.19879	0.078546	0.082114	0.16388	0.28417	0.30077	0.1108	0.41583	0.14925	0.059695	-1.2375	-2.0417	-1.8813	-1.8583	-2.0938	-1.6187	-2.1437	-2.0771	-1.5729	-2.2812	-2.0896	-1.8333	-2.3396	-2.0062	-2.0396	-1.9729	282.631	243.054	191.442	279.037	296.871	98.573	397.937	103.937	370.521	128.181	59.515	380.369	309.400	392.893	85.603	110.737	0.0011965	0.00047868	0.0001431	799.99	6.2253e-06	4.5584e-06	1086.3	246.85	1.1624e-05	1.1004e-05	394.41	124.03	61.464	18.648	1.1888e-05	51.484	0.001389	0.0014168	0.00042396	919.73	1.5055e-05	1.5449e-05	1204	283.93	1.5017e-05	1.5504e-05	452.31	144.33	82.498	26.612	1.6503e-05	59.846	64.048	195.092	97.728	60.667	217.608	332.003	60.691	64.668	170.760	290.208	64.174	70.126	69.007	75.018	53.609	75.243	-8191	255	
7606.440	1	1	0	0	0.06314	0.12293	0.13792	0.36916	0.041466	0.17994	0.2881	0.23612	0.30708	0.14617	0.23477	0.27912	0.13919	0.21132	0.28898	0.18191	-0.97917	-2.3396	-1.95	-1.6104	-2.25	-1.7333	-2.15	-2.2812	-1.6667	-1.9875	-1.9438	-1.7604	-2.3521	-1.8979	-1.9625	-2.2417	153.306	355.574	360.156	397.959	251.634	63.873	342.264	255.011	369.057	113.837	373.073	205.079	375.316	95.293	379.534	330.625	0.00091894	0.00082018	0.00012833	808.41	1.1478e-05	6.2766e-06	1083.8	245.81	1.9999e-05	1.034e-05	389.43	122.26	61.123	18.185	1.2668e-05	50.851	0.0013583	0.0014477	0.00042147	924.78	1.5131e-05	1.6149e-05	1204.8	284.24	1.5282e-05	1.6403e-05	448.35	142.64	81.997	26.551	1.6137e-05	58.988	61.320	132.099	353.044	60.460	157.220	123.221	60.240	64.258	384.924	242.146	64.329	69.789	69.010	75.446	139.058	75.561	-8191	255	
7606.536	1	1	0	0	0.37113	0.026087	0.087447	0.17156	0.12988	0.067379	0.19494	0.19709	0.1268	0.22369	0.11349	0.20248	0.24246	0.19998	0.052663	0.23117	-1.1313	-1.9333	-1.9583	-1.8604	-2.2083	-1.8396	-2.0646	-2.2729	-1.6938	-1.9271	-2.1312	-1.5896	-2.1625	-1.875	-1.7896	-2.3917	304.547	334.616	146.160	357.003	65.755	74.282	161.537	345.810	313.523	370.725	313.673	302.474	402.764	148.099	141.584	280.317	0.0010851	0.0010911	0.00022139	799.53	9.9884e-06	9.3478e-06	1081.1	243.34	1.5707e-05	3.4443e-06	389.05	122.3	60.789	17.785	3.9371e-06	49.754	0.0013588	0.0014784	0.00040426	911.28	1.4922e-05	1.6232e-05	1190.2	280.49	1.5049e-05	1.6275e-05	443.62	141.03	81.989	26.337	1.5621e-05	57.897	76.330	172.995	344.648	60.394	193.262	185.866	60.389	64.308	54.216	329.227	64.302	69.868	69.087	74.622	379.808	75.376	-8191	255	
7606.655	1	1	0	0	0.14809	0.34145	0.14906	0.53868	0.079797	0.1159	0.088758	0.10832	0.08117	0.2031	0.34822	0.075881	0.13149	0.22239	0.33487	0.32123	-1.2979	-1.975	-2.0229	-1.825	-2.1125	-1.9667	-1.8687	-2.3	-1.8625	-1.6792	-2.4896	-1.7104	-2.1333	-2.0292	-1.5667	-2.4479	52.861	299.451	186.516	402.071	143.511	296.623	358.367	208.408	376.142	121.337	50.260	84.232	392.498	78.066	330.715	52.317	0.0012419	0.00081177	0.00015705	803.55	1.632e-05	8.8943e-06	1081.1	244.74	6.0708e-06	4.7557e-06	386.68	120.64	60.21	17.829	1.0829e-05	49.158	0.0013916	0.0014918	0.00039498	915.02	1.5577e-05	1.6285e-05	1186.1	279.85	1.5698e-05	1.6285e-05	439.48	139.87	82.298	26.136	1.5484e-05	57.655	81.386	119.999	153.639	60.641	167.957	372.540	60.508	64.473	298.307	255.877	64.057	69.669	68.905	74.530	201.693	75.381	-8191	255	
