BOXY.EXE: ISS Imagent and Oximeter Data Acquisition Program Version 0.80
Ascii Record File

#ACQ INFORMATION
2  Detector Channels 
16  External MUX Channels 
1  Auxiliary Channels 
5000  Waveform (CCF) Frequency (Hz)
1  Waveforms Skipped 
30  Waveforms Averaged 
1  Cycles Averaged 
16  Acquisitions per Waveform 
10.0806  Updata Rate (Hz) 

#FILE INFORMATION
TRUE -- External MUX Channel results are PARSED.
FALSE -- AC DC and Phase are NOT grouped.
TRUE -- Companion Program Settings File CREATED.
FALSE -- AC data not excluded
FALSE -- DC data not excluded
FALSE -- Phase data not excluded
FALSE -- Auxillary Chn. data not excluded
Tab delimiters

#CALIBRATION STATE
TRUE -- Waveform Calibration Values APPLIED.


#AUX CALIBRATION VALUES
Val Type	aux-1	

Term	1.0000e+00	
Factor	0.0000e+00	


#WF CALIBRATION VALUES
A = Detector Channel
Val Type	A-AC1	A-AC2	A-AC3	A-AC4	A-AC5	A-AC6	A-AC7	A-AC8	A-AC9	A-AC10	A-AC11	A-AC12	A-AC13	A-AC14	A-AC15	A-AC16	A-DC1	A-DC2	A-DC3	A-DC4	A-DC5	A-DC6	A-DC7	A-DC8	A-DC9	A-DC10	A-DC11	A-DC12	A-DC13	A-DC14	A-DC15	A-DC16	A-Ph1	A-Ph2	A-Ph3	A-Ph4	A-Ph5	A-Ph6	A-Ph7	A-Ph8	A-Ph9	A-Ph10	A-Ph11	A-Ph12	A-Ph13	A-Ph14	A-Ph15	A-Ph16	

Term	0.00000e+00	0.00000e+00	0.00000e+00	0.00000e+00	0.00000e+00	0.00000e+00	0.00000e+00	0.00000e+00	0.00000e+00	0.00000e+00	0.00000e+00	0.00000e+00	0.00000e+00	0.00000e+00	0.00000e+00	0.00000e+00	0.00000e+00	0.00000e+00	0.00000e+00	0.00000e+00	0.00000e+00	0.00000e+00	0.00000e+00	0.00000e+00	0.00000e+00	0.00000e+00	0.00000e+00	0.00000e+00	0.00000e+00	0.00000e+00	0.00000e+00	0.00000e+00	0.00000e+00	0.00000e+00	0.00000e+00	0.00000e+00	0.00000e+00	0.00000e+00	0.00000e+00	0.00000e+00	0.00000e+00	0.00000e+00	0.00000e+00	0.00000e+00	0.00000e+00	0.00000e+00	0.00000e+00	0.00000e+00	
Factor	1.00000e+00	1.00000e+00	1.00000e+00	1.00000e+00	1.00000e+00	1.00000e+00	1.00000e+00	1.00000e+00	1.00000e+00	1.00000e+00	1.00000e+00	1.00000e+00	1.00000e+00	1.00000e+00	1.00000e+00	1.00000e+00	1.00000e+00	1.00000e+00	1.00000e+00	1.00000e+00	1.00000e+00	1.00000e+00	1.00000e+00	1.00000e+00	1.00000e+00	1.00000e+00	1.00000e+00	1.00000e+00	1.00000e+00	1.00000e+00	1.00000e+00	1.00000e+00	X	X	X	X	X	X	X	X	X	X	X	X	X	X	X	X	

B = Detector Channel
Val Type	B-AC1	B-AC2	B-AC3	B-AC4	B-AC5	B-AC6	B-AC7	B-AC8	B-AC9	B-AC10	B-AC11	B-AC12	B-AC13	B-AC14	B-AC15	B-AC16	B-DC1	B-DC2	B-DC3	B-DC4	B-DC5	B-DC6	B-DC7	B-DC8	B-DC9	B-DC10	B-DC11	B-DC12	B-DC13	B-DC14	B-DC15	B-DC16	B-Ph1	B-Ph2	B-Ph3	B-Ph4	B-Ph5	B-Ph6	B-Ph7	B-Ph8	B-Ph9	B-Ph10	B-Ph11	B-Ph12	B-Ph13	B-Ph14	B-Ph15	B-Ph16	

Term	0.00000e+00	0.00000e+00	0.00000e+00	0.00000e+00	0.00000e+00	0.00000e+00	0.00000e+00	0.00000e+00	0.00000e+00	0.00000e+00	0.00000e+00	0.00000e+00	0.00000e+00	0.00000e+00	0.00000e+00	0.00000e+00	0.00000e+00	0.00000e+00	0.00000e+00	0.00000e+00	0.00000e+00	0.00000e+00	0.00000e+00	0.00000e+00	0.00000e+00	0.00000e+00	0.00000e+00	0.00000e+00	0.00000e+00	0.00000e+00	0.00000e+00	0.00000e+00	-2.02558e+02	-1.16413e+02	-1.30120e+02	-1.82161e+02	-9.57707e+01	-1.01369e+02	-1.59306e+02	-1.62015e+02	-1.14350e+02	-5.77035e+01	-1.70639e+02	-1.72301e+02	-1.77500e+02	-1.76674e+02	-5.36760e+01	-1.49496e+02	
Factor	4.10936e-05	9.52974e-05	2.49006e-05	1.49428e-01	8.83243e-07	8.91524e-07	1.68800e-01	4.93801e-02	1.17695e-06	7.15398e-07	8.34437e-02	2.98807e-02	2.54106e-02	8.75613e-03	1.20421e-06	1.26828e-02	6.26555e-07	6.35961e-07	1.78841e-07	7.42432e-02	6.95763e-09	6.96690e-09	7.86376e-02	2.43642e-02	6.96256e-09	6.98071e-09	3.91092e-02	1.39300e-02	1.23175e-02	4.23067e-03	7.03845e-09	5.88851e-03	X	X	X	X	X	X	X	X	X	X	X	X	X	X	X	X	



#DISTANCE SETTINGS
A = Detector Channel
A-1	A-2	A-3	A-4	A-5	A-6	A-7	A-8	A-9	A-10	A-11	A-12	A-13	A-14	A-15	A-16	

2.5000e+00	3.0000e+00	2.5000e+00	3.0000e+00	2.0000e+00	3.0000e+00	1.5000e+00	3.0000e+00	3.0000e+00	3.0000e+00	3.0000e+00	3.0000e+00	3.0000e+00	3.0000e+00	1.5000e+00	3.0000e+00	

B = Detector Channel
B-1	B-2	B-3	B-4	B-5	B-6	B-7	B-8	B-9	B-10	B-11	B-12	B-13	B-14	B-15	B-16	

1.0000e+01	1.0000e+01	1.0000e+01	1.4400e+00	1.0000e+01	1.0000e+01	1.5100e+00	1.9400e+00	1.0000e+01	1.0000e+01	1.9900e+00	2.4900e+00	2.4100e+00	2.9000e+00	1.0000e+01	2.9800e+00	




#DATA BEGINS
time	group	step	mark	flag	A-AC1	A-AC2	A-AC3	A-AC4	A-AC5	A-AC6	A-AC7	A-AC8	A-AC9	A-AC10	A-AC11	A-AC12	A-AC13	A-AC14	A-AC15	A-AC16	A-DC1	A-DC2	A-DC3	A-DC4	A-DC5	A-DC6	A-DC7	A-DC8	A-DC9	A-DC10	A-DC11	A-DC12	A-DC13	A-DC14	A-DC15	A-DC16	A-Ph1	A-Ph2	A-Ph3	A-Ph4	A-Ph5	A-Ph6	A-Ph7	A-Ph8	A-Ph9	A-Ph10	A-Ph11	A-Ph12	A-Ph13	A-Ph14	A-Ph15	A-Ph16	B-AC1	B-AC2	B-AC3	B-AC4	B-AC5	B-AC6	B-AC7	B-AC8	B-AC9	B-AC10	B-AC11	B-AC12	B-AC13	B-AC14	B-AC15	B-AC16	B-DC1	B-DC2	B-DC3	B-DC4	B-DC5	B-DC6	B-DC7	B-DC8	B-DC9	B-DC10	B-DC11	B-DC12	B-DC13	B-DC14	B-DC15	B-DC16	B-Ph1	B-Ph2	B-Ph3	B-Ph4	B-Ph5	B-Ph6	B-Ph7	B-Ph8	B-Ph9	B-Ph10	B-Ph11	B-Ph12	B-Ph13	B-Ph14	B-Ph15	B-Ph16	aux-1	digaux	

7897.917	1	1	0	512	0.067142	0.045166	0.27496	0.23863	0.24123	0.063296	0.11775	0.11261	0.080253	0.25392	0.15768	0.32364	0.072034	0.074262	0.25525	0.10153	-1.2875	-1.9979	-1.6729	-1.6604	-2.3937	-1.4438	-1.9646	-2.0646	-1.6542	-2.15	-2.0812	-1.7375	-2.2438	-1.6417	-1.825	-2.0771	404.562	70.102	81.986	356.917	383.085	275.435	344.284	324.835	301.679	362.973	324.717	368.729	107.799	296.105	108.414	158.781	0.0012225	0.00025718	0.0002051	578.59	5.7094e-06	3.7144e-06	883.17	173.81	1.8874e-06	2.1816e-06	362.25	144.01	64.479	23.719	3.1379e-06	64.003	0.00038937	0.00038276	0.00012326	593.3	4.2862e-06	4.242e-06	884.06	178.47	4.2063e-06	4.4041e-06	359.69	140.63	66.016	24.361	5.0159e-06	62.096	78.094	180.497	181.236	70.284	262.315	163.985	71.078	76.166	199.622	163.472	76.399	81.491	81.532	86.586	141.084	85.312	-8191	255	
7898.013	1	1	0	0	0.094544	0.099825	0.26343	0.10829	0.092734	0.062331	0.26461	0.2091	0.10514	0.14042	0.06636	0.031612	0.31247	0.22452	0.0068056	0.16848	-1.1958	-2.1312	-1.8042	-1.7687	-2.2375	-1.6187	-2.1771	-2.3021	-1.7021	-2.2313	-2.2062	-1.45	-2.2771	-1.9208	-1.7875	-2.2458	211.310	212.057	323.620	193.284	110.209	395.909	346.122	131.379	235.187	333.716	61.898	371.589	261.679	89.947	285.760	293.360	0.0013582	0.0006063	9.9005e-05	581.42	3.8906e-06	1.8022e-06	890.16	174.99	3.3692e-06	3.5369e-06	364.1	144.23	64.972	23.733	6.3283e-06	64.442	0.0004	0.00042225	0.0001289	594.26	4.3009e-06	4.6446e-06	889.13	179.38	4.1507e-06	4.6542e-06	360.91	140.66	66.143	24.62	4.8e-06	62.387	82.105	120.766	256.850	70.194	138.324	142.043	70.936	76.004	118.100	228.041	76.199	81.256	81.705	86.610	279.120	85.357	-8191	255	
7898.109	1	1	0	0	0.075191	0.2849	0.16147	0.14366	0.12339	0.1706	0.21407	0.18391	0.22279	0.043739	0.015419	0.21396	0.14215	0.082477	0.091776	0.18704	-1.2458	-1.9979	-1.8167	-1.7042	-2.3625	-1.8729	-1.9521	-2.4688	-1.4104	-1.9625	-2.1458	-1.6479	-2.2333	-1.6833	-1.6313	-2.4479	75.571	365.734	148.535	405.303	132.587	300.484	280.759	313.661	404.168	258.858	352.875	59.934	397.095	243.402	107.617	385.963	0.0013914	0.00068899	1.5593e-05	583.68	6.8021e-06	4.4515e-06	884.31	175.59	5.6691e-06	2.6413e-06	362.49	144.87	65.283	23.651	3.1407e-06	64.251	0.00038774	0.0004319	0.00012154	593.19	4.228e-06	4.8085e-06	885.28	179.19	4.2595e-06	5.0514e-06	360.2	141.05	66.607	24.978	4.8808e-06	62.361	80.089	100.800	226.710	70.316	217.229	217.756	71.054	76.026	172.416	277.178	76.585	81.306	81.542	86.863	254.954	85.440	-8191	255	
7898.205	1	1	0	0	0.25773	0.064544	0.092171	0.29664	0.052634	0.092463	0.21277	0.3755	0.11743	0.12547	0.11139	0.19548	0.07724	0.20276	0.16867	0.18164	-1.0854	-2.1958	-1.8062	-1.6771	-2.0458	-2.1396	-1.7062	-2.2042	-1.7437	-1.8625	-2.2708	-1.5667	-2.1979	-2.0542	-1.6729	-2.2	189.381	92.602	217.336	86.598	267.408	297.164	344.417	359.819	110.158	367.174	362.104	153.380	331.536	149.855	213.972	403.057	0.001283	0.00028695	5.8328e-05	585.02	4.2429e-06	3.5626e-06	886.27	175.27	1.4457e-05	6.5488e-06	361.95	145.25	65.481	24.039	3.8958e-06	64.496	0.00042753	0.00047863	0.00012607	594.9	4.8151e-06	5.3713e-06	885.69	179.47	4.8614e-06	5.4043e-06	360.53	141.54	68.182	25.358	5.0942e-06	62.811	96.008	136.655	346.137	70.631	233.431	405.595	70.730	76.377	200.555	321.695	76.530	81.293	81.427	86.488	206.063	85.142	-8191	255	
7898.324	1	1	0	0	0.060241	0.17571	0.30275	0.060853	0.17046	0.23811	0.29229	0.29893	0.16548	0.017611	0.15085	0.31819	0.17292	0.15768	0.19892	0.22657	-1.4333	-1.5083	-2.125	-1.6792	-1.9354	-2.0438	-1.6437	-2.2792	-1.9021	-1.7854	-2.4021	-1.8042	-1.9021	-2.1083	-1.5938	-2.1229	132.649	184.695	88.596	375.108	347.392	69.754	408.350	339.029	108.517	396.472	414.479	312.395	73.795	139.391	382.802	95.804	0.0011539	0.00036901	0.00011663	580.26	6.5233e-06	8.3029e-07	884.35	174.87	1.4836e-05	1.3424e-06	364.25	144.91	65.58	24.095	7.9982e-06	64.717	0.00048764	0.00049587	0.00012908	595.61	5.3571e-06	5.4694e-06	887.47	180.27	5.3762e-06	5.401e-06	361.48	142.2	68.639	25.234	4.8979e-06	63.011	94.056	403.536	193.869	70.521	207.642	153.678	70.933	76.371	154.321	313.502	76.475	81.161	81.270	86.674	332.812	85.509	-8191	255	
7898.397	1	1	0	0	0.1649	0.12389	0.23336	0.11172	0.16039	0.24397	0.12732	0.23701	0.095584	0.17865	0.040425	0.25147	0.15093	0.22471	0.37823	0.43022	-1.35	-1.7958	-2.1854	-1.6333	-1.9333	-1.8396	-1.8354	-2.3667	-1.7062	-1.8854	-2.2438	-1.5521	-2.0563	-1.9729	-1.6187	-2.3521	307.979	303.650	274.128	223.013	74.019	248.693	284.514	390.820	129.503	177.469	164.522	354.241	148.990	256.646	240.392	337.777	0.0013982	0.0011309	6.1554e-05	585.38	1.0742e-05	2.8147e-06	884.01	175.02	8.863e-06	3.3054e-06	366.5	146.27	65.705	24.217	4.6984e-06	65.064	0.00051159	0.00048264	0.00012827	599.26	5.6221e-06	5.3388e-06	885.67	181.96	5.7119e-06	5.2737e-06	362.97	143.83	69.732	25.449	5.0195e-06	63.84	81.151	318.579	101.509	70.635	148.030	268.222	71.086	76.369	203.584	173.281	76.766	81.288	81.516	86.709	126.114	85.388	-8191	255	
7898.494	1	1	0	0	0.032237	0.10968	0.13308	0.13084	0.2418	0.20098	0.35418	0.34401	0.12313	0.024208	0.049691	0.1027	0.27351	0.23604	0.21708	0.1021	-1.4292	-1.65	-2.2292	-1.8479	-1.6833	-2.0625	-1.9729	-2.1771	-1.9979	-1.7667	-2.35	-1.8208	-1.8917	-2.3979	-1.4208	-2.25	231.400	261.593	303.387	389.263	297.849	81.691	324.198	398.846	103.554	104.944	402.305	60.919	327.567	279.730	109.883	403.136	0.0015263	0.00090206	3.2725e-05	585.25	5.5262e-06	7.8835e-06	885.94	176.73	2.4665e-06	1.9584e-06	364.74	146.83	65.782	24.147	5.2434e-06	65.376	0.0005435	0.00047787	0.00012834	603.41	5.6711e-06	5.1332e-06	885.66	182.99	5.503e-06	4.9314e-06	361.97	144.12	68.949	25.127	4.5839e-06	63.744	78.864	74.591	92.474	70.725	98.449	301.158	71.164	75.983	301.736	202.328	76.814	81.487	81.375	87.020	215.092	85.373	-8191	255	
7898.612	1	1	0	0	0.19986	0.11987	0.087669	0.10183	0.24349	0.37552	0.27776	0.019749	0.19883	0.24274	0.13566	0.25831	0.28383	0.26994	0.11786	0.23697	-1.4771	-1.5812	-2.1729	-1.85	-1.6917	-2.1958	-1.6729	-1.9458	-2.1875	-1.6167	-2.3979	-1.9271	-1.6167	-2.2938	-1.65	-2.0625	125.523	277.720	413.443	317.225	386.649	108.400	78.138	241.669	333.156	165.470	178.920	347.633	411.349	247.886	125.184	385.081	0.0013741	0.00043493	6.8811e-05	586.39	1.2695e-05	7.4505e-06	884.96	176.85	6.0906e-06	1.8572e-06	366.01	146.25	65.639	24.113	1.1241e-05	65.184	0.0004854	0.0004265	0.00011812	602.18	5.0555e-06	4.7353e-06	884.54	183.25	5.1285e-06	4.6976e-06	361.9	144.28	68.362	25.04	4.7889e-06	63.678	82.530	173.321	73.380	70.685	314.898	204.381	71.054	76.386	292.137	269.082	76.506	81.524	81.994	86.533	277.300	85.340	-8191	255	
7898.709	1	1	0	0	0.071016	0.23105	0.18292	0.18863	0.36466	0.10065	0.31893	0.36892	0.26843	0.22484	0.41507	0.24665	0.25141	0.21346	0.047687	0.10624	-1.7021	-1.5042	-2.1937	-2.1167	-1.6187	-2.3583	-1.8458	-1.9875	-2.2708	-1.6562	-2.1208	-2.2729	-1.8396	-2.2021	-1.6208	-2.0312	132.536	355.917	125.027	272.607	307.588	415.938	289.717	390.024	259.386	103.754	334.439	384.377	99.422	86.419	144.957	227.600	0.0014131	0.00050556	0.00014422	581.74	4.645e-06	1.7393e-06	883.93	176.45	5.4118e-06	6.2926e-06	364.68	145.04	65.235	23.92	1.9454e-05	64.34	0.00047682	0.00042901	0.00012636	605.06	5.059e-06	4.7765e-06	885.03	182.92	5.0214e-06	4.6906e-06	361.35	143.71	67.82	24.818	5.2763e-06	63.398	109.206	105.889	79.932	70.469	98.088	88.573	70.987	76.325	115.244	206.996	76.444	81.322	81.653	86.908	190.504	85.470	-8191	255	
7898.805	1	1	0	0	0.039783	0.3051	0.22935	0.19611	0.11483	0.22493	0.20787	0.22278	0.044478	0.13864	0.15194	0.2207	0.21882	0.26397	0.12698	0.13161	-1.6833	-1.2313	-2.2354	-2.0833	-1.6458	-2.3896	-1.8875	-1.8979	-2.2812	-1.6333	-2.2146	-1.9	-1.5667	-2.3542	-1.8521	-1.8167	91.615	110.249	159.315	363.617	369.376	106.244	328.371	314.800	186.585	210.787	159.215	175.182	114.509	126.752	289.146	371.901	0.0014166	0.0008993	0.00025161	580.24	4.4313e-06	4.4502e-06	881.27	176.27	6.6859e-06	2.0248e-06	366.07	145.67	65.846	24.087	5.946e-06	64.972	0.00047934	0.00044281	0.00013982	605.52	5.1011e-06	4.9604e-06	890.57	184.15	5.1858e-06	4.889e-06	365.52	144.02	68.003	24.968	5.5568e-06	63.329	83.090	218.362	110.511	70.518	190.148	176.164	70.951	76.081	104.225	261.523	76.302	81.435	81.551	86.599	219.838	85.278	-8191	255	
7898.925	1	1	0	0	0.40128	0.12558	0.082047	0.25754	0.18295	0.12152	0.092223	0.23364	0.20101	0.30742	0.074019	0.35494	0.13645	0.1905	0.14206	0.35179	-1.8771	-1.6729	-1.9229	-1.9979	-1.7146	-2.1208	-1.9479	-1.7062	-2.3583	-1.6313	-2.1271	-2.0021	-1.6583	-2.0646	-1.9604	-1.6875	169.391	373.639	124.162	316.529	248.537	244.102	377.768	324.473	304.963	253.436	175.972	316.247	102.310	173.566	394.426	316.926	0.0011696	0.00053875	0.00017291	580.19	6.2437e-06	5.5692e-06	887.3	175.05	1.5826e-06	9.31e-06	364.74	145.8	66.383	24.063	6.7576e-06	65.092	0.00044894	0.0004212	0.00013713	599.17	4.6252e-06	4.6496e-06	891.48	181.07	4.5502e-06	4.6097e-06	363.78	143.02	67.419	24.915	5.1728e-06	63.161	82.546	149.309	127.554	70.458	183.391	161.465	71.243	76.194	366.501	223.195	76.439	81.380	81.418	86.600	250.457	85.495	-8191	255	
7898.997	1	1	0	0	0.17005	0.21024	0.091098	0.1705	0.15072	0.09365	0.25828	0.42354	0.1763	0.31886	0.13777	0.14346	0.3687	0.23995	0.24829	0.16263	-1.8813	-1.4417	-1.9292	-2.2271	-1.6021	-2.0354	-2.125	-1.6417	-2.2854	-1.6187	-1.8833	-2.3104	-1.5854	-2.0583	-2.0042	-1.5688	371.038	328.597	82.781	150.330	149.820	400.945	86.249	356.257	216.029	233.554	96.921	65.115	182.193	126.255	192.948	329.862	0.0012487	0.00062331	4.4589e-05	578.33	2.5086e-06	2.9734e-06	885.18	176.43	7.1689e-06	8.424e-06	368.68	146.79	65.842	24.197	1.0096e-05	65.377	0.00041182	0.00042227	0.00013207	595.59	4.3439e-06	4.7674e-06	890.57	180.93	4.434e-06	4.8225e-06	364.59	143.07	67.202	25.218	5.1732e-06	63.392	83.042	152.108	246.468	70.515	211.600	102.181	71.022	76.507	102.363	251.111	76.789	81.498	82.065	86.701	104.747	85.090	-8191	255	
7899.093	1	1	0	0	0.3431	0.1787	0.22667	0.056582	0.10166	0.10719	0.21189	0.28912	0.19339	0.15803	0.2319	0.19439	0.1305	0.30101	0.21204	0.14339	-1.8208	-1.8	-1.9042	-2.3125	-1.725	-2.1562	-2.1417	-1.4625	-2.2979	-1.8333	-1.8604	-2.3208	-1.7271	-2.0375	-1.7792	-1.6625	222.303	109.394	63.799	124.085	244.795	386.633	333.966	380.393	139.363	264.778	366.861	282.867	96.291	378.325	129.891	397.323	0.0013976	0.00032437	0.00013752	585.6	4.3861e-06	3.9283e-06	888.45	177.38	6.8237e-06	2.7862e-07	366.82	146.58	65.593	24.175	2.7374e-06	65.28	0.00042093	0.00047159	0.00013295	600.03	4.6139e-06	5.3189e-06	894.04	181.87	4.7037e-06	5.4157e-06	364.4	143.18	67.739	25.382	5.0842e-06	63.168	78.829	175.277	271.909	70.407	206.187	244.075	70.730	75.821	130.336	341.013	76.727	81.253	81.410	86.880	124.073	85.070	-8191	255	
7899.214	1	1	0	0	0.21095	0.20492	0.10185	0.092133	0.28264	0.27682	0.070286	0.12665	0.17619	0.10268	0.28985	0.25305	0.31061	0.13495	0.18031	0.28772	-1.7792	-1.8792	-1.6771	-2.2396	-1.6229	-1.9333	-2.3646	-1.7271	-2.0167	-2.1875	-1.7938	-2.4146	-1.6854	-2.0292	-2.2062	-1.7125	376.078	328.747	359.482	395.154	195.054	173.686	313.843	116.065	236.115	354.359	71.051	416.413	377.811	374.176	395.102	336.630	0.0014463	0.00024756	0.00019788	581.48	9.3309e-06	5.1389e-06	883.55	175.71	5.9418e-06	1.3831e-06	365.43	145.34	65.664	23.921	4.2229e-06	64.715	0.00043337	0.00048272	0.00012327	593.74	4.5734e-06	5.1033e-06	883.19	179	4.5631e-06	5.0671e-06	358.95	141.27	67.332	24.937	4.6695e-06	62.469	83.596	194.240	141.093	70.291	198.501	83.009	70.643	76.404	158.974	155.018	76.600	81.522	81.278	86.500	412.328	85.308	-8191	255	
7899.308	1	1	0	0	0.055958	0.14651	0.17112	0.045203	0.21292	0.1909	0.15741	0.094894	0.14	0.097556	0.073425	0.22781	0.1844	0.18082	0.085493	0.23064	-1.7125	-1.8875	-1.6063	-2.1729	-1.7833	-1.7042	-2.2792	-1.4813	-2.0938	-1.9375	-1.6896	-2.0917	-1.8292	-1.6271	-2.2938	-1.8021	292.604	224.414	263.655	357.247	193.991	87.348	399.647	389.220	347.738	308.019	222.985	398.345	337.417	377.513	171.735	327.284	0.00162	0.00067311	0.00012734	582.19	5.1928e-06	5.7623e-06	883.19	176.97	7.3263e-06	4.737e-06	364.73	145.56	66.117	24.155	7.8978e-06	65.125	0.00044671	0.00046353	0.00011788	591.87	4.9129e-06	5.1297e-06	883.26	180.11	5.0831e-06	5.2039e-06	360.28	142.26	68.784	25.276	4.996e-06	63.324	85.726	406.683	139.504	70.277	173.167	121.220	70.802	76.078	170.546	158.525	76.624	81.218	81.684	86.676	156.994	85.428	-8191	255	
7899.404	1	1	0	0	0.2011	0.10048	0.12307	0.18892	0.32204	0.069773	0.22015	0.26597	0.21782	0.27824	0.40469	0.13503	0.23153	0.19823	0.10085	0.20446	-1.6375	-2.0146	-1.4229	-2.3292	-1.8125	-1.6104	-2.2646	-1.8042	-2.0271	-2.0667	-1.6979	-2.2313	-2.0667	-1.6833	-2.2167	-1.7875	128.918	411.280	142.417	335.731	103.228	221.992	376.011	295.585	245.075	276.172	68.106	117.948	354.534	400.398	239.252	61.021	0.00102	0.00064011	0.00016858	583.54	8.7197e-06	4.1563e-06	885.06	176.85	5.3388e-06	6.2518e-06	366.47	147.54	66.56	24.252	4.2933e-06	65.209	0.00050919	0.0004903	0.0001257	598.87	5.6548e-06	5.3473e-06	888.44	182.72	5.8123e-06	5.4283e-06	363.14	144.16	69.993	25.359	4.9931e-06	63.643	77.167	234.710	186.790	70.675	157.799	131.634	71.004	75.959	150.100	89.252	76.410	81.311	81.437	86.727	255.812	85.244	-8191	255	
7899.500	1	1	0	0	0.12346	0.060243	0.25285	0.26405	0.16868	0.13401	0.24764	0.18226	0.099526	0.30874	0.22919	0.15489	0.12122	0.087952	0.32137	0.34101	-1.4896	-2.1292	-1.2958	-2.2313	-1.9021	-1.7396	-2.3146	-1.8104	-1.6104	-2.1958	-1.8813	-2.3771	-1.8875	-1.8229	-2.2083	-1.9167	121.563	83.466	233.822	407.207	211.292	281.746	309.840	74.580	345.839	235.653	85.255	285.843	96.622	349.903	262.423	354.229	0.0012955	0.00048022	0.00014038	584.51	5.1704e-06	5.3006e-06	885.82	179.33	7.1815e-06	6.4745e-07	369.72	148.18	66.867	24.409	3.9044e-06	66.026	0.00052586	0.0004819	0.00012602	602.89	5.7176e-06	5.1642e-06	887.24	184.51	5.6599e-06	5.2344e-06	364.97	145.4	70.064	25.4	4.9963e-06	64.522	88.644	196.578	340.314	70.454	413.631	180.703	70.979	76.252	188.018	238.498	76.822	81.275	81.827	86.486	161.843	85.512	-8191	255	
7899.574	1	1	0	0	0.20981	0.20894	0.13264	0.20565	0.1166	0.23021	0.065717	0.20013	0.34377	0.11989	0.17466	0.38854	0.44093	0.046321	0.040449	0.30548	-1.2646	-2.1458	-1.6896	-1.9688	-2.0604	-1.7229	-2.2562	-1.8042	-1.9083	-2.2146	-1.8396	-2.1813	-2.0938	-1.5812	-2.1771	-1.8396	105.562	349.466	234.951	281.017	75.958	298.793	369.414	106.451	298.281	129.340	303.963	402.432	379.134	275.822	190.340	373.846	0.0014404	0.00057519	0.00021818	589.03	2.9495e-06	2.5145e-06	895.16	179.03	3.1021e-06	4.3255e-06	368.98	148.69	66.206	24.555	1.1926e-05	66.134	0.0005212	0.00047777	0.00012649	608.98	5.6213e-06	5.1104e-06	890.76	186.39	5.4255e-06	5.1087e-06	366.04	146.8	69.61	25.407	5.0303e-06	64.783	93.054	155.496	194.009	70.723	117.751	313.858	71.206	76.504	366.608	230.365	76.242	81.246	81.702	86.564	274.828	85.234	-8191	255	
