BOXY.EXE: ISS Imagent and Oximeter Data Acquisition Program Version 0.80
Ascii Record File

#ACQ INFORMATION
2  Detector Channels 
16  External MUX Channels 
1  Auxiliary Channels 
5000  Waveform (CCF) Frequency (Hz)
1  Waveforms Skipped 
30  Waveforms Averaged 
1  Cycles Averaged 
16  Acquisitions per Waveform 
10.0806  Updata Rate (Hz) 

#FILE INFORMATION
TRUE -- External MUX Channel results are PARSED.
FALSE -- AC DC and Phase are NOT grouped.
TRUE -- Companion Program Settings File CREATED.
FALSE -- AC data not excluded
FALSE -- DC data not excluded
FALSE -- Phase data not excluded
FALSE -- Auxillary Chn. data not excluded
Tab delimiters

#CALIBRATION STATE
TRUE -- Waveform Calibration Values APPLIED.


#AUX CALIBRATION VALUES
Val Type	aux-1	

Term	1.0000e+00	
Factor	0.0000e+00	


#WF CALIBRATION VALUES
A = Detector Channel
Val Type	A-AC1	A-AC2	A-AC3	A-AC4	A-AC5	A-AC6	A-AC7	A-AC8	A-AC9	A-AC10	A-AC11	A-AC12	A-AC13	A-AC14	A-AC15	A-AC16	A-DC1	A-DC2	A-DC3	A-DC4	A-DC5	A-DC6	A-DC7	A-DC8	A-DC9	A-DC10	A-DC11	A-DC12	A-DC13	A-DC14	A-DC15	A-DC16	A-Ph1	A-Ph2	A-Ph3	A-Ph4	A-Ph5	A-Ph6	A-Ph7	A-Ph8	A-Ph9	A-Ph10	A-Ph11	A-Ph12	A-Ph13	A-Ph14	A-Ph15	A-Ph16	

Term	0.00000e+00	0.00000e+00	0.00000e+00	0.00000e+00	0.00000e+00	0.00000e+00	0.00000e+00	0.00000e+00	0.00000e+00	0.00000e+00	0.00000e+00	0.00000e+00	0.00000e+00	0.00000e+00	0.00000e+00	0.00000e+00	0.00000e+00	0.00000e+00	0.00000e+00	0.00000e+00	0.00000e+00	0.00000e+00	0.00000e+00	0.00000e+00	0.00000e+00	0.00000e+00	0.00000e+00	0.00000e+00	0.00000e+00	0.00000e+00	0.00000e+00	0.00000e+00	0.00000e+00	0.00000e+00	0.00000e+00	0.00000e+00	0.00000e+00	0.00000e+00	0.00000e+00	0.00000e+00	0.00000e+00	0.00000e+00	0.00000e+00	0.00000e+00	0.00000e+00	0.00000e+00	0.00000e+00	0.00000e+00	
Factor	1.00000e+00	1.00000e+00	1.00000e+00	1.00000e+00	1.00000e+00	1.00000e+00	1.00000e+00	1.00000e+00	1.00000e+00	1.00000e+00	1.00000e+00	1.00000e+00	1.00000e+00	1.00000e+00	1.00000e+00	1.00000e+00	1.00000e+00	1.00000e+00	1.00000e+00	1.00000e+00	1.00000e+00	1.00000e+00	1.00000e+00	1.00000e+00	1.00000e+00	1.00000e+00	1.00000e+00	1.00000e+00	1.00000e+00	1.00000e+00	1.00000e+00	1.00000e+00	X	X	X	X	X	X	X	X	X	X	X	X	X	X	X	X	

B = Detector Channel
Val Type	B-AC1	B-AC2	B-AC3	B-AC4	B-AC5	B-AC6	B-AC7	B-AC8	B-AC9	B-AC10	B-AC11	B-AC12	B-AC13	B-AC14	B-AC15	B-AC16	B-DC1	B-DC2	B-DC3	B-DC4	B-DC5	B-DC6	B-DC7	B-DC8	B-DC9	B-DC10	B-DC11	B-DC12	B-DC13	B-DC14	B-DC15	B-DC16	B-Ph1	B-Ph2	B-Ph3	B-Ph4	B-Ph5	B-Ph6	B-Ph7	B-Ph8	B-Ph9	B-Ph10	B-Ph11	B-Ph12	B-Ph13	B-Ph14	B-Ph15	B-Ph16	

Term	0.00000e+00	0.00000e+00	0.00000e+00	0.00000e+00	0.00000e+00	0.00000e+00	0.00000e+00	0.00000e+00	0.00000e+00	0.00000e+00	0.00000e+00	0.00000e+00	0.00000e+00	0.00000e+00	0.00000e+00	0.00000e+00	0.00000e+00	0.00000e+00	0.00000e+00	0.00000e+00	0.00000e+00	0.00000e+00	0.00000e+00	0.00000e+00	0.00000e+00	0.00000e+00	0.00000e+00	0.00000e+00	0.00000e+00	0.00000e+00	0.00000e+00	0.00000e+00	-2.02558e+02	-1.16413e+02	-1.30120e+02	-1.82161e+02	-9.57707e+01	-1.01369e+02	-1.59306e+02	-1.62015e+02	-1.14350e+02	-5.77035e+01	-1.70639e+02	-1.72301e+02	-1.77500e+02	-1.76674e+02	-5.36760e+01	-1.49496e+02	
Factor	4.10936e-05	9.52974e-05	2.49006e-05	1.49428e-01	8.83243e-07	8.91524e-07	1.68800e-01	4.93801e-02	1.17695e-06	7.15398e-07	8.34437e-02	2.98807e-02	2.54106e-02	8.75613e-03	1.20421e-06	1.26828e-02	6.26555e-07	6.35961e-07	1.78841e-07	7.42432e-02	6.95763e-09	6.96690e-09	7.86376e-02	2.43642e-02	6.96256e-09	6.98071e-09	3.91092e-02	1.39300e-02	1.23175e-02	4.23067e-03	7.03845e-09	5.88851e-03	X	X	X	X	X	X	X	X	X	X	X	X	X	X	X	X	



#DISTANCE SETTINGS
A = Detector Channel
A-1	A-2	A-3	A-4	A-5	A-6	A-7	A-8	A-9	A-10	A-11	A-12	A-13	A-14	A-15	A-16	

2.5000e+00	3.0000e+00	2.5000e+00	3.0000e+00	2.0000e+00	3.0000e+00	1.5000e+00	3.0000e+00	3.0000e+00	3.0000e+00	3.0000e+00	3.0000e+00	3.0000e+00	3.0000e+00	1.5000e+00	3.0000e+00	

B = Detector Channel
B-1	B-2	B-3	B-4	B-5	B-6	B-7	B-8	B-9	B-10	B-11	B-12	B-13	B-14	B-15	B-16	

1.0000e+01	1.0000e+01	1.0000e+01	1.4400e+00	1.0000e+01	1.0000e+01	1.5100e+00	1.9400e+00	1.0000e+01	1.0000e+01	1.9900e+00	2.4900e+00	2.4100e+00	2.9000e+00	1.0000e+01	2.9800e+00	




#DATA BEGINS
time	group	step	mark	flag	A-AC1	A-AC2	A-AC3	A-AC4	A-AC5	A-AC6	A-AC7	A-AC8	A-AC9	A-AC10	A-AC11	A-AC12	A-AC13	A-AC14	A-AC15	A-AC16	A-DC1	A-DC2	A-DC3	A-DC4	A-DC5	A-DC6	A-DC7	A-DC8	A-DC9	A-DC10	A-DC11	A-DC12	A-DC13	A-DC14	A-DC15	A-DC16	A-Ph1	A-Ph2	A-Ph3	A-Ph4	A-Ph5	A-Ph6	A-Ph7	A-Ph8	A-Ph9	A-Ph10	A-Ph11	A-Ph12	A-Ph13	A-Ph14	A-Ph15	A-Ph16	B-AC1	B-AC2	B-AC3	B-AC4	B-AC5	B-AC6	B-AC7	B-AC8	B-AC9	B-AC10	B-AC11	B-AC12	B-AC13	B-AC14	B-AC15	B-AC16	B-DC1	B-DC2	B-DC3	B-DC4	B-DC5	B-DC6	B-DC7	B-DC8	B-DC9	B-DC10	B-DC11	B-DC12	B-DC13	B-DC14	B-DC15	B-DC16	B-Ph1	B-Ph2	B-Ph3	B-Ph4	B-Ph5	B-Ph6	B-Ph7	B-Ph8	B-Ph9	B-Ph10	B-Ph11	B-Ph12	B-Ph13	B-Ph14	B-Ph15	B-Ph16	aux-1	digaux	

6692.890	1	1	0	256	0.1659	0.10283	0.20944	0.30795	0.1405	0.10561	0.11814	0.28853	0.11654	0.095316	0.10503	0.2469	0.24211	0.33554	0.10445	0.10559	-1.3687	-2.0042	-2.1229	-1.7188	-2.25	-1.7667	-1.9042	-2.3563	-1.6146	-2.0646	-2.2375	-1.7729	-2.3146	-2.0896	-1.6979	-2.5083	239.207	121.092	301.295	401.902	192.790	346.989	85.384	389.859	286.055	114.841	312.231	106.622	299.614	140.451	399.805	129.704	0.0010862	0.00093107	0.0001556	1308.9	1.3965e-05	5.2715e-06	1306.2	359.31	1.1637e-05	6.9253e-06	409.19	136.8	118.89	40.254	7.1098e-06	50.508	0.00063302	0.00071538	0.00019324	1346.4	6.8939e-06	7.9694e-06	1353.5	371.6	7.1592e-06	8.0764e-06	429.85	142.92	124.02	43.111	7.6022e-06	53.126	82.861	218.724	401.201	64.546	190.627	217.500	64.391	69.375	149.423	213.053	68.732	72.892	73.555	78.319	122.328	77.537	-8191	255	
6692.986	1	1	0	0	0.1356	0.23993	0.1321	0.16514	0.15359	0.20672	0.25205	0.25722	0.21697	0.34826	0.19252	0.12076	0.058451	0.068862	0.18713	0.39063	-1.1021	-1.7938	-2.1208	-1.8646	-2.0438	-2.1021	-1.8333	-2.6396	-1.8625	-1.7667	-2.2292	-1.6	-2.1167	-2.1396	-1.7083	-2.4396	408.482	147.073	190.503	58.929	378.047	214.549	369.610	353.587	166.354	180.848	315.472	167.996	407.633	281.578	145.986	316.958	0.0014063	0.0008603	6.2132e-05	1308.4	1.1018e-05	1.0147e-06	1308.9	358.81	1.2804e-05	1.5125e-06	412.16	137.57	118.9	40.544	4.8721e-06	50.681	0.00068073	0.00074005	0.00019122	1344.5	7.3903e-06	8.0167e-06	1351.8	370.62	7.4628e-06	7.8663e-06	428.28	142.51	124.35	42.877	7.1253e-06	52.849	81.208	373.682	159.007	64.576	183.700	309.670	64.488	69.478	225.011	235.657	68.682	73.281	73.944	78.205	409.110	77.199	-8191	255	
6693.083	1	1	0	0	0.065479	0.22252	0.10981	0.22542	0.10407	0.11361	0.49661	0.11753	0.38712	0.19779	0.10144	0.071512	0.24423	0.13305	0.12703	0.1388	-1.2479	-2	-2.0729	-1.6833	-2.1042	-1.9833	-1.8354	-2.4604	-1.7667	-1.6688	-2.2875	-1.6625	-1.9354	-2.1312	-1.4312	-2.2812	402.151	72.428	60.925	360.965	282.847	369.533	368.044	91.530	380.463	328.154	129.587	111.003	287.524	113.962	146.374	56.554	0.0011218	0.0003854	6.8369e-05	1309.4	1.1566e-05	5.585e-06	1310.4	358.93	3.9377e-06	4.3403e-06	408.86	138.26	118.76	40.519	1.2556e-06	50.464	0.00069011	0.00069111	0.00017856	1340.6	7.4683e-06	7.4399e-06	1344.4	369.43	7.4992e-06	7.2492e-06	424.08	142.12	124.46	42.594	6.6943e-06	52.701	68.850	316.440	137.951	64.389	162.281	137.816	64.485	69.286	184.382	90.041	68.931	73.391	73.670	78.284	293.593	77.589	-8191	255	
6693.179	1	1	0	0	0.08312	0.17288	0.14085	0.25988	0.30285	0.070073	0.16124	0.23931	0.28025	0.10271	0.1272	0.2316	0.24435	0.41051	0.041649	0.19421	-1.4479	-1.6708	-2.2354	-1.7938	-1.9646	-2.0542	-1.75	-2.2083	-2.0958	-1.5562	-2.3333	-1.8813	-2.0125	-2.2167	-1.4062	-2.1083	294.995	247.160	339.524	84.057	303.978	400.200	62.142	405.166	368.300	172.129	342.859	397.045	392.507	55.924	273.831	58.642	0.000945	0.00072983	0.00010961	1307.5	5.374e-07	3.5064e-06	1302.3	358.2	1.2269e-05	1.2111e-06	409.37	136.74	118.47	40.691	1.0875e-05	50.358	0.00068814	0.00064435	0.00016882	1339.6	7.5175e-06	6.982e-06	1337.8	369.79	7.499e-06	6.9347e-06	422.27	142.18	124.23	42.393	6.5273e-06	53.032	82.483	399.253	189.965	64.622	205.712	203.717	64.551	69.540	201.779	166.315	68.854	73.288	73.759	78.204	149.855	77.574	-8191	255	
6693.299	1	1	0	0	0.11805	0.24625	0.27042	0.17005	0.087896	0.22715	0.22897	0.24409	0.11122	0.29528	0.17481	0.23308	0.066016	0.20923	0.18507	0.077464	-1.5979	-1.6917	-2.5333	-1.8646	-1.9646	-2.2062	-1.7938	-2.2354	-2.1646	-1.5875	-2.4792	-1.8563	-2.0042	-2.3667	-1.525	-2.325	390.030	173.622	229.857	57.511	376.408	118.358	348.435	371.798	190.220	273.627	73.475	310.919	391.416	99.152	108.869	355.481	0.00083802	0.00063698	0.0001346	1301.6	4.1671e-06	5.8418e-06	1299.9	358.51	1.0608e-06	7.0934e-06	407.2	137.06	118.96	40.504	1.0615e-05	50.619	0.0006776	0.00062295	0.00016305	1339.2	7.3887e-06	6.8144e-06	1334.4	370.68	7.3426e-06	6.7921e-06	420.93	143.1	123.85	42.3	6.4758e-06	53.397	92.271	314.544	161.504	64.739	250.058	304.324	64.578	69.547	280.529	119.032	68.865	73.282	73.852	78.306	228.589	77.382	-8191	255	
6693.395	1	1	0	0	0.15748	0.22165	0.19229	0.37748	0.20295	0.33926	0.47412	0.26574	0.15855	0.29009	0.12461	0.30035	0.13167	0.20607	0.071118	0.14714	-1.6208	-1.6542	-2.0604	-1.9833	-1.5396	-2.1729	-1.9521	-2.1396	-1.95	-1.7104	-2.3063	-1.9042	-1.6938	-2.2021	-1.6896	-2.1583	145.055	368.396	166.628	335.079	313.557	329.694	317.916	346.102	59.898	235.882	242.062	374.843	341.776	69.484	209.873	132.349	0.00088482	0.00015061	0.00012692	1301.8	3.1112e-06	6.4393e-06	1301.7	357.75	2.0032e-06	2.1607e-06	410.27	137.24	118.71	40.249	5.5571e-06	50.521	0.00065733	0.00060349	0.00016456	1341.3	7.0108e-06	6.4951e-06	1331.3	371.12	6.9192e-06	6.4834e-06	422.1	143.42	123.26	42.026	6.6514e-06	53.347	89.637	146.334	164.531	64.803	78.074	193.466	64.492	69.277	356.802	330.295	68.752	73.019	73.702	78.434	246.867	77.663	-8191	255	
6693.490	1	1	0	0	0.26699	0.028641	0.28275	0.14348	0.078895	0.043857	0.20046	0.29367	0.10326	0.084559	0.13321	0.062058	0.24437	0.057295	0.24567	0.29119	-1.4813	-1.5146	-2.1854	-2.0396	-1.5896	-2.2458	-1.825	-1.8667	-2.1208	-1.5187	-2.2021	-2.2146	-1.7771	-2.3417	-1.7563	-2.2146	411.283	333.684	159.917	352.040	295.653	356.551	382.057	361.062	244.023	228.592	322.842	363.200	326.778	367.184	89.891	410.794	0.001034	0.00019754	0.00029046	1297.8	1.0224e-05	9.9082e-06	1300.2	358.09	7.1271e-06	5.7727e-07	411.57	137.17	119	40.498	1.5019e-05	50.585	0.00062639	0.00058935	0.00017188	1341.4	6.8638e-06	6.4451e-06	1339.2	371.75	6.8516e-06	6.5185e-06	425.72	143.64	123.45	42.072	7.2572e-06	53.479	79.605	183.586	137.579	64.760	247.264	183.517	64.650	69.512	249.176	76.397	68.670	73.212	73.508	78.165	189.916	77.512	-8191	255	
6693.586	1	1	0	0	0.10761	0.28851	0.11306	0.22072	0.10345	0.37845	0.14632	0.12665	0.15416	0.16455	0.090076	0.046962	0.049945	0.091882	0.10232	0.24965	-1.7646	-1.575	-2.0854	-2.1333	-1.5667	-2.3063	-1.7604	-2.0292	-2.2333	-1.5875	-2.075	-2.1688	-1.6313	-2.4271	-1.7167	-2.0354	307.857	184.753	172.258	344.788	284.890	362.710	328.255	249.313	59.124	222.773	357.289	358.080	372.437	260.682	295.627	361.070	0.0010702	0.00014513	0.00022734	1302.8	4.6379e-06	4.4029e-06	1305.3	358.79	2.8381e-06	1.5725e-06	410.43	137.33	119.06	40.566	1.1796e-05	50.358	0.00062734	0.00058995	0.00018636	1344	6.7879e-06	6.4435e-06	1346.3	371.52	6.7402e-06	6.4688e-06	427.51	143.12	123.1	42.195	7.5818e-06	53.274	72.156	110.503	147.265	64.712	112.498	202.970	64.740	69.394	157.148	202.382	68.964	73.199	73.630	78.373	199.470	77.139	-8191	255	
6693.659	1	1	0	0	0.16428	0.3727	0.19591	0.43421	0.44332	0.10351	0.13561	0.34123	0.095978	0.14522	0.28245	0.42571	0.10999	0.2767	0.18645	0.2236	-1.7771	-1.4646	-2.0125	-2.2521	-1.6771	-2.3042	-2.1396	-1.8188	-2.3667	-1.6792	-2.2188	-2.0583	-1.6896	-2.2333	-1.8542	-1.6646	328.119	135.275	219.659	404.645	239.313	75.360	356.565	384.384	258.054	235.787	383.042	376.570	305.346	357.576	189.536	363.202	0.00093248	0.0012065	0.00011858	1299.4	2.8782e-06	4.8668e-06	1304.4	360.09	3.4639e-06	1.0284e-05	412.11	137.49	118.54	40.549	8.787e-06	50.545	0.00061154	0.00061123	0.00019569	1338.6	6.7267e-06	6.7709e-06	1350.5	371.05	6.6806e-06	6.902e-06	429.77	142.89	122.76	42.462	7.7758e-06	53.149	85.517	157.109	111.493	64.625	317.392	241.795	64.351	69.250	55.353	207.980	68.927	73.133	73.706	78.072	265.436	77.285	-8191	255	
6693.778	1	1	0	0	0.16236	0.096361	0.16981	0.14833	0.29929	0.049729	0.29707	0.093053	0.074936	0.38147	0.37691	0.11876	0.15428	0.079869	0.32645	0.1814	-1.8625	-1.7	-1.9667	-2.2521	-1.5312	-2.3146	-2.2062	-2.1104	-2.4125	-1.6208	-2.0167	-2.2167	-1.8125	-2.0625	-2.0458	-1.6292	387.099	277.647	72.011	390.016	253.828	199.163	348.838	394.584	242.753	95.896	376.759	267.921	59.865	96.254	126.485	312.171	0.001131	0.00015334	0.00015766	1296.6	4.2732e-06	7.488e-06	1304.5	358.97	3.8921e-06	8.6163e-06	410.63	136.79	119.37	40.596	4.9251e-06	50.753	0.00060159	0.00064612	0.00019398	1336.2	6.5187e-06	7.0648e-06	1347.4	370.09	6.4101e-06	7.1876e-06	428.09	142.12	122.63	42.739	7.4626e-06	52.918	78.456	83.637	163.452	64.740	218.307	187.110	64.530	69.422	85.741	203.316	68.927	73.088	73.710	78.532	216.885	77.467	-8191	255	
6693.874	1	1	0	0	0.083909	0.071695	0.24596	0.14525	0.23247	0.1563	0.356	0.22511	0.30349	0.0090008	0.2353	0.31525	0.13616	0.37671	0.074755	0.19305	-1.6021	-1.7729	-1.7729	-2.3979	-1.6896	-2.0917	-2.1271	-1.6625	-2.0646	-1.85	-1.9167	-2.3125	-1.7	-1.9604	-1.9396	-1.8771	304.995	301.660	263.761	349.703	256.691	200.018	362.717	410.775	78.597	261.943	319.085	406.472	366.239	67.594	410.776	152.475	0.00102	0.00045306	2.5842e-05	1299.2	7.0354e-06	1.1526e-05	1304.9	359.55	1.2786e-05	7.2114e-06	412.28	136.91	119.13	40.51	7.051e-06	50.61	0.00059106	0.00067607	0.00018751	1334.5	6.5241e-06	7.4008e-06	1343.3	369.65	6.5354e-06	7.5711e-06	427.78	142	122.96	42.814	7.2559e-06	52.828	86.343	222.820	144.068	64.768	149.067	194.268	64.326	69.279	131.713	235.027	69.007	73.304	73.708	78.217	80.962	77.382	-8191	255	
6693.971	1	1	0	0	0.16612	0.15577	0.12287	0.16158	0.22504	0.20831	0.15602	0.50884	0.063288	0.097706	0.27237	0.12682	0.29823	0.35917	0.21053	0.41305	-1.6313	-1.5688	-1.7229	-2.3771	-1.8042	-2.1333	-2.1688	-1.7667	-2.2562	-2.0312	-1.6583	-2.5292	-1.8438	-1.9542	-2.0354	-1.6417	330.414	354.381	339.423	405.956	284.999	366.607	122.413	359.848	176.612	357.521	396.538	217.937	335.842	368.975	184.994	350.994	0.0013164	0.00072779	8.9163e-05	1301	5.7775e-06	3.7486e-06	1300.4	359.1	7.5679e-06	7.7804e-06	410.97	137.57	118.59	40.332	5.5164e-06	50.725	0.00061575	0.00069654	0.00018125	1334	6.8632e-06	7.5964e-06	1339.2	369.07	6.9274e-06	7.6698e-06	426.06	141.76	123.5	42.862	7.0907e-06	52.753	71.389	126.036	331.981	64.808	195.373	150.538	64.523	69.555	192.067	180.684	69.011	73.412	73.961	78.208	58.061	77.528	-8191	255	
6694.067	1	1	0	0	0.247	0.22391	0.09165	0.37221	0.097612	0.2858	0.23662	0.46118	0.082693	0.21607	0.18143	0.12321	0.21886	0.24543	0.12544	0.10574	-1.6208	-2.0104	-1.6479	-2.4521	-1.7167	-2.1188	-2.4208	-1.575	-2.0479	-1.9167	-1.6333	-2.2896	-1.8458	-1.8208	-2.1521	-1.6979	303.478	115.400	114.957	386.164	76.508	315.692	281.116	369.387	373.891	321.770	402.341	212.313	399.271	57.744	186.941	314.654	0.0013226	0.00024266	8.8869e-05	1299.6	5.4834e-06	4.9006e-06	1303.1	358.43	6.9765e-06	1.7528e-06	410.94	137.45	119.18	40.467	7.3321e-06	50.48	0.00066578	0.00070204	0.00018118	1333	7.516e-06	7.6842e-06	1340.9	369.48	7.5338e-06	7.6386e-06	425.98	142	124.64	42.758	7.0669e-06	52.815	92.224	355.729	57.783	64.635	179.168	386.305	64.289	69.511	136.595	136.959	68.673	73.298	73.938	78.219	278.912	77.515	-8191	255	
6694.187	1	1	0	0	0.13989	0.3034	0.12826	0.23484	0.16817	0.17876	0.22953	0.35044	0.084761	0.066843	0.23511	0.15509	0.15461	0.21162	0.14689	0.25711	-1.6875	-2.0625	-1.6354	-2.4167	-1.7229	-1.6292	-2.3312	-1.8146	-1.8167	-2.35	-1.6646	-2.175	-2.0187	-1.7708	-2.1521	-1.6708	383.508	165.374	334.446	111.859	225.870	70.954	278.448	322.805	345.025	329.034	349.083	53.824	410.465	62.455	277.010	56.606	0.0011293	0.0004087	0.00012986	1296.6	6.5817e-06	4.7273e-06	1303.9	358.47	6.9178e-06	6.7943e-06	411.13	137.22	118.57	40.372	9.1511e-06	50.74	0.0007037	0.00068583	0.00017876	1334	7.7846e-06	7.3895e-06	1339	370.21	7.7809e-06	7.3414e-06	425.55	142.46	124.99	42.726	6.8299e-06	53.238	87.704	216.354	267.188	64.573	283.462	360.647	64.462	69.628	191.404	151.801	68.886	73.259	73.986	78.307	222.799	77.590	-8191	255	
6694.284	1	1	0	0	0.10083	0.22389	0.1627	0.18808	0.29064	0.20636	0.16266	0.14472	0.1636	0.13023	0.13679	0.27488	0.1881	0.30515	0.37833	0.15803	-1.5938	-2.225	-1.4396	-2.3042	-2.0542	-1.6271	-2.4458	-1.9792	-1.9188	-2.1833	-1.6458	-2.275	-2.0333	-1.6625	-2.1417	-1.8354	335.818	391.905	337.042	52.936	139.749	144.027	344.625	246.677	73.439	325.245	252.493	360.756	340.421	355.922	253.786	93.817	0.00091387	0.00028076	3.9877e-05	1297.8	9.508e-06	7.9409e-07	1300.3	358.34	9.5855e-06	2.747e-06	409.32	138.04	118.67	40.593	2.752e-06	50.65	0.00071428	0.00065739	0.00017431	1338	7.7793e-06	7.151e-06	1335.4	371.34	7.7451e-06	7.1119e-06	423.4	143.46	124.65	42.549	6.7168e-06	53.536	73.329	282.237	53.378	64.658	130.055	65.922	64.717	69.461	53.535	89.079	68.823	73.263	73.700	78.452	203.359	77.670	-8191	255	
6694.380	1	1	0	0	0.12782	0.27451	0.074164	0.1276	0.24863	0.1474	0.28689	0.19201	0.14176	0.42435	0.19258	0.054049	0.15335	0.07384	0.19036	0.12622	-1.4896	-2.0812	-1.4646	-2.3021	-2.0812	-1.6417	-2.3625	-1.7479	-1.875	-2.3063	-1.7938	-2.1917	-2.0979	-1.8083	-2.3771	-1.9979	89.463	250.108	91.973	346.867	281.207	245.449	58.409	57.753	315.867	63.075	139.271	68.630	81.141	160.666	234.280	288.095	0.0012816	0.00043625	0.00015263	1297.3	3.0917e-06	3.8329e-06	1304.5	358.72	5.7861e-06	3.963e-06	410.53	137.45	118.85	40.586	1.0672e-05	50.549	0.00069805	0.0006397	0.00017194	1344.2	7.5826e-06	7.022e-06	1337.1	373.37	7.4872e-06	6.9757e-06	424.98	144.09	124.34	42.426	6.8579e-06	53.812	73.656	125.511	92.959	64.583	368.636	182.018	64.610	69.644	204.989	241.986	68.997	72.855	73.806	78.357	235.234	77.428	-8191	255	
6694.476	1	1	0	0	0.0332	0.090956	0.23029	0.28113	0.19619	0.18132	0.15523	0.17404	0.14502	0.10407	0.14261	0.21421	0.30227	0.12278	0.25213	0.23093	-1.2229	-2.2083	-1.6958	-2.1875	-2.1312	-1.7167	-2.5021	-2.0917	-1.5896	-2.15	-1.6354	-2.2625	-2.2875	-1.8625	-2.1292	-2.0542	304.971	152.733	63.495	393.920	74.041	286.499	324.087	373.187	74.610	286.351	64.788	379.445	375.618	137.373	257.344	405.878	0.0011309	0.00038928	0.00015099	1298.4	4.6564e-06	4.0091e-06	1304.6	358.34	4.1344e-06	2.6854e-06	410.12	136.97	118.42	40.547	4.5444e-06	50.56	0.00067429	0.00062938	0.0001786	1347.2	7.3443e-06	6.9048e-06	1340.5	373.83	7.3354e-06	6.8515e-06	427.51	144.44	123.85	42.412	7.3636e-06	53.896	86.582	365.036	115.712	64.759	408.433	181.808	64.543	69.257	191.951	62.020	68.771	73.186	73.541	78.331	230.997	77.437	-8191	255	
6694.570	1	1	0	0	0.14104	0.16033	0.13193	0.2157	0.11884	0.088422	0.31335	0.39674	0.061682	0.097107	0.039416	0.080251	0.092636	0.23396	0.21385	0.1017	-1.4417	-2.225	-1.75	-2.1229	-2.1854	-1.4771	-2.2896	-2.2687	-1.4792	-2.3021	-1.8854	-1.85	-2.3625	-1.5021	-1.8937	-1.9875	243.193	410.203	188.892	375.776	314.849	132.411	356.760	375.972	125.702	301.373	308.009	298.864	395.598	391.876	358.219	410.882	0.0010265	0.00025819	0.00035405	1298.1	4.3426e-06	5.9632e-06	1305.9	358.65	6.8575e-06	8.7043e-06	411.56	137.55	118.62	40.293	1.3535e-05	50.629	0.00066193	0.00062275	0.00019126	1347.7	7.1761e-06	6.8064e-06	1346.7	373.12	7.1912e-06	6.8038e-06	430.78	144.03	123.69	42.325	7.7831e-06	53.763	94.965	176.391	124.645	64.773	188.264	255.232	64.608	69.370	134.619	122.197	68.933	72.991	73.570	78.360	210.008	77.453	-8191	255	
