BOXY.EXE: ISS Imagent and Oximeter Data Acquisition Program Version 0.80
Ascii Record File

#ACQ INFORMATION
2  Detector Channels 
16  External MUX Channels 
1  Auxiliary Channels 
5000  Waveform (CCF) Frequency (Hz)
1  Waveforms Skipped 
30  Waveforms Averaged 
1  Cycles Averaged 
16  Acquisitions per Waveform 
10.0806  Updata Rate (Hz) 

#FILE INFORMATION
TRUE -- External MUX Channel results are PARSED.
FALSE -- AC DC and Phase are NOT grouped.
TRUE -- Companion Program Settings File CREATED.
FALSE -- AC data not excluded
FALSE -- DC data not excluded
FALSE -- Phase data not excluded
FALSE -- Auxillary Chn. data not excluded
Tab delimiters

#CALIBRATION STATE
TRUE -- Waveform Calibration Values APPLIED.


#AUX CALIBRATION VALUES
Val Type	aux-1	

Term	1.0000e+00	
Factor	0.0000e+00	


#WF CALIBRATION VALUES
A = Detector Channel
Val Type	A-AC1	A-AC2	A-AC3	A-AC4	A-AC5	A-AC6	A-AC7	A-AC8	A-AC9	A-AC10	A-AC11	A-AC12	A-AC13	A-AC14	A-AC15	A-AC16	A-DC1	A-DC2	A-DC3	A-DC4	A-DC5	A-DC6	A-DC7	A-DC8	A-DC9	A-DC10	A-DC11	A-DC12	A-DC13	A-DC14	A-DC15	A-DC16	A-Ph1	A-Ph2	A-Ph3	A-Ph4	A-Ph5	A-Ph6	A-Ph7	A-Ph8	A-Ph9	A-Ph10	A-Ph11	A-Ph12	A-Ph13	A-Ph14	A-Ph15	A-Ph16	

Term	0.00000e+00	0.00000e+00	0.00000e+00	0.00000e+00	0.00000e+00	0.00000e+00	0.00000e+00	0.00000e+00	0.00000e+00	0.00000e+00	0.00000e+00	0.00000e+00	0.00000e+00	0.00000e+00	0.00000e+00	0.00000e+00	0.00000e+00	0.00000e+00	0.00000e+00	0.00000e+00	0.00000e+00	0.00000e+00	0.00000e+00	0.00000e+00	0.00000e+00	0.00000e+00	0.00000e+00	0.00000e+00	0.00000e+00	0.00000e+00	0.00000e+00	0.00000e+00	0.00000e+00	0.00000e+00	0.00000e+00	0.00000e+00	0.00000e+00	0.00000e+00	0.00000e+00	0.00000e+00	0.00000e+00	0.00000e+00	0.00000e+00	0.00000e+00	0.00000e+00	0.00000e+00	0.00000e+00	0.00000e+00	
Factor	1.00000e+00	1.00000e+00	1.00000e+00	1.00000e+00	1.00000e+00	1.00000e+00	1.00000e+00	1.00000e+00	1.00000e+00	1.00000e+00	1.00000e+00	1.00000e+00	1.00000e+00	1.00000e+00	1.00000e+00	1.00000e+00	1.00000e+00	1.00000e+00	1.00000e+00	1.00000e+00	1.00000e+00	1.00000e+00	1.00000e+00	1.00000e+00	1.00000e+00	1.00000e+00	1.00000e+00	1.00000e+00	1.00000e+00	1.00000e+00	1.00000e+00	1.00000e+00	X	X	X	X	X	X	X	X	X	X	X	X	X	X	X	X	

B = Detector Channel
Val Type	B-AC1	B-AC2	B-AC3	B-AC4	B-AC5	B-AC6	B-AC7	B-AC8	B-AC9	B-AC10	B-AC11	B-AC12	B-AC13	B-AC14	B-AC15	B-AC16	B-DC1	B-DC2	B-DC3	B-DC4	B-DC5	B-DC6	B-DC7	B-DC8	B-DC9	B-DC10	B-DC11	B-DC12	B-DC13	B-DC14	B-DC15	B-DC16	B-Ph1	B-Ph2	B-Ph3	B-Ph4	B-Ph5	B-Ph6	B-Ph7	B-Ph8	B-Ph9	B-Ph10	B-Ph11	B-Ph12	B-Ph13	B-Ph14	B-Ph15	B-Ph16	

Term	0.00000e+00	0.00000e+00	0.00000e+00	0.00000e+00	0.00000e+00	0.00000e+00	0.00000e+00	0.00000e+00	0.00000e+00	0.00000e+00	0.00000e+00	0.00000e+00	0.00000e+00	0.00000e+00	0.00000e+00	0.00000e+00	0.00000e+00	0.00000e+00	0.00000e+00	0.00000e+00	0.00000e+00	0.00000e+00	0.00000e+00	0.00000e+00	0.00000e+00	0.00000e+00	0.00000e+00	0.00000e+00	0.00000e+00	0.00000e+00	0.00000e+00	0.00000e+00	-2.02558e+02	-1.16413e+02	-1.30120e+02	-1.82161e+02	-9.57707e+01	-1.01369e+02	-1.59306e+02	-1.62015e+02	-1.14350e+02	-5.77035e+01	-1.70639e+02	-1.72301e+02	-1.77500e+02	-1.76674e+02	-5.36760e+01	-1.49496e+02	
Factor	4.10936e-05	9.52974e-05	2.49006e-05	1.49428e-01	8.83243e-07	8.91524e-07	1.68800e-01	4.93801e-02	1.17695e-06	7.15398e-07	8.34437e-02	2.98807e-02	2.54106e-02	8.75613e-03	1.20421e-06	1.26828e-02	6.26555e-07	6.35961e-07	1.78841e-07	7.42432e-02	6.95763e-09	6.96690e-09	7.86376e-02	2.43642e-02	6.96256e-09	6.98071e-09	3.91092e-02	1.39300e-02	1.23175e-02	4.23067e-03	7.03845e-09	5.88851e-03	X	X	X	X	X	X	X	X	X	X	X	X	X	X	X	X	



#DISTANCE SETTINGS
A = Detector Channel
A-1	A-2	A-3	A-4	A-5	A-6	A-7	A-8	A-9	A-10	A-11	A-12	A-13	A-14	A-15	A-16	

2.5000e+00	3.0000e+00	2.5000e+00	3.0000e+00	2.0000e+00	3.0000e+00	1.5000e+00	3.0000e+00	3.0000e+00	3.0000e+00	3.0000e+00	3.0000e+00	3.0000e+00	3.0000e+00	1.5000e+00	3.0000e+00	

B = Detector Channel
B-1	B-2	B-3	B-4	B-5	B-6	B-7	B-8	B-9	B-10	B-11	B-12	B-13	B-14	B-15	B-16	

1.0000e+01	1.0000e+01	1.0000e+01	1.4400e+00	1.0000e+01	1.0000e+01	1.5100e+00	1.9400e+00	1.0000e+01	1.0000e+01	1.9900e+00	2.4900e+00	2.4100e+00	2.9000e+00	1.0000e+01	2.9800e+00	




#DATA BEGINS
time	group	step	mark	flag	A-AC1	A-AC2	A-AC3	A-AC4	A-AC5	A-AC6	A-AC7	A-AC8	A-AC9	A-AC10	A-AC11	A-AC12	A-AC13	A-AC14	A-AC15	A-AC16	A-DC1	A-DC2	A-DC3	A-DC4	A-DC5	A-DC6	A-DC7	A-DC8	A-DC9	A-DC10	A-DC11	A-DC12	A-DC13	A-DC14	A-DC15	A-DC16	A-Ph1	A-Ph2	A-Ph3	A-Ph4	A-Ph5	A-Ph6	A-Ph7	A-Ph8	A-Ph9	A-Ph10	A-Ph11	A-Ph12	A-Ph13	A-Ph14	A-Ph15	A-Ph16	B-AC1	B-AC2	B-AC3	B-AC4	B-AC5	B-AC6	B-AC7	B-AC8	B-AC9	B-AC10	B-AC11	B-AC12	B-AC13	B-AC14	B-AC15	B-AC16	B-DC1	B-DC2	B-DC3	B-DC4	B-DC5	B-DC6	B-DC7	B-DC8	B-DC9	B-DC10	B-DC11	B-DC12	B-DC13	B-DC14	B-DC15	B-DC16	B-Ph1	B-Ph2	B-Ph3	B-Ph4	B-Ph5	B-Ph6	B-Ph7	B-Ph8	B-Ph9	B-Ph10	B-Ph11	B-Ph12	B-Ph13	B-Ph14	B-Ph15	B-Ph16	aux-1	digaux	

7912.706	1	1	0	256	0.069103	0.26926	0.062486	0.22741	0.028791	0.12721	0.17733	0.33397	0.092332	0.11171	0.040673	0.055633	0.1522	0.2019	0.069033	0.34994	-1.7625	-1.3896	-2.0792	-1.8771	-1.8458	-2.2271	-2.0917	-1.7521	-2.0479	-1.6958	-2.2583	-2.1042	-1.6187	-2.3229	-1.9208	-2.0583	155.013	360.503	155.374	390.326	413.226	206.195	365.225	305.804	221.296	230.906	334.014	383.905	90.852	266.266	133.136	383.009	0.0011027	0.00061254	0.0001662	581.44	6.6875e-06	3.389e-06	892.56	174.98	6.427e-06	7.725e-06	372.65	152.09	65.978	24.284	1.6917e-05	68.379	0.00046461	0.00042618	0.00013104	596.61	5.0191e-06	4.7983e-06	888.48	180.83	5.126e-06	4.7869e-06	368	148.1	67.915	25.016	5.6283e-06	66.296	86.479	234.720	207.768	70.699	81.416	227.919	71.508	76.481	133.766	251.995	76.675	81.550	82.246	87.031	200.637	85.928	-8191	255	
7912.802	1	1	0	0	0.18199	0.51299	0.15754	0.095799	0.013915	0.062457	0.14699	0.12762	0.19642	0.17864	0.1078	0.27707	0.20087	0.11762	0.21793	0.23929	-1.7	-1.3583	-2.1792	-1.8542	-1.7417	-2.1208	-2.0542	-1.9229	-2.2958	-1.6104	-2.1146	-2.0604	-1.5083	-2.1354	-1.9688	-1.8875	166.790	163.409	183.469	398.799	71.905	164.790	308.014	169.168	291.931	159.150	404.417	377.737	365.681	328.124	333.355	377.737	0.0010686	0.00041016	0.0001568	586.44	5.9066e-06	2.1759e-06	895.31	174.82	1.0631e-05	3.6314e-06	370.76	150.78	65.472	24.208	5.4489e-06	68.185	0.00049154	0.00045933	0.0001478	603.44	5.2095e-06	5.2265e-06	899.22	181.34	5.3227e-06	5.2127e-06	368.72	147.44	67.524	25.08	5.9837e-06	66.073	84.325	235.340	150.578	70.691	195.589	165.968	71.145	76.356	177.473	158.718	76.900	81.617	81.831	86.518	243.500	85.593	-8191	255	
7912.897	1	1	0	0	0.14011	0.12359	0.18192	0.22181	0.23047	0.39616	0.42846	0.057853	0.074884	0.12569	0.14248	0.085099	0.21181	0.075949	0.17507	0.17666	-1.7958	-1.5958	-1.8729	-2.0187	-1.2542	-2.2875	-1.9188	-1.9042	-2.0896	-1.8292	-2.0479	-2.3688	-1.8563	-2.1396	-2.1167	-1.75	349.947	406.032	174.936	350.797	355.892	101.017	352.776	360.851	125.862	404.203	290.279	380.562	209.775	99.618	202.184	393.079	0.0012662	0.00093575	0.00021587	581.67	2.3157e-06	9.5238e-06	887.9	173.86	8.9492e-06	8.4644e-06	367.61	149.46	64.822	23.94	6.6627e-06	67.699	0.00048305	0.00048156	0.00015152	597.37	4.9812e-06	5.316e-06	894.07	179.07	5.0142e-06	5.2915e-06	365.33	145.31	66.374	24.908	5.648e-06	65.199	71.117	234.237	193.383	71.161	189.292	173.468	71.595	76.488	113.258	212.897	76.905	81.810	81.625	87.013	262.486	85.769	-8191	255	
7912.993	1	1	0	0	0.27992	0.29787	0.10572	0.13125	0.1094	0.37707	0.29082	0.12758	0.084958	0.081861	0.15197	0.35749	0.22784	0.027892	0.093068	0.24535	-1.8	-1.5896	-1.9292	-2.1125	-1.6292	-2.2542	-2.1771	-1.6458	-2.0958	-2.0187	-1.9083	-2.4042	-1.7604	-2.0146	-2.0521	-1.7667	373.262	328.590	324.624	90.358	135.419	235.812	116.181	331.623	350.761	352.977	394.220	347.190	415.330	130.941	357.873	357.427	0.001494	0.00087846	0.0002304	580.96	7.8255e-06	7.1682e-06	887.6	174.7	4.2417e-06	1.2012e-06	369.61	149.96	64.773	23.972	3.3295e-06	68.033	0.00045474	0.00048775	0.00014115	591.16	4.7309e-06	5.409e-06	886.73	177.68	4.8294e-06	5.4358e-06	364.39	145.62	66.474	25.101	5.4268e-06	65.316	88.682	121.791	172.205	71.040	183.536	192.856	71.465	76.476	197.956	291.211	76.847	82.008	82.048	87.062	228.696	85.926	-8191	255	
7913.089	1	1	0	0	0.36115	0.29216	0.099733	0.21355	0.16483	0.14522	0.15	0.073963	0.094842	0.0049501	0.11378	0.2176	0.085399	0.43106	0.22052	0.12824	-1.6208	-1.975	-1.7563	-2.3063	-1.5667	-2.0812	-2.35	-1.4979	-2.4021	-1.8604	-1.9792	-2.0896	-1.7625	-1.9104	-2.3125	-1.5312	258.137	221.538	384.028	375.431	197.584	371.541	291.674	117.702	323.364	382.877	348.395	371.150	156.353	310.009	325.911	225.682	0.0015219	0.00096131	0.00011878	580.3	4.3023e-06	1.4257e-06	888.71	174.43	6.3686e-06	1.2146e-06	370.37	152.01	65.296	24.143	5.9054e-06	68.607	0.00045712	0.00051178	0.00013573	590.6	4.9469e-06	5.6491e-06	885.98	177.72	5.057e-06	5.6655e-06	364.1	146.26	67.493	25.36	5.2721e-06	65.86	85.746	113.763	281.380	70.692	240.170	199.537	71.768	76.097	133.181	78.060	77.020	81.756	81.866	87.036	293.127	85.963	-8191	255	
7913.185	1	1	0	0	0.23689	0.091077	0.082896	0.11995	0.19102	0.31775	0.21154	0.38929	0.098762	0.15493	0.20433	0.11701	0.21272	0.16521	0.11776	0.039867	-1.9	-1.7917	-1.7021	-2.3208	-1.8062	-1.9229	-2.2	-1.6542	-1.9292	-1.9792	-1.9292	-2.2833	-1.8646	-1.7687	-2.2854	-1.7333	162.638	305.830	201.995	113.173	250.405	101.993	373.343	136.510	150.837	185.475	360.676	274.160	404.225	76.662	311.574	247.952	0.0018057	0.00019896	0.00010343	583.13	5.4691e-06	1.303e-05	892.33	175.1	6.4781e-06	1.4092e-06	372.9	152.15	66.059	24.278	2.3893e-06	68.656	0.00048665	0.00051491	0.00012996	590.32	5.1488e-06	5.4737e-06	885.14	177.86	5.2012e-06	5.398e-06	364.85	146.66	68.014	25.219	4.908e-06	65.677	90.079	300.855	207.819	70.890	160.181	125.705	71.374	76.170	184.297	261.110	76.798	81.950	82.019	86.663	142.739	86.181	-8191	255	
7913.281	1	1	0	0	0.27786	0.18512	0.42593	0.17413	0.064347	0.16631	0.20712	0.26999	0.041703	0.0036893	0.10659	0.27942	0.19289	0.28637	0.038631	0.19601	-1.55	-1.9917	-1.6562	-2.2042	-1.8375	-1.9333	-2.2729	-1.5833	-1.9875	-2.1375	-1.725	-2.375	-1.9833	-1.9792	-2.1021	-1.6333	103.902	389.984	258.359	285.883	158.685	173.193	411.537	251.561	326.207	78.363	137.044	390.208	228.446	64.818	171.800	385.340	0.001687	0.00052608	0.00011652	584.22	5.8484e-06	3.9318e-06	897.81	174.67	5.4424e-06	4.0979e-06	373.26	152.46	66.6	24.776	5.1019e-06	69.361	0.00048196	0.00046621	0.00011958	588.45	5.1174e-06	5.0128e-06	884.83	177.38	5.2068e-06	4.9915e-06	363.73	146.98	68.528	25.323	4.7136e-06	66.577	85.831	133.099	222.918	70.502	146.801	185.819	71.496	76.450	206.382	363.683	77.305	81.585	82.049	86.878	246.760	85.961	-8191	255	
7913.402	1	1	0	0	0.0068872	0.18782	0.17021	0.15278	0.068425	0.16388	0.14427	0.083821	0.17242	0.23825	0.31704	0.26041	0.1487	0.19075	0.44838	0.24285	-1.375	-2.2062	-1.4458	-2.2687	-1.9667	-1.7229	-2.3354	-1.8229	-1.9521	-2.2083	-1.6375	-2.4396	-1.9438	-1.675	-2.2062	-1.9021	115.422	73.350	80.211	77.172	267.375	162.048	356.396	378.349	231.242	173.311	357.537	407.645	311.772	290.848	133.883	298.949	0.0010086	0.00073874	9.0053e-05	583.33	3.1145e-06	3.2138e-06	893.57	175.24	5.7639e-06	5.5336e-06	365.12	148.91	64.436	23.525	1.0869e-05	67.196	0.00048748	0.00045211	0.00011884	590.43	5.3892e-06	5.0522e-06	884.98	178.46	5.6354e-06	5.3568e-06	359.36	145.08	67.724	24.56	5.214e-06	65.173	79.216	210.802	60.775	70.907	119.124	320.107	71.429	76.818	204.593	180.766	76.691	81.858	81.850	87.216	238.788	85.800	-8191	255	
7913.498	1	1	0	0	0.23787	0.27388	0.10628	0.28387	0.23362	0.13125	0.27803	0.15648	0.21368	0.14844	0.15874	0.24053	0.12687	0.34551	0.10945	0.34368	-1.35	-2.2021	-1.6083	-2.1188	-1.8542	-1.4396	-2.2125	-1.9625	-1.8542	-2.2188	-1.7146	-2.0708	-2.1333	-1.7958	-2.4042	-2.2062	385.392	200.143	369.798	84.357	280.351	309.347	385.829	384.595	324.324	417.255	353.951	369.470	393.104	288.533	301.707	375.886	0.0014622	0.00044052	0.00013222	584.48	1.0299e-06	2.2836e-06	887.58	171.2	1.1093e-05	2.4199e-06	367.69	148.42	63.818	23.598	5.7025e-06	66.877	0.00054181	0.00050076	0.0001321	600.4	5.8569e-06	5.3102e-06	881.11	178.67	5.5774e-06	5.215e-06	358.9	145.14	66.943	24.444	4.9967e-06	65.094	99.179	169.319	199.380	71.040	147.309	245.393	71.344	76.603	194.747	164.755	76.891	81.863	81.719	86.647	256.331	86.029	-8191	255	
7913.570	1	1	0	0	0.23894	0.14769	0.12285	0.30529	0.2758	0.085962	0.05948	0.15693	0.12843	0.1068	0.30598	0.31629	0.21126	0.14942	0.061156	0.14797	-1.4292	-2.1958	-1.7667	-2.1521	-2.3354	-1.6917	-2.2812	-2.0167	-1.925	-2.2667	-1.8729	-2.0625	-2.2104	-1.6583	-2.0625	-2.1792	233.618	159.035	305.379	359.571	402.088	141.513	310.653	401.954	121.027	138.179	329.528	385.641	360.316	286.433	65.078	350.281	0.0012052	0.00074139	5.9374e-05	583.72	6.5036e-06	4.8281e-06	889.9	171.06	8.2684e-07	4.9397e-06	365.94	147.39	64.148	23.263	1.7292e-05	66.976	0.00048823	0.000449	0.00012415	596.25	5.2024e-06	4.7635e-06	878.2	177.33	5.0539e-06	4.8334e-06	357.68	144.28	66.035	24.037	5.0653e-06	64.853	78.840	171.166	140.837	71.099	211.660	318.130	71.306	76.875	290.104	69.709	77.066	81.799	81.544	87.185	224.790	85.687	-8191	255	
7913.691	1	1	0	0	0.24714	0.10173	0.36308	0.20731	0.53313	0.27548	0.24715	0.062421	0.14144	0.069557	0.17622	0.19338	0.26002	0.14238	0.14167	0.14886	-1.1063	-2.275	-1.6292	-1.9458	-2.1792	-1.5812	-2.4021	-2.0417	-1.5708	-2.1104	-2.0875	-1.8104	-2.1521	-1.4771	-2.1875	-2.0833	288.320	116.498	157.541	282.845	392.814	202.559	309.883	279.164	329.288	284.112	119.282	375.289	69.789	392.541	205.013	377.917	0.0012502	0.00074664	9.4334e-05	580.86	7.6059e-07	9.6317e-06	889.02	171.54	5.4718e-06	3.3273e-06	364.05	147.6	63.207	23.092	9.2813e-06	66.251	0.00046421	0.00043452	0.00013007	595.35	4.9125e-06	4.535e-06	881.55	176.93	4.8123e-06	4.6779e-06	359.12	143.64	65.233	23.731	5.3178e-06	64.018	71.967	172.120	141.239	70.716	271.170	152.707	71.429	75.936	133.482	151.116	76.828	81.823	82.006	86.956	216.489	86.027	-8191	255	
7913.787	1	1	0	0	0.22969	0.22674	0.26809	0.26722	0.21924	0.10026	0.14098	0.27697	0.22636	0.074782	0.1502	0.152	0.13863	0.37857	0.22328	0.10513	-1.1417	-2.1875	-1.7125	-1.7208	-2.2771	-1.6187	-2.4542	-2.0312	-1.6625	-2.2896	-2.1771	-1.8729	-2.3417	-1.6833	-2.0375	-2.0021	369.306	214.515	399.935	348.094	223.991	209.931	406.903	376.356	396.545	306.972	132.636	283.430	92.900	324.373	105.483	154.449	0.0014981	0.00050412	0.00011504	584.28	1.0414e-06	9.1366e-06	893.57	170.7	7.366e-06	3.5648e-06	362.21	144.34	61.966	22.651	2.5953e-06	64.975	0.000448	0.00042334	0.00013527	594.43	4.7666e-06	4.6032e-06	884.29	174.15	4.6088e-06	4.5591e-06	356.11	139.89	63.399	23.207	5.2155e-06	62.49	90.368	228.138	236.911	70.445	229.424	132.254	71.215	76.313	170.631	242.516	76.722	81.910	82.152	87.194	245.021	85.600	-8191	255	
7913.883	1	1	0	0	0.21092	0.12914	0.37947	0.097373	0.19724	0.087017	0.30227	0.12641	0.17678	0.24771	0.2646	0.17068	0.28194	0.10626	0.064882	0.15561	-1.2437	-2.0771	-1.825	-1.8708	-2.2646	-1.7	-2.0417	-2.4125	-1.6083	-2.2667	-2.0083	-1.8771	-2.2604	-1.7479	-1.775	-2.3417	129.017	120.064	236.197	60.213	68.897	294.727	361.420	102.894	403.857	139.567	346.930	394.148	275.582	243.368	74.154	408.352	0.0013334	0.00080258	0.00012252	582.91	5.0369e-06	3.6792e-06	884.17	168.16	5.4361e-06	6.4217e-06	356.03	143.64	61.177	22.312	5.1642e-06	64.021	0.00041675	0.00042311	0.00013376	589.19	4.5717e-06	4.7571e-06	878.41	172.02	4.4605e-06	4.8438e-06	352.09	138.5	62.7	23.187	5.1557e-06	61.76	91.209	102.441	256.234	70.879	77.698	122.543	71.294	76.580	186.198	252.110	76.923	81.620	81.702	87.166	251.540	86.127	-8191	255	
7913.979	1	1	0	0	0.16578	0.020249	0.15586	0.25226	0.3769	0.1738	0.075077	0.22327	0.24606	0.060176	0.29782	0.12691	0.098363	0.3048	0.16095	0.025344	-1.2375	-2.2854	-2.0583	-1.6	-2.3333	-1.6708	-1.9062	-2.3104	-1.7542	-2.2146	-2.0833	-1.6354	-2.4021	-1.8667	-1.7854	-2.2625	181.771	338.109	403.415	344.738	169.218	294.372	407.426	308.662	336.130	135.379	395.962	400.006	351.429	285.773	249.118	90.678	0.0013364	0.00086902	6.3896e-05	576.73	5.4873e-06	5.2025e-06	874.97	167.63	3.7104e-06	3.5159e-06	357.06	142.29	61.377	22.286	9.8667e-06	64.478	0.00041112	0.0004504	0.00013069	584.78	4.5297e-06	5.0677e-06	871.31	170.77	4.4862e-06	5.0923e-06	350	137.5	62.443	23.309	4.8599e-06	61.786	75.253	202.703	85.671	70.754	179.568	139.826	71.211	76.400	175.002	182.863	77.042	81.441	82.021	86.868	125.551	85.795	-8191	255	
7914.100	1	1	0	0	0.13562	0.089816	0.22623	0.20692	0.2195	0.13979	0.2512	0.31415	0.041499	0.1966	0.13959	0.050194	0.21509	0.14543	0.024875	0.22966	-1.1437	-1.9625	-2.0646	-1.6313	-2.025	-1.8792	-1.6479	-2.3542	-1.6958	-1.9333	-2.0896	-1.6729	-2.1521	-1.8917	-1.7021	-2.4646	378.984	73.912	147.398	371.312	207.011	184.271	264.785	323.684	350.973	306.763	374.851	413.140	129.226	409.885	315.957	392.835	0.0013015	0.00068695	0.00010948	580.74	6.3026e-06	5.6229e-06	882.83	170.29	5.6732e-06	2.7428e-06	361.13	145.7	62.741	22.711	3.886e-06	65.548	0.00041064	0.00045208	0.00012267	581.96	4.4452e-06	5.0187e-06	872.32	172.14	4.4626e-06	5.0377e-06	352.89	139.53	63.84	23.676	4.6168e-06	62.669	93.165	214.926	160.100	70.668	153.996	150.612	71.375	76.335	140.211	129.763	76.873	81.759	82.136	87.251	250.874	85.792	-8191	255	
7914.194	1	1	0	0	0.20884	0.063924	0.081598	0.10968	0.063271	0.11793	0.15475	0.06243	0.10185	0.28645	0.16864	0.44216	0.11018	0.059026	0.047466	0.27395	-1.1979	-1.9875	-2.1208	-1.8708	-2.0667	-2.0771	-1.6375	-2.3979	-1.8708	-1.8479	-2.4396	-1.7396	-2.2375	-1.9417	-1.7229	-2.3937	124.352	76.072	360.370	341.927	140.245	253.592	179.316	366.795	347.166	278.969	381.033	343.509	191.692	174.048	167.396	403.612	0.0017992	0.00091734	0.00010134	579.95	8.4407e-06	4.609e-06	890.63	170.2	1.0572e-05	3.3831e-06	363.35	145.95	62.828	22.853	2.0873e-06	65.866	0.00043272	0.00045824	0.00011859	584.04	4.7058e-06	4.9881e-06	874.83	172.17	4.7383e-06	4.9125e-06	353.7	140.11	64.463	23.717	4.5331e-06	63.001	83.054	128.897	64.820	70.687	211.686	182.630	71.338	76.583	225.244	252.133	76.862	81.997	81.877	87.354	296.664	85.930	-8191	255	
7914.290	1	1	0	0	0.041707	0.043166	0.22091	0.2151	0.14641	0.041532	0.29649	0.10353	0.19388	0.22088	0.17671	0.069284	0.12186	0.11723	0.086694	0.14456	-1.2563	-1.7896	-2.05	-1.6979	-2.1604	-2.3271	-1.5042	-2.2875	-1.8083	-1.8667	-2.2458	-1.8062	-2.0667	-2.2833	-1.625	-2.3563	110.973	302.511	361.318	122.891	301.466	294.368	290.330	336.540	238.886	331.839	357.499	162.965	93.530	76.964	166.372	348.479	0.0012906	0.00048675	0.00013807	582.34	7.2699e-06	2.4622e-06	887	170.18	4.7509e-06	2.9803e-06	362.68	146.08	62.932	22.8	4.4529e-06	65.661	0.00045387	0.00043861	0.00011598	583.9	4.7898e-06	4.6168e-06	872.75	171.94	4.7089e-06	4.4404e-06	352.4	139.73	64.141	23.406	4.1056e-06	62.614	76.186	82.117	332.848	70.915	212.473	150.004	71.394	76.254	70.874	115.270	76.717	81.724	81.781	86.936	244.665	86.013	-8191	255	
7914.386	1	1	0	0	0.10462	0.28605	0.27441	0.17414	0.26314	0.11048	0.076742	0.070422	0.11339	0.041974	0.24812	0.19378	0.10062	0.10105	0.13567	0.26205	-1.5792	-1.7854	-2.3167	-1.8208	-1.9979	-2.1229	-1.8542	-2.2021	-2.0375	-1.6104	-2.5687	-1.6562	-2.1542	-2.2354	-1.7979	-2.2188	59.199	91.586	204.064	101.494	129.554	250.585	336.643	62.574	351.238	368.282	308.287	343.834	257.197	121.397	165.492	408.465	0.0014346	8.5205e-05	5.4258e-05	582.09	6.6108e-06	5.9701e-06	880.51	169.97	7.6257e-06	2.1406e-06	359.22	145.61	62.55	22.608	9.4383e-06	65.541	0.00043156	0.00038826	0.00010487	581.96	4.5719e-06	4.26e-06	864.1	171.16	4.5867e-06	4.2269e-06	348.42	139.71	63.775	23.157	4.0324e-06	62.693	90.100	145.955	401.168	70.438	256.427	266.058	71.250	76.381	203.506	251.875	76.848	81.880	81.798	86.550	277.999	86.081	-8191	255	
