BOXY.EXE: ISS Imagent and Oximeter Data Acquisition Program Version 0.80
Ascii Record File

#ACQ INFORMATION
2  Detector Channels 
16  External MUX Channels 
1  Auxiliary Channels 
5000  Waveform (CCF) Frequency (Hz)
1  Waveforms Skipped 
30  Waveforms Averaged 
1  Cycles Averaged 
16  Acquisitions per Waveform 
10.0806  Updata Rate (Hz) 

#FILE INFORMATION
TRUE -- External MUX Channel results are PARSED.
FALSE -- AC DC and Phase are NOT grouped.
TRUE -- Companion Program Settings File CREATED.
FALSE -- AC data not excluded
FALSE -- DC data not excluded
FALSE -- Phase data not excluded
FALSE -- Auxillary Chn. data not excluded
Tab delimiters

#CALIBRATION STATE
TRUE -- Waveform Calibration Values APPLIED.


#AUX CALIBRATION VALUES
Val Type	aux-1	

Term	1.0000e+00	
Factor	0.0000e+00	


#WF CALIBRATION VALUES
A = Detector Channel
Val Type	A-AC1	A-AC2	A-AC3	A-AC4	A-AC5	A-AC6	A-AC7	A-AC8	A-AC9	A-AC10	A-AC11	A-AC12	A-AC13	A-AC14	A-AC15	A-AC16	A-DC1	A-DC2	A-DC3	A-DC4	A-DC5	A-DC6	A-DC7	A-DC8	A-DC9	A-DC10	A-DC11	A-DC12	A-DC13	A-DC14	A-DC15	A-DC16	A-Ph1	A-Ph2	A-Ph3	A-Ph4	A-Ph5	A-Ph6	A-Ph7	A-Ph8	A-Ph9	A-Ph10	A-Ph11	A-Ph12	A-Ph13	A-Ph14	A-Ph15	A-Ph16	

Term	0.00000e+00	0.00000e+00	0.00000e+00	0.00000e+00	0.00000e+00	0.00000e+00	0.00000e+00	0.00000e+00	0.00000e+00	0.00000e+00	0.00000e+00	0.00000e+00	0.00000e+00	0.00000e+00	0.00000e+00	0.00000e+00	0.00000e+00	0.00000e+00	0.00000e+00	0.00000e+00	0.00000e+00	0.00000e+00	0.00000e+00	0.00000e+00	0.00000e+00	0.00000e+00	0.00000e+00	0.00000e+00	0.00000e+00	0.00000e+00	0.00000e+00	0.00000e+00	0.00000e+00	0.00000e+00	0.00000e+00	0.00000e+00	0.00000e+00	0.00000e+00	0.00000e+00	0.00000e+00	0.00000e+00	0.00000e+00	0.00000e+00	0.00000e+00	0.00000e+00	0.00000e+00	0.00000e+00	0.00000e+00	
Factor	1.00000e+00	1.00000e+00	1.00000e+00	1.00000e+00	1.00000e+00	1.00000e+00	1.00000e+00	1.00000e+00	1.00000e+00	1.00000e+00	1.00000e+00	1.00000e+00	1.00000e+00	1.00000e+00	1.00000e+00	1.00000e+00	1.00000e+00	1.00000e+00	1.00000e+00	1.00000e+00	1.00000e+00	1.00000e+00	1.00000e+00	1.00000e+00	1.00000e+00	1.00000e+00	1.00000e+00	1.00000e+00	1.00000e+00	1.00000e+00	1.00000e+00	1.00000e+00	X	X	X	X	X	X	X	X	X	X	X	X	X	X	X	X	

B = Detector Channel
Val Type	B-AC1	B-AC2	B-AC3	B-AC4	B-AC5	B-AC6	B-AC7	B-AC8	B-AC9	B-AC10	B-AC11	B-AC12	B-AC13	B-AC14	B-AC15	B-AC16	B-DC1	B-DC2	B-DC3	B-DC4	B-DC5	B-DC6	B-DC7	B-DC8	B-DC9	B-DC10	B-DC11	B-DC12	B-DC13	B-DC14	B-DC15	B-DC16	B-Ph1	B-Ph2	B-Ph3	B-Ph4	B-Ph5	B-Ph6	B-Ph7	B-Ph8	B-Ph9	B-Ph10	B-Ph11	B-Ph12	B-Ph13	B-Ph14	B-Ph15	B-Ph16	

Term	0.00000e+00	0.00000e+00	0.00000e+00	0.00000e+00	0.00000e+00	0.00000e+00	0.00000e+00	0.00000e+00	0.00000e+00	0.00000e+00	0.00000e+00	0.00000e+00	0.00000e+00	0.00000e+00	0.00000e+00	0.00000e+00	0.00000e+00	0.00000e+00	0.00000e+00	0.00000e+00	0.00000e+00	0.00000e+00	0.00000e+00	0.00000e+00	0.00000e+00	0.00000e+00	0.00000e+00	0.00000e+00	0.00000e+00	0.00000e+00	0.00000e+00	0.00000e+00	-2.02558e+02	-1.16413e+02	-1.30120e+02	-1.82161e+02	-9.57707e+01	-1.01369e+02	-1.59306e+02	-1.62015e+02	-1.14350e+02	-5.77035e+01	-1.70639e+02	-1.72301e+02	-1.77500e+02	-1.76674e+02	-5.36760e+01	-1.49496e+02	
Factor	4.10936e-05	9.52974e-05	2.49006e-05	1.49428e-01	8.83243e-07	8.91524e-07	1.68800e-01	4.93801e-02	1.17695e-06	7.15398e-07	8.34437e-02	2.98807e-02	2.54106e-02	8.75613e-03	1.20421e-06	1.26828e-02	6.26555e-07	6.35961e-07	1.78841e-07	7.42432e-02	6.95763e-09	6.96690e-09	7.86376e-02	2.43642e-02	6.96256e-09	6.98071e-09	3.91092e-02	1.39300e-02	1.23175e-02	4.23067e-03	7.03845e-09	5.88851e-03	X	X	X	X	X	X	X	X	X	X	X	X	X	X	X	X	



#DISTANCE SETTINGS
A = Detector Channel
A-1	A-2	A-3	A-4	A-5	A-6	A-7	A-8	A-9	A-10	A-11	A-12	A-13	A-14	A-15	A-16	

2.5000e+00	3.0000e+00	2.5000e+00	3.0000e+00	2.0000e+00	3.0000e+00	1.5000e+00	3.0000e+00	3.0000e+00	3.0000e+00	3.0000e+00	3.0000e+00	3.0000e+00	3.0000e+00	1.5000e+00	3.0000e+00	

B = Detector Channel
B-1	B-2	B-3	B-4	B-5	B-6	B-7	B-8	B-9	B-10	B-11	B-12	B-13	B-14	B-15	B-16	

1.0000e+01	1.0000e+01	1.0000e+01	1.4400e+00	1.0000e+01	1.0000e+01	1.5100e+00	1.9400e+00	1.0000e+01	1.0000e+01	1.9900e+00	2.4900e+00	2.4100e+00	2.9000e+00	1.0000e+01	2.9800e+00	




#DATA BEGINS
time	group	step	mark	flag	A-AC1	A-AC2	A-AC3	A-AC4	A-AC5	A-AC6	A-AC7	A-AC8	A-AC9	A-AC10	A-AC11	A-AC12	A-AC13	A-AC14	A-AC15	A-AC16	A-DC1	A-DC2	A-DC3	A-DC4	A-DC5	A-DC6	A-DC7	A-DC8	A-DC9	A-DC10	A-DC11	A-DC12	A-DC13	A-DC14	A-DC15	A-DC16	A-Ph1	A-Ph2	A-Ph3	A-Ph4	A-Ph5	A-Ph6	A-Ph7	A-Ph8	A-Ph9	A-Ph10	A-Ph11	A-Ph12	A-Ph13	A-Ph14	A-Ph15	A-Ph16	B-AC1	B-AC2	B-AC3	B-AC4	B-AC5	B-AC6	B-AC7	B-AC8	B-AC9	B-AC10	B-AC11	B-AC12	B-AC13	B-AC14	B-AC15	B-AC16	B-DC1	B-DC2	B-DC3	B-DC4	B-DC5	B-DC6	B-DC7	B-DC8	B-DC9	B-DC10	B-DC11	B-DC12	B-DC13	B-DC14	B-DC15	B-DC16	B-Ph1	B-Ph2	B-Ph3	B-Ph4	B-Ph5	B-Ph6	B-Ph7	B-Ph8	B-Ph9	B-Ph10	B-Ph11	B-Ph12	B-Ph13	B-Ph14	B-Ph15	B-Ph16	aux-1	digaux	

6709.482	1	1	0	256	0.12093	0.24912	0.17408	0.26154	0.26021	0.12113	0.30789	0.088536	0.18213	0.20057	0.32766	0.21439	0.15455	0.12121	0.057635	0.1231	-1.3	-2.2021	-2.0146	-2.1292	-2.2646	-1.6812	-2.0687	-2.2229	-1.6729	-2.1271	-1.9	-1.6792	-2.2625	-1.7521	-1.9458	-1.9875	339.707	97.624	409.710	373.477	262.886	123.750	307.437	349.752	360.219	344.768	281.417	356.623	389.035	69.650	374.571	317.540	0.00054349	0.00064206	7.0205e-05	1116.8	2.6416e-06	4.3813e-06	1202.1	241.18	6.2531e-06	4.8172e-07	300.63	85.255	67.528	20.041	3.0647e-06	27.493	0.00020798	0.00021726	6.7207e-05	1080.4	2.2079e-06	2.4063e-06	1160.8	235.38	2.2317e-06	2.478e-06	291.58	82.914	65.884	20.055	2.5633e-06	27.177	71.000	177.741	251.018	67.225	232.974	229.062	66.885	74.602	150.095	165.217	74.081	80.878	80.959	88.315	229.427	87.620	-8191	255	
6709.554	1	1	0	0	0.3197	0.11708	0.26115	0.24036	0.11404	0.23172	0.26053	0.10736	0.17627	0.11108	0.23763	0.22128	0.18261	0.3869	0.16418	0.11769	-1.1792	-1.9354	-1.8708	-1.7229	-2.2938	-1.95	-2.1146	-2.3167	-1.6854	-2.0917	-2.1229	-1.8042	-2.4125	-2.0375	-1.7125	-2.3125	382.914	383.300	313.592	348.483	176.902	98.453	404.834	400.650	142.782	256.755	295.514	292.146	181.194	379.671	206.755	331.452	0.00046577	0.00052105	0.00011277	1116.8	2.922e-07	2.8325e-06	1205.1	240.89	7.156e-06	4.9878e-06	301.14	85.452	67.764	20.044	3.8379e-06	27.683	0.00020792	0.00023511	6.6314e-05	1079.6	2.2577e-06	2.631e-06	1162.1	235.34	2.3293e-06	2.6642e-06	291.78	83.052	66.168	20.247	2.6106e-06	27.308	67.239	118.938	188.484	67.191	97.219	213.172	66.934	74.531	182.498	227.209	74.444	80.663	81.240	87.990	104.130	87.442	-8191	255	
6709.650	1	1	0	0	0.18505	0.12852	0.28316	0.33488	0.013332	0.054201	0.27686	0.26067	0.2819	0.21441	0.2439	0.047443	0.20032	0.15212	0.065976	0.17542	-1.2208	-1.8229	-1.9979	-1.8438	-2.1417	-1.9521	-1.8979	-2.2812	-1.7521	-1.8563	-2.275	-1.475	-2.2917	-2.0229	-1.5646	-2.6312	246.061	165.356	297.685	372.980	115.909	85.560	367.317	246.707	246.181	224.657	80.333	290.714	409.918	349.680	74.163	88.669	0.00084624	0.00045137	6.5983e-06	1116	7.1685e-06	8.8675e-07	1199.8	241.83	1.6594e-06	4.4258e-06	300.11	84.403	67.177	19.961	5.2756e-06	27.326	0.00022884	0.00025811	6.7158e-05	1078.9	2.5953e-06	2.9299e-06	1161.9	236.25	2.6863e-06	3.0157e-06	292.58	83.232	66.7	20.423	2.8258e-06	27.45	91.212	154.403	192.128	67.110	189.654	234.882	66.983	74.765	210.054	287.149	73.992	80.619	81.504	88.288	394.813	87.974	-8191	255	
6709.746	1	1	0	0	0.145	0.27232	0.073017	0.18034	0.29608	0.10498	0.27686	0.37593	0.25525	0.14752	0.30469	0.049446	0.11516	0.18877	0.10934	0.14818	-1.2375	-2.0563	-2.2333	-1.7667	-2.1479	-1.9792	-1.7354	-2.2188	-1.9688	-1.8354	-2.3667	-1.6771	-2.1625	-2.0208	-1.7792	-2.325	226.874	122.342	358.734	87.808	200.457	169.322	351.122	411.712	167.400	158.433	121.579	221.126	411.497	135.800	141.589	232.078	0.00094486	0.00019029	3.1529e-05	1122.5	3.3113e-06	2.561e-06	1207.7	240.56	5.3682e-06	2.9149e-06	300.88	85.759	68.067	19.874	2.5887e-06	27.284	0.00027106	0.00028475	7.2439e-05	1085.8	3.0337e-06	3.1709e-06	1170.6	237.27	3.2642e-06	3.3393e-06	295.71	84.547	68.332	20.774	3.4166e-06	27.995	84.880	174.541	201.715	67.018	154.766	199.637	66.950	74.526	208.515	338.079	74.081	80.774	80.938	88.428	65.044	87.511	-8191	255	
6709.865	1	1	0	0	0.053506	0.11411	0.26779	0.1305	0.12064	0.26483	0.21311	0.19252	0.1492	0.093641	0.24751	0.13204	0.14226	0.10266	0.35525	0.14854	-1.6146	-1.7833	-2.1	-1.8375	-1.8667	-2.3583	-1.7812	-2.3708	-1.8	-2	-2.2979	-1.7917	-1.9354	-2.275	-1.5938	-2.2979	377.256	260.017	218.022	87.952	144.266	387.810	389.094	375.733	84.540	81.644	335.112	332.157	96.072	400.939	260.853	61.256	0.00055765	0.00063793	3.2475e-05	1131.8	3.0763e-06	3.9946e-06	1217.7	243.33	7.4976e-06	3.382e-06	305.05	86.096	68.444	20.167	3.8264e-06	27.676	0.0003542	0.0003496	9.0313e-05	1105.3	4.0896e-06	3.9474e-06	1192.1	242.66	4.2521e-06	4.0102e-06	301.98	86.69	70.281	21.245	3.8245e-06	28.812	62.644	205.862	411.611	67.074	186.811	295.031	67.015	74.818	164.408	173.457	73.784	80.624	81.479	88.132	232.066	87.432	-8191	255	
6709.961	1	1	0	0	0.39813	0.041542	0.24069	0.21916	0.024604	0.11873	0.033917	0.22749	0.20863	0.095126	0.19642	0.23563	0.16263	0.31328	0.29094	0.23179	-1.5229	-1.6625	-2.2812	-1.8438	-2.0187	-2.3063	-1.8104	-2.1271	-1.8417	-1.8479	-2.2167	-1.7042	-2.0646	-2.0896	-1.8042	-2.0375	130.193	328.675	404.849	366.114	284.936	214.652	290.036	213.305	212.573	89.935	66.411	334.597	293.318	404.806	206.401	295.249	0.00089988	0.00017651	8.1882e-05	1139.4	5.8806e-06	2.328e-06	1230.6	245.3	6.5008e-06	3.4709e-06	306.94	87.108	68.796	20.125	3.1937e-06	27.956	0.00040725	0.00036924	9.7796e-05	1121	4.4812e-06	4.1275e-06	1203.4	245.67	4.5966e-06	4.2182e-06	304.06	88.36	71.12	21.39	4.0481e-06	29.43	77.840	132.530	92.675	67.025	166.043	219.662	66.939	74.443	157.940	401.298	73.912	80.996	81.078	87.944	185.551	87.686	-8191	255	
6710.057	1	1	0	0	0.15801	0.18182	0.19237	0.14872	0.21436	0.17732	0.17849	0.21586	0.18446	0.096572	0.24387	0.07883	0.29608	0.24016	0.14909	0.16262	-1.4396	-1.5729	-2.2708	-2	-1.8125	-2.3	-1.9104	-2.1708	-2.2542	-1.6771	-2.175	-1.775	-2.0979	-2.3271	-1.825	-2.1292	109.536	375.277	313.067	101.897	110.760	112.658	343.084	291.570	157.000	316.791	122.247	391.297	408.237	171.023	402.622	229.103	0.00029222	0.00047712	0.00010934	1151.1	1.2784e-06	1.5752e-06	1234.1	246.13	1.3185e-05	2.7194e-07	308.15	87.207	68.97	20.296	6.8267e-06	27.694	0.00042414	0.00038774	0.00010269	1133.2	4.6118e-06	4.2264e-06	1209.1	247.87	4.57e-06	4.2161e-06	305.81	89.003	71.169	21.4	4.1255e-06	29.596	65.740	179.241	188.029	66.982	414.315	254.234	66.766	74.710	157.533	244.995	74.140	80.650	81.061	88.209	186.030	87.592	-8191	255	
6710.154	1	1	0	0	0.039756	0.14731	0.25822	0.33775	0.18703	0.021248	0.097947	0.079186	0.24075	0.19312	0.43801	0.27449	0.040336	0.11938	0.082621	0.17696	-1.7542	-1.5333	-2.0708	-2.0271	-1.8333	-2.1479	-1.9458	-1.9125	-2.1458	-1.625	-2.2104	-1.9146	-1.7938	-2.4042	-1.7667	-2.2438	228.301	388.248	309.928	374.392	60.452	325.865	351.154	160.568	186.362	62.581	373.714	64.878	320.363	68.037	219.090	401.137	0.00049399	0.00052907	0.00013232	1150	4.8965e-06	2.9741e-06	1239.3	245.82	3.0888e-06	2.729e-06	307.67	86.954	68.42	20.112	8.2135e-06	27.722	0.00040802	0.00037757	0.00010501	1136.9	4.4459e-06	4.1456e-06	1210.9	248.76	4.4069e-06	4.1752e-06	306.91	89.319	70.688	21.355	4.4263e-06	29.687	90.612	125.549	132.820	66.793	397.553	384.599	66.971	74.322	157.669	104.813	73.828	80.749	81.006	88.106	216.226	87.347	-8191	255	
6710.248	1	1	0	0	0.10985	0.18175	0.28469	0.16775	0.12078	0.16892	0.32231	0.20481	0.022487	0.25663	0.11158	0.050209	0.045105	0.084393	0.06644	0.097925	-1.6792	-1.5042	-2.0312	-2.1625	-1.6833	-2.1021	-1.8333	-2.1292	-2.1667	-1.7854	-2.1792	-2.0354	-1.7792	-2.3792	-1.9937	-1.9417	411.403	190.415	383.947	376.503	355.267	323.802	383.130	410.548	184.555	214.978	109.221	247.236	401.103	305.678	250.931	389.425	0.00052723	0.00069805	0.00012902	1151.4	2.2813e-06	2.1384e-06	1231.1	246.48	5.0663e-06	1.265e-06	307.24	86.184	68.724	20.212	6.5638e-06	27.684	0.00039805	0.00037504	0.00011239	1139.1	4.2981e-06	4.0054e-06	1214.6	248.42	4.2103e-06	4.0176e-06	308	88.715	70.573	21.221	4.5933e-06	29.426	79.946	276.739	91.637	66.985	277.244	158.855	66.708	74.485	273.971	369.562	74.281	80.603	81.429	88.260	242.440	87.514	-8191	255	
6710.344	1	1	0	0	0.058238	0.1518	0.1203	0.30356	0.30448	0.11249	0.14768	0.16045	0.32998	0.18433	0.17576	0.15595	0.084998	0.041043	0.05027	0.30702	-1.8354	-1.7229	-2.0833	-2.1708	-1.6437	-2.2729	-2.0687	-1.9625	-2.2479	-1.8042	-2.1729	-2.1896	-1.7417	-2.1542	-2.1333	-1.8667	226.380	215.778	175.691	405.942	328.292	96.115	399.632	221.420	376.272	115.135	414.301	98.416	79.153	161.564	260.996	284.951	0.00050181	0.00026081	3.3198e-05	1150.8	3.3925e-06	1.9495e-06	1230.1	245.72	6.2614e-06	3.2168e-06	306.37	85.556	68.915	20.332	1.69e-05	27.748	0.00038041	0.00036583	0.00011762	1135.9	4.1562e-06	3.9919e-06	1215.6	247.27	4.1726e-06	4.1199e-06	308.75	88.052	70.346	21.318	4.8815e-06	29.391	73.343	276.109	233.455	67.026	191.852	376.855	66.913	74.522	156.517	208.940	74.139	80.657	80.852	88.126	183.788	88.051	-8191	255	
6710.465	1	1	0	0	0.10018	0.13256	0.059275	0.26821	0.047313	0.069259	0.22376	0.24458	0.0086701	0.23562	0.12044	0.1883	0.15551	0.087756	0.20436	0.082009	-1.7771	-1.4625	-1.9562	-2.2208	-1.6521	-2.1146	-2.0125	-1.8104	-2.2729	-1.5875	-2.1458	-2.0979	-1.7125	-2.2083	-1.7646	-1.8583	180.178	256.642	243.854	81.873	277.555	236.517	318.747	315.354	268.367	124.987	302.114	391.184	299.440	57.090	152.786	360.101	0.00040761	0.00048472	0.00012118	1144.2	3.7574e-06	9.1745e-06	1230	244.73	3.1556e-06	3.7543e-06	305.32	85.966	68.293	20.118	7.649e-06	27.477	0.00037905	0.00039058	0.00012426	1130.1	4.22e-06	4.383e-06	1217.2	245.9	4.214e-06	4.5255e-06	309.24	87.951	70.252	21.487	5.0385e-06	29.221	414.278	125.819	370.819	66.780	161.582	159.260	66.949	74.544	115.336	273.067	74.138	80.582	81.076	88.153	319.582	87.607	-8191	255	
6710.561	1	1	0	0	0.089835	0.13807	0.04769	0.23155	0.21739	0.19417	0.094364	0.095654	0.22846	0.27657	0.2782	0.25019	0.15275	0.1265	0.20783	0.21569	-1.8708	-1.7167	-1.8208	-2.4729	-1.5979	-2.1437	-2.075	-1.7396	-2.4396	-1.8521	-2.0396	-2.2812	-1.6313	-2.2417	-1.8687	-2.0292	128.102	210.661	385.888	86.654	148.048	336.218	405.656	361.038	341.526	341.054	411.699	375.610	270.120	385.148	403.381	328.992	0.00066938	0.00064815	0.00016995	1150.9	3.2397e-06	7.2184e-06	1232.5	243.99	3.8353e-06	6.0018e-06	304.81	85.521	68.348	20.202	3.0846e-06	27.598	0.000384	0.0004276	0.00012445	1129.7	4.1407e-06	4.5872e-06	1213.4	244.65	4.025e-06	4.5924e-06	306.01	87.091	69.761	21.48	4.474e-06	28.959	76.530	197.003	207.503	66.986	201.625	192.428	66.861	74.468	168.300	195.314	73.865	80.739	81.325	88.165	150.077	87.713	-8191	255	
6710.657	1	1	0	0	0.22492	0.18566	0.12551	0.28796	0.30553	0.1266	0.17682	0.34259	0.078922	0.14935	0.14668	0.14417	0.22284	0.19568	0.18083	0.10707	-1.8958	-2.0167	-1.7062	-2.5438	-1.7771	-1.9854	-2.4604	-1.6354	-2.2667	-1.9438	-1.9083	-2.4396	-1.8188	-1.9083	-2.1479	-1.6729	388.366	356.485	207.136	381.691	187.878	265.619	262.925	351.265	398.339	130.128	135.453	196.394	145.227	91.068	382.842	380.644	0.00041012	0.00021825	0.00024024	1146.8	4.712e-06	6.3031e-06	1227.2	242.34	1.1983e-05	7.1864e-06	303.56	86.012	68.386	20.12	1.5933e-06	27.789	0.0003583	0.00041418	0.00011128	1123.3	3.9224e-06	4.4656e-06	1206	243.09	3.9263e-06	4.5031e-06	303.76	86.912	69.586	21.401	4.1144e-06	28.708	75.455	383.122	327.356	66.972	229.865	164.430	66.870	74.634	162.590	216.061	73.820	81.193	81.282	88.248	69.171	87.649	-8191	255	
6710.753	1	1	0	0	0.17726	0.17884	0.13313	0.2746	0.071986	0.19221	0.30791	0.14727	0.16878	0.10076	0.25976	0.26757	0.15041	0.16383	0.1473	0.17164	-1.875	-1.7938	-1.8354	-2.1833	-1.8104	-1.9604	-2.1833	-1.7396	-2.2833	-2.0563	-1.65	-2.3875	-1.7271	-1.925	-2.2188	-1.9062	342.388	70.732	337.869	330.739	151.726	186.193	355.934	354.631	302.960	406.961	348.586	244.287	399.309	69.490	364.649	410.692	0.00063959	0.00079756	1.3281e-05	1145.8	7.3581e-06	3.0095e-06	1226.9	243.75	1.0797e-05	4.7595e-06	303.77	85.271	68.018	20.092	5.8528e-07	27.723	0.00035989	0.00040489	0.00010308	1122.2	4.0267e-06	4.3822e-06	1202.7	242.73	4.0657e-06	4.406e-06	302.15	86.32	69.873	21.295	3.9966e-06	28.603	82.106	197.210	231.619	66.971	211.297	400.172	66.773	74.536	236.337	121.021	73.738	81.026	81.515	88.430	285.971	87.784	-8191	255	
6710.849	1	1	0	0	0.021146	0.015822	0.22382	0.17715	0.04466	0.19594	0.11336	0.11433	0.030024	0.19604	0.22869	0.09009	0.1404	0.068842	0.13886	0.24573	-1.8542	-2.1542	-1.6021	-2.2417	-1.7708	-1.8396	-2.4646	-1.6875	-1.9583	-2.0271	-1.85	-2.2104	-2.0625	-1.725	-2.0083	-1.9042	246.388	128.777	74.504	332.707	183.538	258.824	282.369	391.126	273.394	286.220	136.829	334.023	79.122	400.947	59.060	264.740	0.00062774	0.00040699	0.00020959	1143.6	5.6974e-06	3.0515e-06	1228.3	242.18	8.4993e-06	2.0438e-06	304.43	85.964	68.403	19.991	1.8367e-06	27.551	0.00038953	0.00039604	0.00010108	1120.6	4.3332e-06	4.2585e-06	1201.4	241.91	4.3258e-06	4.2098e-06	301.89	86.194	70.271	21.193	3.8296e-06	28.566	99.519	216.422	211.284	66.830	192.043	114.085	67.124	74.550	162.281	85.911	73.976	81.033	81.164	88.298	401.419	87.494	-8191	255	
6710.945	1	1	0	0	0.14373	0.097334	0.085994	0.36722	0.13486	0.072692	0.33108	0.22518	0.21855	0.17124	0.37849	0.23903	0.056826	0.039966	0.36423	0.092082	-1.7563	-2.2062	-1.6604	-2.3063	-1.8708	-1.7396	-2.4813	-1.7188	-1.8104	-2.1562	-1.7437	-2.1875	-2.1	-1.9417	-2.2146	-1.8646	121.588	60.899	157.000	355.579	110.324	265.921	304.042	274.999	313.993	399.201	389.905	389.695	254.116	135.548	332.835	255.626	0.00076164	0.00031196	0.00011725	1143.8	8.1012e-07	5.3796e-06	1231.9	242.76	6.8058e-06	2.0377e-06	304.28	85.244	67.495	20.225	6.1289e-06	27.692	0.00039156	0.0003671	9.6322e-05	1119.6	4.334e-06	4.0261e-06	1199.1	242.38	4.4213e-06	4.0519e-06	301.23	86.659	70.249	21.152	3.8589e-06	29.035	100.347	144.545	271.053	66.786	287.578	399.660	67.029	74.395	163.965	329.048	74.201	80.856	80.948	88.350	153.752	87.318	-8191	255	
6711.042	1	1	0	0	0.075542	0.22912	0.23845	0.25183	0.20854	0.21602	0.30569	0.18243	0.027274	0.14525	0.22709	0.35315	0.21692	0.20549	0.20304	0.067499	-1.5854	-2.1479	-1.5146	-2.3083	-1.9813	-1.7083	-2.5729	-2.0729	-1.8646	-2.3688	-1.7854	-2.2292	-2.15	-1.7729	-2.2583	-1.9854	322.100	71.814	122.912	405.287	137.623	188.068	405.004	330.085	156.703	335.763	63.833	338.304	408.719	373.922	180.349	365.319	0.00048191	0.00022996	7.8246e-05	1144.3	4.5158e-06	7.7408e-06	1228.8	241.92	6.7714e-06	3.8409e-06	304.25	86.228	68.052	20.021	9.7675e-06	27.591	0.00041519	0.0003771	0.00010157	1127	4.6194e-06	4.1994e-06	1202.2	243.75	4.5569e-06	4.2212e-06	302.18	87.82	70.408	21.164	4.0633e-06	29.178	92.165	361.505	116.939	67.104	250.332	195.125	66.924	74.408	269.103	278.915	74.074	81.059	81.229	88.128	218.384	87.568	-8191	255	
6711.136	1	1	0	0	0.2198	0.076534	0.11693	0.2287	0.11437	0.040308	0.10146	0.14117	0.23811	0.40126	0.25884	0.21331	0.1102	0.060764	0.13673	0.29605	-1.325	-2.0833	-1.6875	-2.3167	-1.9271	-1.6521	-2.3521	-1.8875	-1.8979	-2.0917	-1.7792	-2.1521	-2.1396	-1.7583	-2.2417	-1.9229	344.310	254.040	348.183	59.863	254.425	301.168	414.545	338.267	255.218	258.592	88.330	354.988	241.377	76.097	203.530	343.928	0.00055871	0.00022598	9.8012e-05	1143.1	7.0175e-06	2.821e-06	1228.1	242.44	2.9306e-06	3.8834e-06	302.28	85.54	67.663	19.965	5.7777e-06	27.584	0.00041615	0.00037996	0.00010368	1130.4	4.4521e-06	4.0801e-06	1203.5	244.53	4.4009e-06	4.0842e-06	301.77	87.774	70.119	21.072	4.1088e-06	29.376	84.694	119.602	128.224	66.971	297.864	386.334	67.056	74.707	60.406	249.166	73.992	80.800	81.229	88.284	216.691	87.910	-8191	255	
