BOXY.EXE: ISS Imagent and Oximeter Data Acquisition Program Version 0.80
Ascii Record File

#ACQ INFORMATION
2  Detector Channels 
16  External MUX Channels 
1  Auxiliary Channels 
5000  Waveform (CCF) Frequency (Hz)
1  Waveforms Skipped 
30  Waveforms Averaged 
1  Cycles Averaged 
16  Acquisitions per Waveform 
10.0806  Updata Rate (Hz) 

#FILE INFORMATION
TRUE -- External MUX Channel results are PARSED.
FALSE -- AC DC and Phase are NOT grouped.
TRUE -- Companion Program Settings File CREATED.
FALSE -- AC data not excluded
FALSE -- DC data not excluded
FALSE -- Phase data not excluded
FALSE -- Auxillary Chn. data not excluded
Tab delimiters

#CALIBRATION STATE
TRUE -- Waveform Calibration Values APPLIED.


#AUX CALIBRATION VALUES
Val Type	aux-1	

Term	1.0000e+00	
Factor	0.0000e+00	


#WF CALIBRATION VALUES
A = Detector Channel
Val Type	A-AC1	A-AC2	A-AC3	A-AC4	A-AC5	A-AC6	A-AC7	A-AC8	A-AC9	A-AC10	A-AC11	A-AC12	A-AC13	A-AC14	A-AC15	A-AC16	A-DC1	A-DC2	A-DC3	A-DC4	A-DC5	A-DC6	A-DC7	A-DC8	A-DC9	A-DC10	A-DC11	A-DC12	A-DC13	A-DC14	A-DC15	A-DC16	A-Ph1	A-Ph2	A-Ph3	A-Ph4	A-Ph5	A-Ph6	A-Ph7	A-Ph8	A-Ph9	A-Ph10	A-Ph11	A-Ph12	A-Ph13	A-Ph14	A-Ph15	A-Ph16	

Term	0.00000e+00	0.00000e+00	0.00000e+00	0.00000e+00	0.00000e+00	0.00000e+00	0.00000e+00	0.00000e+00	0.00000e+00	0.00000e+00	0.00000e+00	0.00000e+00	0.00000e+00	0.00000e+00	0.00000e+00	0.00000e+00	0.00000e+00	0.00000e+00	0.00000e+00	0.00000e+00	0.00000e+00	0.00000e+00	0.00000e+00	0.00000e+00	0.00000e+00	0.00000e+00	0.00000e+00	0.00000e+00	0.00000e+00	0.00000e+00	0.00000e+00	0.00000e+00	0.00000e+00	0.00000e+00	0.00000e+00	0.00000e+00	0.00000e+00	0.00000e+00	0.00000e+00	0.00000e+00	0.00000e+00	0.00000e+00	0.00000e+00	0.00000e+00	0.00000e+00	0.00000e+00	0.00000e+00	0.00000e+00	
Factor	1.00000e+00	1.00000e+00	1.00000e+00	1.00000e+00	1.00000e+00	1.00000e+00	1.00000e+00	1.00000e+00	1.00000e+00	1.00000e+00	1.00000e+00	1.00000e+00	1.00000e+00	1.00000e+00	1.00000e+00	1.00000e+00	1.00000e+00	1.00000e+00	1.00000e+00	1.00000e+00	1.00000e+00	1.00000e+00	1.00000e+00	1.00000e+00	1.00000e+00	1.00000e+00	1.00000e+00	1.00000e+00	1.00000e+00	1.00000e+00	1.00000e+00	1.00000e+00	X	X	X	X	X	X	X	X	X	X	X	X	X	X	X	X	

B = Detector Channel
Val Type	B-AC1	B-AC2	B-AC3	B-AC4	B-AC5	B-AC6	B-AC7	B-AC8	B-AC9	B-AC10	B-AC11	B-AC12	B-AC13	B-AC14	B-AC15	B-AC16	B-DC1	B-DC2	B-DC3	B-DC4	B-DC5	B-DC6	B-DC7	B-DC8	B-DC9	B-DC10	B-DC11	B-DC12	B-DC13	B-DC14	B-DC15	B-DC16	B-Ph1	B-Ph2	B-Ph3	B-Ph4	B-Ph5	B-Ph6	B-Ph7	B-Ph8	B-Ph9	B-Ph10	B-Ph11	B-Ph12	B-Ph13	B-Ph14	B-Ph15	B-Ph16	

Term	0.00000e+00	0.00000e+00	0.00000e+00	0.00000e+00	0.00000e+00	0.00000e+00	0.00000e+00	0.00000e+00	0.00000e+00	0.00000e+00	0.00000e+00	0.00000e+00	0.00000e+00	0.00000e+00	0.00000e+00	0.00000e+00	0.00000e+00	0.00000e+00	0.00000e+00	0.00000e+00	0.00000e+00	0.00000e+00	0.00000e+00	0.00000e+00	0.00000e+00	0.00000e+00	0.00000e+00	0.00000e+00	0.00000e+00	0.00000e+00	0.00000e+00	0.00000e+00	-1.53398e+02	-1.29654e+02	-1.26074e+02	-1.83912e+02	-7.55620e+01	-6.87672e+01	-1.55668e+02	-1.62015e+02	-8.01815e+01	-7.08960e+01	-1.85569e+02	-1.70567e+02	-1.87259e+02	-1.76693e+02	-7.46193e+01	-1.49436e+02	
Factor	2.31531e-05	1.78356e-04	5.60774e-05	2.30928e-01	1.52510e-06	1.94289e-06	1.64567e-01	5.06850e-02	1.44833e-06	2.13848e-06	2.09326e-01	2.95219e-02	6.28061e-02	8.86269e-03	1.65171e-06	1.24599e-02	1.74899e-05	4.03054e-05	1.13277e-05	1.22350e-01	3.89920e-07	4.56949e-07	8.23138e-02	2.69963e-02	3.70752e-07	4.58795e-07	1.07547e-01	1.53148e-02	3.38387e-02	4.76071e-03	4.01584e-07	6.51452e-03	X	X	X	X	X	X	X	X	X	X	X	X	X	X	X	X	



#DISTANCE SETTINGS
A = Detector Channel
A-1	A-2	A-3	A-4	A-5	A-6	A-7	A-8	A-9	A-10	A-11	A-12	A-13	A-14	A-15	A-16	

2.5000e+00	3.0000e+00	2.5000e+00	3.0000e+00	2.0000e+00	3.0000e+00	1.5000e+00	3.0000e+00	3.0000e+00	3.0000e+00	3.0000e+00	3.0000e+00	3.0000e+00	3.0000e+00	1.5000e+00	3.0000e+00	

B = Detector Channel
B-1	B-2	B-3	B-4	B-5	B-6	B-7	B-8	B-9	B-10	B-11	B-12	B-13	B-14	B-15	B-16	

1.0000e+01	1.0000e+01	1.0000e+01	1.4400e+00	1.0000e+01	1.0000e+01	1.5100e+00	1.9400e+00	1.0000e+01	1.0000e+01	1.9900e+00	2.4900e+00	2.4100e+00	2.9000e+00	1.0000e+01	2.9800e+00	




#DATA BEGINS
time	group	step	mark	flag	A-AC1	A-AC2	A-AC3	A-AC4	A-AC5	A-AC6	A-AC7	A-AC8	A-AC9	A-AC10	A-AC11	A-AC12	A-AC13	A-AC14	A-AC15	A-AC16	A-DC1	A-DC2	A-DC3	A-DC4	A-DC5	A-DC6	A-DC7	A-DC8	A-DC9	A-DC10	A-DC11	A-DC12	A-DC13	A-DC14	A-DC15	A-DC16	A-Ph1	A-Ph2	A-Ph3	A-Ph4	A-Ph5	A-Ph6	A-Ph7	A-Ph8	A-Ph9	A-Ph10	A-Ph11	A-Ph12	A-Ph13	A-Ph14	A-Ph15	A-Ph16	B-AC1	B-AC2	B-AC3	B-AC4	B-AC5	B-AC6	B-AC7	B-AC8	B-AC9	B-AC10	B-AC11	B-AC12	B-AC13	B-AC14	B-AC15	B-AC16	B-DC1	B-DC2	B-DC3	B-DC4	B-DC5	B-DC6	B-DC7	B-DC8	B-DC9	B-DC10	B-DC11	B-DC12	B-DC13	B-DC14	B-DC15	B-DC16	B-Ph1	B-Ph2	B-Ph3	B-Ph4	B-Ph5	B-Ph6	B-Ph7	B-Ph8	B-Ph9	B-Ph10	B-Ph11	B-Ph12	B-Ph13	B-Ph14	B-Ph15	B-Ph16	aux-1	digaux	

33898.066	1	1	0	768	0.12511	0.17501	0.11147	0.19326	0.024495	0.20436	0.14062	0.14155	0.10597	0.16495	0.076794	0.26353	0.13281	0.13919	0.09597	0.15882	-1.6688	-2.0312	-1.6187	-2.0062	-1.8937	-1.7687	-2.1875	-1.8792	-1.7958	-2.1521	-1.5104	-1.9813	-1.8271	-1.7917	-1.9021	-1.6229	283.388	51.490	241.921	362.931	124.177	356.343	254.849	388.767	143.735	379.198	145.013	194.005	107.847	351.219	237.956	320.729	0.00043359	0.00034579	0.00013622	409.47	2.7325e-06	2.3276e-06	494.2	165.18	3.0495e-06	3.1143e-06	229.17	99.1	67.815	29.025	4.5315e-06	48.865	0.00073206	0.001153	0.00031479	427.19	1.1624e-05	1.1784e-05	513.06	173.03	1.0057e-05	1.2726e-05	241.07	103.49	71.895	30.633	1.1561e-05	51.474	126.246	114.626	110.384	44.485	165.141	140.622	43.442	49.286	166.465	192.842	47.253	51.117	53.134	57.576	191.712	55.053	-8191	255	
33898.164	1	1	0	0	0.17907	0.096671	0.18354	0.016986	0.26137	0.27945	0.31727	0.12089	0.14599	0.17131	0.025095	0.046671	0.021483	0.1375	0.22372	0.29348	-1.4792	-2.0438	-1.5729	-2.0854	-1.8521	-1.8167	-1.9	-1.8042	-1.7417	-2.0292	-1.5875	-2.0479	-1.8167	-1.5812	-2.0521	-1.8521	198.055	163.911	140.818	322.492	104.241	299.444	326.970	55.971	268.213	115.189	320.626	312.364	57.183	361.477	339.762	333.772	0.00042856	0.00020172	9.329e-05	416.45	4.8418e-06	3.7395e-06	496.93	166.11	1.5722e-06	2.8958e-06	232.29	99.288	68.569	28.786	3.246e-06	49.229	0.00071636	0.0011693	0.00031727	430.51	1.1772e-05	1.1477e-05	515.76	173.47	9.9501e-06	1.2959e-05	241.93	103.91	72.392	30.618	1.1341e-05	51.939	126.415	89.042	105.122	44.589	164.954	193.074	43.699	49.393	164.146	156.293	47.469	51.391	53.624	57.716	152.014	54.921	-8191	255	
33898.262	1	1	0	0	0.31175	0.30772	0.05741	0.27273	0.017501	0.30016	0.064504	0.12674	0.13103	0.061862	0.21612	0.085019	0.061131	0.23753	0.12248	0.25787	-1.4271	-2.0271	-1.5875	-1.8333	-1.9	-1.6958	-2.1854	-1.8417	-1.5854	-2.1	-1.5604	-1.9062	-1.9104	-1.6063	-2.0917	-1.8312	211.008	157.668	49.258	126.888	32.395	312.579	227.053	165.569	109.837	35.458	346.076	356.084	233.721	358.794	271.529	281.603	0.0004808	0.00039499	0.0001011	414.96	4.3322e-06	5.506e-06	498.27	166.71	2.3864e-06	2.5859e-06	230.25	99.388	68.639	29.043	3.4762e-06	49.434	0.00074114	0.0011495	0.00032544	430.09	1.1148e-05	1.2183e-05	516.8	173.67	9.7554e-06	1.2107e-05	242.1	104.09	72.344	30.705	1.0897e-05	52.058	128.930	131.235	128.113	44.583	169.878	193.126	43.676	49.276	185.625	164.192	46.968	50.954	53.454	57.764	184.445	54.806	-8191	255	
33898.355	1	1	0	0	0.32319	0.25728	0.27214	0.19338	0.12531	0.14671	0.19953	0.35998	0.47818	0.10227	0.27713	0.23635	0.30613	0.33	0.23211	0.077769	-1.2458	-2.1562	-1.3792	-1.9813	-1.75	-1.4604	-2.0604	-1.7833	-1.5479	-2.0583	-1.75	-1.7062	-2.1875	-1.625	-1.8292	-2.0479	387.559	166.977	100.354	116.732	174.669	315.401	282.757	45.268	262.278	172.157	339.781	354.970	277.293	354.325	289.047	59.392	0.00040816	0.00062107	0.00010139	413.27	2.315e-06	4.4209e-06	496.79	166	3.2165e-06	3.4715e-06	231.74	99.183	68.344	28.837	3.291e-06	48.721	0.00070437	0.0011138	0.00032109	429.52	1.0853e-05	1.1864e-05	516.27	173.24	9.7245e-06	1.1912e-05	242.57	103.66	72.146	30.542	1.0635e-05	51.349	124.074	108.605	123.359	44.564	164.000	176.708	43.696	49.302	170.389	167.584	47.946	51.309	53.352	57.318	170.946	54.751	-8191	255	
33898.453	1	1	0	0	0.11872	0.19492	0.14612	0.10041	0.05722	0.15884	0.14795	0.27734	0.21353	0.14999	0.11729	0.11523	0.42232	0.19186	0.035203	0.15585	-1.3062	-2	-1.7146	-1.8104	-2.1146	-1.6854	-2.1937	-1.8604	-1.6479	-2.1792	-1.7833	-1.75	-2.0542	-1.6063	-1.9917	-1.8771	108.175	316.895	215.969	317.916	76.665	319.175	76.039	352.074	376.200	220.201	369.861	142.643	76.389	365.902	62.707	305.388	0.00046357	0.00014345	0.00013462	410.68	2.1086e-06	4.3458e-06	495.97	165.84	3.7825e-06	5.6506e-06	229.11	98.17	68.002	28.653	4.6766e-06	48.468	0.0007485	0.001096	0.00032447	427.71	1.105e-05	1.2521e-05	513.62	172.85	1.0407e-05	1.2084e-05	241	102.91	72.087	30.44	1.0728e-05	51.137	128.355	79.117	126.324	45.259	164.098	197.307	43.677	49.164	187.087	193.652	47.675	51.047	53.104	57.653	181.123	55.197	-8191	255	
33898.547	1	1	0	0	0.093802	0.083418	0.11882	0.21494	0.099203	0.11832	0.21296	0.35853	0.2528	0.26706	0.31561	0.15811	0.28842	0.051589	0.35611	0.18608	-1.2625	-2.0187	-1.7042	-1.7583	-2.0104	-1.6917	-1.9854	-2.0438	-1.4292	-1.9333	-1.8021	-1.7542	-2.1375	-1.6458	-1.8708	-2.0896	137.024	226.321	190.771	59.383	122.228	137.929	372.538	369.741	235.317	169.622	303.886	76.136	335.232	46.775	91.491	260.137	0.00044336	0.00032145	0.0001051	409.53	1.6276e-06	2.2482e-06	498	165.68	3.6243e-06	3.5146e-06	229.88	98.663	68.175	28.683	3.0479e-06	48.785	0.00076172	0.0011369	0.00033094	427.5	1.1274e-05	1.2782e-05	514.54	173.03	1.0583e-05	1.1785e-05	241.21	103.36	72.019	30.458	1.0727e-05	51.497	128.109	144.712	125.593	44.190	190.638	158.745	43.723	49.363	189.533	207.832	47.387	50.892	53.181	57.319	148.881	54.948	-8191	255	
33898.668	1	1	0	0	0.3361	0.1952	0.29358	0.27123	0.27141	0.16142	0.1527	0.35291	0.071271	0.049525	0.28022	0.35772	0.20629	0.28697	0.34956	0.14462	-1.025	-2.0563	-1.7771	-1.725	-2.0771	-1.6958	-1.8271	-1.9917	-1.6292	-1.9854	-1.9042	-1.6646	-2.0542	-1.6917	-1.85	-2.0479	198.454	371.415	118.067	314.537	218.087	342.799	268.688	298.567	182.776	75.217	374.865	367.652	72.198	307.542	35.517	234.469	0.00042052	0.00041343	7.7619e-05	413.63	1.5978e-06	5.3801e-06	497.38	165.4	3.7565e-06	4.8259e-06	228.78	99.618	67.786	28.722	2.4493e-06	49.387	0.00077998	0.0010415	0.00033901	428.54	1.1053e-05	1.3366e-05	516.31	173.08	1.0871e-05	1.2032e-05	242.23	104.04	71.716	30.452	1.0793e-05	51.863	123.612	140.154	153.950	44.579	149.658	163.364	43.762	49.277	208.703	142.309	47.126	51.051	53.171	57.472	203.745	55.072	-8191	255	
33898.766	1	1	0	0	0.26706	0.089115	0.15258	0.41732	0.074014	0.21361	0.27179	0.18364	0.1126	0.18257	0.24283	0.23367	0.18633	0.20946	0.1285	0.29364	-1.1938	-2.0271	-1.9562	-1.5646	-2.1188	-1.7396	-1.8937	-1.9583	-1.6396	-1.8188	-2.0271	-1.5792	-2.0646	-1.85	-1.6979	-2.0646	83.375	58.318	295.112	390.378	285.298	376.972	340.228	51.475	73.489	326.876	77.936	388.269	146.787	336.183	98.081	355.415	0.00042697	0.00032429	0.00010492	412.16	2.8716e-06	4.9765e-06	502.38	166.11	5.1096e-06	3.4838e-06	232.13	99.531	67.625	28.68	3.9208e-06	48.703	0.00079853	0.0010508	0.00032796	429.39	1.1049e-05	1.3237e-05	517.48	173.37	1.0814e-05	1.1801e-05	242.45	103.73	71.754	30.43	1.0936e-05	51.266	127.103	121.882	146.364	44.465	209.825	142.411	43.824	49.552	177.238	111.625	47.209	51.383	53.459	57.383	197.597	55.031	-8191	255	
33898.859	1	1	0	0	0.24751	0.12854	0.19922	0.15115	0.1821	0.089294	0.28311	0.15339	0.045664	0.1453	0.092848	0.10855	0.081177	0.17961	0.27821	0.34935	-1.3563	-1.9042	-1.95	-1.4271	-2.0271	-1.6354	-1.7729	-2.2167	-1.6208	-1.8917	-2.1667	-1.7437	-1.8458	-1.8687	-1.5938	-2.1979	166.546	236.897	290.066	275.924	136.797	96.251	357.002	168.315	113.714	71.498	158.080	371.953	248.133	320.973	383.620	385.261	0.00042388	0.00035077	0.00012985	409.95	2.6055e-06	2.7017e-06	496.72	165.45	2.4418e-06	5.7686e-06	228.65	97.986	67.872	28.699	3.4032e-06	48.279	0.00078198	0.0010601	0.00033398	426.2	1.078e-05	1.2917e-05	512.8	172.51	1.0944e-05	1.1805e-05	241.46	102.83	71.718	30.317	1.0931e-05	50.956	123.106	118.160	102.194	44.677	160.057	159.838	43.815	49.732	140.379	209.540	46.929	51.451	53.442	57.601	195.002	54.711	-8191	255	
33898.957	1	1	0	0	0.28481	0.11883	0.16498	0.28461	0.29985	0.26384	0.29514	0.30938	0.37605	0.099988	0.18861	0.23094	0.20078	0.22269	0.26515	0.14532	-1.2958	-1.7833	-1.8937	-1.7583	-1.9458	-2.0708	-1.5208	-2.2854	-1.7708	-1.8458	-2.2208	-1.5896	-1.9562	-1.9604	-1.6229	-2.2604	322.597	338.294	264.555	119.979	51.531	367.463	218.016	355.804	166.059	123.394	144.498	338.157	378.866	378.025	73.734	267.656	0.00045085	0.00036902	0.00018251	409.7	2.5337e-06	3.683e-06	498.04	164.16	3.3315e-06	4.3565e-06	228.72	98.804	67.552	28.751	1.3356e-06	48.739	0.00079783	0.0010385	0.00032423	426.41	1.0332e-05	1.292e-05	515.09	172.49	1.1071e-05	1.1466e-05	241.04	103.28	71.573	30.351	1.139e-05	51.221	129.669	122.725	98.535	44.715	184.398	180.311	43.955	49.389	190.290	188.796	47.425	51.480	53.569	57.947	216.937	54.701	-8191	255	
33899.055	1	1	0	0	0.054833	0.082119	0.2352	0.11496	0.032716	0.24412	0.15805	0.042455	0.19811	0.13808	0.21375	0.30934	0.15101	0.20355	0.072282	0.35696	-1.2375	-1.7875	-2.1729	-1.8062	-1.85	-1.725	-1.6458	-1.9583	-1.5292	-1.7833	-2.0708	-1.5854	-1.8083	-2.1	-1.5771	-1.9292	188.404	157.856	319.526	262.308	86.647	58.641	255.027	35.332	55.210	89.064	122.678	383.439	369.954	81.089	249.168	353.674	0.00044002	0.00019235	0.00011281	408.59	2.6901e-06	6.3652e-06	497.61	166.24	3.0359e-06	4.2455e-06	230.51	98.928	67.987	28.673	5.5135e-06	49.145	0.00080702	0.0010762	0.00032305	427.22	1.0763e-05	1.3696e-05	516.04	173.1	1.1082e-05	1.2533e-05	243.38	103.92	72.247	30.472	1.1797e-05	51.733	124.600	70.883	117.534	44.941	183.736	174.827	43.703	49.461	188.590	177.649	47.310	51.329	53.609	57.249	201.096	54.591	-8191	255	
33899.148	1	1	0	0	0.20818	0.32667	0.15482	0.10436	0.23843	0.29154	0.26024	0.2142	0.33575	0.13447	0.41433	0.1963	0.20919	0.089382	0.055672	0.2241	-1.3937	-1.5646	-2.1146	-1.6104	-1.8125	-1.8083	-1.6125	-2.1958	-1.7167	-1.4354	-2.0583	-1.8062	-1.7875	-2.1479	-1.6396	-2.0125	94.069	319.510	326.350	80.573	50.199	253.441	165.705	364.203	128.134	67.582	64.802	32.395	282.625	296.467	126.314	249.598	0.00044006	0.00042317	0.00011257	413.83	2.5866e-06	4.9004e-06	505.73	167.1	4.0095e-06	3.4606e-06	235.12	99.595	68.17	28.691	3.785e-06	48.834	0.00082399	0.0010943	0.00034134	430.52	1.0764e-05	1.3461e-05	521.83	174.05	1.1494e-05	1.2731e-05	245.27	104.2	71.998	30.441	1.2113e-05	51.391	122.099	101.715	111.409	44.430	163.825	176.750	43.933	49.422	187.664	212.036	47.016	51.240	53.189	57.385	212.381	55.102	-8191	255	
33899.270	1	1	0	0	0.20505	0.07158	0.17428	0.23968	0.2035	0.25588	0.32687	0.20957	0.26072	0.32909	0.2698	0.29764	0.13402	0.3733	0.22933	0.26735	-1.5667	-1.4854	-2.1708	-1.6208	-1.7917	-2.1042	-1.4542	-1.9688	-1.9771	-1.675	-2.1521	-1.6146	-1.7354	-2.1	-1.5083	-2.0417	289.726	147.073	337.157	381.748	368.752	66.432	279.881	42.939	97.353	120.472	279.231	278.011	242.460	34.814	156.984	357.481	0.00043377	0.00044071	8.9239e-05	412.97	2.7698e-06	1.3837e-06	497.15	164.97	2.1955e-06	5.61e-06	233.36	98.003	68.035	28.632	2.0974e-06	48.026	0.00081077	0.00109	0.00031012	430	1.0209e-05	1.3276e-05	517.38	172.94	1.1527e-05	1.2509e-05	242.36	102.71	71.684	30.218	1.2073e-05	50.595	129.337	117.797	114.786	44.388	143.829	195.407	43.854	49.486	161.308	196.709	46.678	51.047	52.891	57.518	169.458	54.587	-8191	255	
33899.363	1	1	0	0	0.18529	0.20223	0.075415	0.1224	0.14612	0.14486	0.14542	0.24502	0.16147	0.19038	0.194	0.48578	0.39347	0.14277	0.20232	0.062613	-1.3021	-1.5333	-2.0187	-1.6979	-1.8667	-2.15	-1.6	-2.0938	-1.9062	-1.7146	-2.15	-1.9979	-1.6167	-1.9625	-1.6167	-2.0271	324.283	349.564	353.422	378.519	328.457	390.555	187.766	109.728	311.408	107.438	347.706	385.633	382.702	236.042	286.110	338.014	0.00044017	0.00036745	9.9724e-05	413.2	2.1852e-06	3.4415e-06	498.1	165.14	2.227e-06	2.0724e-06	231.23	98.041	67.444	28.5	2.5565e-06	48.507	0.00081496	0.001108	0.00030594	428.6	1.0557e-05	1.2806e-05	514.87	172.38	1.1269e-05	1.2325e-05	242.15	102.88	71.159	30.231	1.192e-05	51.046	125.791	120.522	100.619	44.270	198.114	160.170	43.634	49.225	159.920	146.607	47.270	50.819	53.526	57.352	177.804	54.928	-8191	255	
33899.461	1	1	0	0	0.22364	0.23221	0.28838	0.40096	0.028305	0.26409	0.15974	0.14498	0.44726	0.37336	0.032431	0.24101	0.19607	0.30209	0.11723	0.58412	-1.5104	-1.5958	-2.1188	-1.8417	-1.5562	-2.2333	-1.6875	-1.8792	-1.9542	-1.5083	-2.1521	-1.7208	-1.6187	-2.2625	-1.6625	-1.6333	355.491	349.331	380.651	115.190	149.346	76.757	305.897	44.618	60.853	57.877	170.650	286.394	364.052	339.585	379.004	329.764	0.00045387	0.00022763	0.00017483	410.87	2.7788e-06	4.5776e-06	494.8	164.26	3.6025e-06	4.3309e-06	232.22	98.705	68.053	28.517	3.1661e-06	49.228	0.00080002	0.0011209	0.00030488	426.01	1.0501e-05	1.2772e-05	515.08	171.81	1.1235e-05	1.2646e-05	242.31	103.75	71.603	30.301	1.174e-05	51.75	129.357	131.311	127.462	44.075	176.233	164.799	43.483	49.678	186.752	173.677	47.588	51.038	53.343	57.600	198.391	54.731	-8191	255	
33899.559	1	1	0	0	0.038409	0.10263	0.077642	0.2922	0.18213	0.16722	0.18444	0.32909	0.16843	0.17267	0.18255	0.10105	0.27199	0.24029	0.14302	0.23962	-1.5833	-1.5125	-2.0208	-1.6458	-1.5854	-2.1042	-1.7833	-1.7354	-1.975	-1.6688	-1.9083	-1.9104	-1.9146	-2.05	-1.8479	-1.6417	253.985	285.859	356.230	126.422	337.852	376.208	348.072	315.780	388.542	303.844	47.025	75.195	293.571	272.684	38.290	73.425	0.00043766	0.0004999	0.00012498	407.57	3.3182e-06	4.9597e-06	496.31	165.2	3.4843e-06	4.3933e-06	233.51	100.01	67.909	28.622	2.8725e-06	49.173	0.00080621	0.0011695	0.00030372	424.32	1.0836e-05	1.2283e-05	515.44	172.4	1.1107e-05	1.2685e-05	244.04	104.64	71.847	30.431	1.1981e-05	51.818	125.604	120.938	95.610	44.950	169.543	190.934	43.634	49.213	151.819	169.339	46.889	50.854	53.012	57.323	181.133	54.718	-8191	255	
33899.629	1	1	0	0	0.14325	0.091277	0.17647	0.20649	0.19994	0.20693	0.13182	0.12306	0.18416	0.18088	0.2595	0.28466	0.088115	0.2261	0.17909	0.18785	-1.2771	-1.5938	-1.9188	-1.9771	-1.5333	-1.8958	-1.875	-1.7167	-2.0354	-1.6917	-1.8375	-1.9708	-1.5438	-1.9354	-1.7771	-1.525	83.102	95.635	225.734	382.122	83.816	124.771	322.109	67.528	258.103	114.489	62.139	268.247	216.162	363.655	382.177	320.349	0.00041842	0.00033345	8.1655e-05	408.43	2.9372e-06	4.753e-06	498.7	166.13	4.318e-06	3.0508e-06	231.81	98.884	67.615	28.639	4.6526e-06	47.868	0.00077109	0.0011228	0.0002848	425.42	1.0894e-05	1.1579e-05	516.52	172.87	1.0487e-05	1.2622e-05	243.16	103.43	71.743	30.238	1.1705e-05	50.707	126.160	118.400	129.279	44.390	166.562	158.201	43.597	48.989	170.303	154.845	46.967	51.452	53.248	57.288	193.788	54.843	-8191	255	
33899.750	1	1	0	0	0.38413	0.12794	0.29221	0.11464	0.17685	0.23889	0.14941	0.19709	0.46083	0.11937	0.21069	0.12213	0.05763	0.12536	0.12379	0.2619	-1.7375	-1.7687	-1.8042	-2	-1.6667	-2.075	-1.9312	-1.7938	-2.1333	-1.6604	-1.8563	-2.0417	-1.6688	-2.05	-1.8479	-1.6104	75.683	85.367	253.055	304.622	264.760	140.591	258.018	202.486	287.013	123.661	294.257	48.668	72.627	292.564	367.125	32.465	0.00041407	0.00024165	0.00013472	413.45	2.9778e-06	3.0514e-06	500.39	165.78	3.4712e-06	4.8853e-06	233.13	98.895	68.112	28.553	4.2467e-06	48.462	0.00073097	0.0010986	0.00026193	428.07	1.0701e-05	1.0972e-05	518.8	173.26	9.7639e-06	1.2139e-05	243.46	103.79	71.765	30.286	1.15e-05	51.123	130.248	104.519	123.810	44.808	173.085	149.356	44.058	49.671	164.262	156.816	47.159	50.818	52.818	56.964	196.547	54.384	-8191	255	
