BOXY.EXE: ISS Imagent and Oximeter Data Acquisition Program Version 0.80
Ascii Record File

#ACQ INFORMATION
2  Detector Channels 
16  External MUX Channels 
1  Auxiliary Channels 
5000  Waveform (CCF) Frequency (Hz)
1  Waveforms Skipped 
30  Waveforms Averaged 
1  Cycles Averaged 
16  Acquisitions per Waveform 
10.0806  Updata Rate (Hz) 

#FILE INFORMATION
TRUE -- External MUX Channel results are PARSED.
FALSE -- AC DC and Phase are NOT grouped.
TRUE -- Companion Program Settings File CREATED.
FALSE -- AC data not excluded
FALSE -- DC data not excluded
FALSE -- Phase data not excluded
FALSE -- Auxillary Chn. data not excluded
Tab delimiters

#CALIBRATION STATE
TRUE -- Waveform Calibration Values APPLIED.


#AUX CALIBRATION VALUES
Val Type	aux-1	

Term	1.0000e+00	
Factor	0.0000e+00	


#WF CALIBRATION VALUES
A = Detector Channel
Val Type	A-AC1	A-AC2	A-AC3	A-AC4	A-AC5	A-AC6	A-AC7	A-AC8	A-AC9	A-AC10	A-AC11	A-AC12	A-AC13	A-AC14	A-AC15	A-AC16	A-DC1	A-DC2	A-DC3	A-DC4	A-DC5	A-DC6	A-DC7	A-DC8	A-DC9	A-DC10	A-DC11	A-DC12	A-DC13	A-DC14	A-DC15	A-DC16	A-Ph1	A-Ph2	A-Ph3	A-Ph4	A-Ph5	A-Ph6	A-Ph7	A-Ph8	A-Ph9	A-Ph10	A-Ph11	A-Ph12	A-Ph13	A-Ph14	A-Ph15	A-Ph16	

Term	0.00000e+00	0.00000e+00	0.00000e+00	0.00000e+00	0.00000e+00	0.00000e+00	0.00000e+00	0.00000e+00	0.00000e+00	0.00000e+00	0.00000e+00	0.00000e+00	0.00000e+00	0.00000e+00	0.00000e+00	0.00000e+00	0.00000e+00	0.00000e+00	0.00000e+00	0.00000e+00	0.00000e+00	0.00000e+00	0.00000e+00	0.00000e+00	0.00000e+00	0.00000e+00	0.00000e+00	0.00000e+00	0.00000e+00	0.00000e+00	0.00000e+00	0.00000e+00	0.00000e+00	0.00000e+00	0.00000e+00	0.00000e+00	0.00000e+00	0.00000e+00	0.00000e+00	0.00000e+00	0.00000e+00	0.00000e+00	0.00000e+00	0.00000e+00	0.00000e+00	0.00000e+00	0.00000e+00	0.00000e+00	
Factor	1.00000e+00	1.00000e+00	1.00000e+00	1.00000e+00	1.00000e+00	1.00000e+00	1.00000e+00	1.00000e+00	1.00000e+00	1.00000e+00	1.00000e+00	1.00000e+00	1.00000e+00	1.00000e+00	1.00000e+00	1.00000e+00	1.00000e+00	1.00000e+00	1.00000e+00	1.00000e+00	1.00000e+00	1.00000e+00	1.00000e+00	1.00000e+00	1.00000e+00	1.00000e+00	1.00000e+00	1.00000e+00	1.00000e+00	1.00000e+00	1.00000e+00	1.00000e+00	X	X	X	X	X	X	X	X	X	X	X	X	X	X	X	X	

B = Detector Channel
Val Type	B-AC1	B-AC2	B-AC3	B-AC4	B-AC5	B-AC6	B-AC7	B-AC8	B-AC9	B-AC10	B-AC11	B-AC12	B-AC13	B-AC14	B-AC15	B-AC16	B-DC1	B-DC2	B-DC3	B-DC4	B-DC5	B-DC6	B-DC7	B-DC8	B-DC9	B-DC10	B-DC11	B-DC12	B-DC13	B-DC14	B-DC15	B-DC16	B-Ph1	B-Ph2	B-Ph3	B-Ph4	B-Ph5	B-Ph6	B-Ph7	B-Ph8	B-Ph9	B-Ph10	B-Ph11	B-Ph12	B-Ph13	B-Ph14	B-Ph15	B-Ph16	

Term	0.00000e+00	0.00000e+00	0.00000e+00	0.00000e+00	0.00000e+00	0.00000e+00	0.00000e+00	0.00000e+00	0.00000e+00	0.00000e+00	0.00000e+00	0.00000e+00	0.00000e+00	0.00000e+00	0.00000e+00	0.00000e+00	0.00000e+00	0.00000e+00	0.00000e+00	0.00000e+00	0.00000e+00	0.00000e+00	0.00000e+00	0.00000e+00	0.00000e+00	0.00000e+00	0.00000e+00	0.00000e+00	0.00000e+00	0.00000e+00	0.00000e+00	0.00000e+00	-1.60165e+02	-1.56046e+02	-1.61601e+02	-1.84043e+02	-1.15639e+02	-8.35182e+01	-1.55479e+02	-1.62015e+02	-1.02200e+02	-1.19732e+02	-1.85372e+02	-1.70396e+02	-1.86982e+02	-1.76531e+02	-6.46452e+01	-1.49226e+02	
Factor	2.80052e-05	7.83278e-05	3.39611e-05	2.47397e-01	8.53685e-07	8.94540e-07	1.74294e-01	5.63954e-02	8.49358e-07	1.01448e-06	2.25253e-01	3.31667e-02	6.79303e-02	9.94483e-03	1.03214e-06	1.41766e-02	3.98363e-07	4.02558e-07	1.11943e-07	1.12903e-01	4.40606e-09	4.40072e-09	7.81490e-02	2.63565e-02	4.40888e-09	4.39813e-09	8.24592e-02	1.43961e-02	2.55369e-02	4.44917e-03	4.40686e-09	6.06539e-03	X	X	X	X	X	X	X	X	X	X	X	X	X	X	X	X	



#DISTANCE SETTINGS
A = Detector Channel
A-1	A-2	A-3	A-4	A-5	A-6	A-7	A-8	A-9	A-10	A-11	A-12	A-13	A-14	A-15	A-16	

2.5000e+00	3.0000e+00	2.5000e+00	3.0000e+00	2.0000e+00	3.0000e+00	1.5000e+00	3.0000e+00	3.0000e+00	3.0000e+00	3.0000e+00	3.0000e+00	3.0000e+00	3.0000e+00	1.5000e+00	3.0000e+00	

B = Detector Channel
B-1	B-2	B-3	B-4	B-5	B-6	B-7	B-8	B-9	B-10	B-11	B-12	B-13	B-14	B-15	B-16	

1.0000e+01	1.0000e+01	1.0000e+01	1.4400e+00	1.0000e+01	1.0000e+01	1.5100e+00	1.9400e+00	1.0000e+01	1.0000e+01	1.9900e+00	2.4900e+00	2.4100e+00	2.9000e+00	1.0000e+01	2.9800e+00	




#DATA BEGINS
time	group	step	mark	flag	A-AC1	A-AC2	A-AC3	A-AC4	A-AC5	A-AC6	A-AC7	A-AC8	A-AC9	A-AC10	A-AC11	A-AC12	A-AC13	A-AC14	A-AC15	A-AC16	A-DC1	A-DC2	A-DC3	A-DC4	A-DC5	A-DC6	A-DC7	A-DC8	A-DC9	A-DC10	A-DC11	A-DC12	A-DC13	A-DC14	A-DC15	A-DC16	A-Ph1	A-Ph2	A-Ph3	A-Ph4	A-Ph5	A-Ph6	A-Ph7	A-Ph8	A-Ph9	A-Ph10	A-Ph11	A-Ph12	A-Ph13	A-Ph14	A-Ph15	A-Ph16	B-AC1	B-AC2	B-AC3	B-AC4	B-AC5	B-AC6	B-AC7	B-AC8	B-AC9	B-AC10	B-AC11	B-AC12	B-AC13	B-AC14	B-AC15	B-AC16	B-DC1	B-DC2	B-DC3	B-DC4	B-DC5	B-DC6	B-DC7	B-DC8	B-DC9	B-DC10	B-DC11	B-DC12	B-DC13	B-DC14	B-DC15	B-DC16	B-Ph1	B-Ph2	B-Ph3	B-Ph4	B-Ph5	B-Ph6	B-Ph7	B-Ph8	B-Ph9	B-Ph10	B-Ph11	B-Ph12	B-Ph13	B-Ph14	B-Ph15	B-Ph16	aux-1	digaux	

18870.811	1	1	0	768	0.32583	0.11695	0.13087	0.15843	0.082683	0.23577	0.42013	0.11403	0.14549	0.25774	0.070048	0.14576	0.21659	0.20818	0.1693	0.17702	-1.4167	-1.8875	-2.1875	-1.7896	-1.8375	-1.8687	-1.8667	-2.2479	-1.8521	-1.7042	-2.1437	-1.7604	-1.8167	-1.9062	-1.5479	-2.0854	107.398	163.213	147.131	405.314	218.639	91.506	359.308	272.113	413.137	398.549	168.565	392.125	217.020	432.864	217.222	290.330	0.00053743	0.00038936	0.00044033	1348.4	6.4435e-06	1.7231e-06	1347.1	365.78	3.4885e-06	9.5383e-06	416.77	140.3	121.27	41.59	6.6887e-06	51.305	0.00057803	0.00057462	0.0001602	1379.4	6.2732e-06	6.2984e-06	1376	374.54	6.2799e-06	6.2537e-06	430.88	143.77	125.48	43.106	6.2569e-06	53.207	130.517	429.446	432.764	100.044	156.142	323.428	99.767	104.664	183.412	240.423	103.991	108.456	109.099	113.729	181.603	112.516	-8191	255	
18870.906	1	1	0	0	0.093638	0.08088	0.072536	0.27857	0.31185	0.18591	0.068783	0.14924	0.13725	0.27759	0.41501	0.17451	0.32328	0.10839	0.31033	0.19294	-1.3563	-1.6917	-2.2083	-1.9125	-1.9688	-2.2083	-1.6812	-2.1021	-1.9792	-1.7021	-2.075	-1.5625	-1.8917	-2.0583	-1.4542	-2.0833	359.996	215.610	425.352	419.393	101.863	340.601	376.903	405.938	331.338	255.327	415.608	115.543	390.992	167.864	343.914	332.216	0.00066538	5.5283e-05	0.00014	1349.6	1.195e-05	4.1535e-06	1344.8	365.9	7.0594e-06	7.0001e-06	419.96	139.58	122.06	41.584	1.0387e-05	51.351	0.00057283	0.00056916	0.00015789	1376.7	6.2118e-06	6.2063e-06	1371.4	373.93	6.2062e-06	6.1922e-06	429.27	143.34	125.34	42.998	6.2153e-06	53.244	141.881	99.069	214.780	100.122	177.719	235.959	99.992	104.607	254.218	222.073	104.658	108.363	108.811	113.383	276.622	112.933	-8191	255	
18871.004	1	1	0	0	0.33202	0.17133	0.14775	0.24962	0.2251	0.13111	0.26311	0.30556	0.19373	0.091403	0.2735	0.25612	0.22794	0.18482	0.19188	0.17994	-1.3813	-1.4083	-2.1417	-1.9562	-1.6146	-2.0271	-1.8229	-2.1083	-1.9	-1.7375	-2.1458	-1.6292	-1.8375	-2.1146	-1.6583	-1.8896	106.147	114.411	387.491	411.777	373.150	132.814	361.647	434.942	369.713	379.415	249.418	340.225	162.433	445.539	418.051	87.591	0.00061912	0.00046508	7.1455e-05	1350.5	1.8577e-06	4.0699e-06	1342.8	366.22	5.954e-06	1.0217e-05	419.62	139.14	121.95	41.684	1.0874e-05	51.975	0.00056804	0.00056577	0.00015755	1377	6.1876e-06	6.1979e-06	1370	373.98	6.2286e-06	6.2595e-06	430.1	143.32	125.47	43.098	6.2759e-06	53.375	141.933	145.614	94.539	99.967	132.649	208.921	99.869	104.625	243.380	152.725	104.141	108.312	108.330	113.691	301.678	112.495	-8191	255	
18871.100	1	1	0	0	0.048076	0.18202	0.23117	0.13425	0.23461	0.069422	0.22842	0.14456	0.027672	0.23219	0.15648	0.18894	0.09324	0.14957	0.057416	0.19769	-1.4271	-1.5125	-1.6896	-1.8312	-1.6708	-2.2375	-1.5979	-2.0375	-2.0687	-1.5729	-2.0125	-1.7687	-1.5812	-2.2167	-1.6521	-2.0104	340.427	151.085	392.774	341.662	212.197	261.174	377.408	140.824	332.692	251.402	373.798	390.746	440.842	399.182	152.578	98.489	0.00074743	0.00025907	0.00029788	1353.8	9.5144e-07	2.587e-07	1347.2	366.93	4.7456e-06	2.5047e-06	420.14	139.78	121.74	41.693	4.9707e-06	51.524	0.00057585	0.00057423	0.00016022	1379	6.3196e-06	6.2735e-06	1375.5	374.84	6.2536e-06	6.251e-06	430.17	143.64	125.61	43.101	6.2877e-06	53.442	126.263	163.614	196.174	100.174	426.796	343.731	100.042	104.500	276.839	285.299	103.479	107.957	108.659	113.848	315.605	112.908	-8191	255	
18871.195	1	1	0	0	0.065546	0.35587	0.023303	0.15791	0.47341	0.032119	0.27265	0.15661	0.25536	0.084971	0.2869	0.21446	0.10888	0.066732	0.095788	0.27464	-1.5229	-1.4917	-2.0646	-1.9708	-1.6979	-2.0042	-1.7188	-1.9292	-1.8667	-1.5146	-1.9021	-1.8229	-1.5896	-2.3812	-1.7271	-1.8917	261.174	207.266	146.726	113.574	435.173	90.959	433.722	113.642	319.653	218.392	267.753	425.058	105.149	415.178	382.535	149.727	0.00076578	0.00024781	0.00011943	1354	6.2839e-06	7.9669e-07	1351	367.37	6.3055e-06	7.4466e-06	417.94	139.59	122.25	41.824	4.4702e-06	51.583	0.00057601	0.00057449	0.00015989	1382.1	6.3236e-06	6.3193e-06	1377	375.02	6.2952e-06	6.2803e-06	431.06	143.67	125.58	43.117	6.2813e-06	53.475	140.483	436.919	234.859	100.039	185.163	210.183	99.817	104.687	216.334	172.118	104.113	108.336	108.281	113.669	169.313	112.466	-8191	255	
18871.291	1	1	0	0	0.30539	0.27847	0.098366	0.073333	0.2265	0.16875	0.14141	0.11528	0.26437	0.11688	0.050129	0.035029	0.27613	0.14442	0.17798	0.23495	-1.5271	-1.6125	-1.9188	-2.0062	-1.4083	-2.0917	-2.1312	-2.0083	-2.0125	-1.6708	-1.8167	-2.0896	-1.5187	-2.0583	-1.8021	-1.8125	132.722	92.027	286.930	430.425	270.540	365.056	420.400	185.400	231.206	396.795	182.866	181.080	380.448	395.422	177.028	418.158	0.00074135	0.00019865	0.00036712	1350.4	3.7773e-06	2.7918e-06	1348.1	365.75	5.9146e-06	2.8219e-06	417.08	138.84	122.09	41.632	4.4117e-06	51.413	0.00057582	0.0005744	0.00015985	1381.1	6.2996e-06	6.3068e-06	1377.2	375.38	6.3784e-06	6.365e-06	432.62	143.87	125.94	43.205	6.3536e-06	53.5	153.405	157.094	190.673	100.125	235.445	400.165	99.851	104.574	252.224	309.389	104.340	108.441	108.884	113.681	226.397	112.772	-8191	255	
18871.412	1	1	0	0	0.26366	0.059486	0.14954	0.18405	0.1524	0.046221	0.16456	0.18801	0.1066	0.23185	0.066022	0.13676	0.099965	0.32762	0.20942	0.41182	-1.6417	-1.5333	-1.8333	-2.1	-1.5917	-2	-2.175	-1.7812	-1.9667	-1.55	-1.7125	-1.9	-1.5312	-2.0938	-1.9104	-1.7854	243.152	146.616	142.462	379.487	414.069	102.482	372.168	429.757	218.628	151.958	347.330	410.861	130.211	404.614	94.114	369.384	0.0008054	0.00029127	0.00018779	1355.8	4.3097e-06	3.3099e-06	1349.6	365.88	5.0593e-06	5.0459e-06	416.44	139.95	122.18	41.566	9.1606e-06	51.568	0.00058524	0.0005825	0.00016228	1384.8	6.3955e-06	6.3959e-06	1379.3	375.79	6.3976e-06	6.3564e-06	432.56	144	126.41	43.234	6.3629e-06	53.554	141.998	404.425	233.014	100.148	211.192	344.850	100.030	104.419	262.670	209.028	104.772	108.428	109.006	113.415	190.275	112.789	-8191	255	
18871.508	1	1	0	0	0.010951	0.20788	0.060893	0.06659	0.20194	0.12456	0.16215	0.21789	0.078451	0.17526	0.36218	0.15729	0.2364	0.30431	0.088725	0.076928	-1.6208	-1.5396	-1.9417	-2.1271	-1.5729	-1.9354	-2.0333	-1.7229	-2.1771	-1.6396	-1.9021	-2.1	-1.6938	-1.9646	-1.8667	-1.4688	105.845	420.120	321.106	330.652	257.753	313.980	431.550	442.437	394.015	309.779	113.548	231.409	167.276	363.198	198.948	440.473	0.00082711	0.00020586	0.00016399	1350	8.42e-06	6.2015e-06	1350.5	367.37	1.0182e-05	4.8337e-06	417.8	140.45	121.1	41.826	2.8223e-06	51.436	0.00058617	0.00058462	0.00016234	1382.7	6.3682e-06	6.3533e-06	1380.6	375.43	6.3605e-06	6.3559e-06	432.55	144.47	126.07	43.274	6.3799e-06	53.533	131.829	413.002	137.039	99.578	217.200	231.434	99.907	104.871	173.359	234.127	104.588	108.272	108.656	113.561	220.572	112.801	-8191	255	
18871.602	1	1	0	0	0.099549	0.047992	0.10703	0.27267	0.1086	0.19879	0.301	0.11116	0.067964	0.2717	0.13911	0.096445	0.1259	0.19773	0.19321	0.084128	-1.6417	-1.6771	-1.7854	-2.0167	-1.5792	-1.9417	-2.1729	-1.7417	-2.0438	-1.8521	-1.7708	-2.2771	-1.7521	-2.0125	-1.9375	-1.3937	284.562	120.353	140.536	134.488	191.887	138.562	428.797	438.763	115.442	158.441	287.568	233.852	293.992	382.414	336.759	111.900	0.00083147	0.00079954	9.6756e-05	1350	2.3147e-06	2.9721e-06	1350.6	366.64	4.8424e-06	2.2403e-06	418.66	139.61	122.59	41.603	1.3331e-05	51.664	0.00057977	0.00058235	0.0001622	1381.3	6.3699e-06	6.3685e-06	1380.5	376.02	6.3531e-06	6.345e-06	433.04	144.17	126.2	43.159	6.3331e-06	53.44	149.375	158.259	252.770	99.941	438.383	330.012	99.837	104.900	129.556	243.596	104.654	108.393	108.640	113.697	255.163	112.898	-8191	255	
18871.699	1	1	0	0	0.11324	0.15328	0.17765	0.13306	0.1868	0.1883	0.12668	0.13297	0.13942	0.15789	0.18774	0.26819	0.10548	0.12459	0.17708	0.034642	-1.5938	-1.7604	-1.575	-2.1208	-1.6271	-1.9625	-2.1688	-1.5521	-2.0292	-1.775	-1.7583	-2.3167	-1.7396	-2	-2.0729	-1.4854	189.601	342.655	360.609	342.799	191.701	238.534	353.023	396.414	145.272	331.887	409.099	91.045	395.342	414.766	403.977	431.111	0.00065014	0.00030509	0.00027318	1355.2	3.3052e-06	5.3253e-06	1353.6	367.74	2.0065e-06	1.007e-05	419.4	139.78	120.49	41.871	9.7699e-06	51.781	0.00057601	0.00057417	0.00015994	1381.9	6.2598e-06	6.2743e-06	1378.4	375.47	6.2671e-06	6.2714e-06	431.07	143.91	125.43	43.16	6.2375e-06	53.305	142.025	109.339	357.957	99.743	179.032	356.383	99.765	104.471	216.737	124.164	104.007	108.425	108.766	113.369	361.972	112.715	-8191	255	
18871.795	1	1	0	0	0.087703	0.063168	0.24643	0.18848	0.16674	0.053397	0.20302	0.10318	0.12897	0.31022	0.17438	0.086917	0.068119	0.15965	0.039718	0.16753	-1.6667	-1.6604	-1.6187	-2.1021	-1.6604	-1.7375	-2.1854	-1.7125	-1.7875	-1.9604	-1.6187	-2.3167	-1.7188	-1.8729	-2.0417	-1.7771	392.868	341.634	406.121	443.833	266.966	330.298	347.933	390.911	196.856	115.704	373.399	400.881	404.655	398.863	141.470	423.502	0.00068064	0.00032142	0.00021483	1350.5	3.0615e-06	6.4231e-06	1350.9	366.37	3.53e-06	8.1175e-07	420.54	139.71	122.85	41.808	1.4424e-05	51.866	0.00056953	0.00056756	0.00015813	1379.5	6.1958e-06	6.1953e-06	1377.8	374.83	6.1823e-06	6.1948e-06	429.75	143.53	125.57	43.124	6.2265e-06	53.471	132.847	164.596	395.286	100.095	149.909	241.193	100.000	104.664	224.542	129.071	104.281	108.575	108.661	113.877	259.610	112.656	-8191	255	
18871.891	1	1	0	0	0.28674	0.29019	0.10974	0.33558	0.21411	0.1116	0.14123	0.036322	0.28452	0.19449	0.2232	0.20959	0.03769	0.083194	0.05232	0.28488	-1.5292	-1.8854	-1.5396	-2.15	-1.6042	-1.5187	-2.3521	-1.7854	-1.9688	-1.8771	-1.6417	-2.1104	-1.8979	-1.7479	-1.9896	-1.8062	426.078	426.113	348.129	415.509	422.779	135.448	291.408	318.615	438.232	389.662	321.283	420.992	257.713	144.442	306.702	425.209	0.00063545	0.00027037	0.00014745	1355.4	1.2929e-06	3.8296e-06	1358	366.84	3.4374e-06	2.1698e-06	419.57	139.63	122.9	41.857	1.0682e-05	51.903	0.00056781	0.0005685	0.00015812	1381.3	6.2334e-06	6.1956e-06	1381.1	375	6.2266e-06	6.2396e-06	431.74	143.54	125.79	43.143	6.2351e-06	53.452	126.694	107.885	400.722	100.145	100.477	176.865	99.873	104.616	225.895	134.659	104.119	108.415	108.732	113.491	211.781	112.751	-8191	255	
18872.012	1	1	0	0	0.21331	0.15588	0.21496	0.22874	0.083543	0.27851	0.36745	0.13702	0.11239	0.27811	0.39661	0.12266	0.35227	0.16932	0.12912	0.25696	-1.4354	-2.1542	-1.5729	-2.0938	-1.7896	-1.5771	-2.2938	-1.9062	-1.85	-2.0625	-1.8813	-2.0375	-1.9062	-1.7292	-1.9646	-1.85	195.542	132.097	97.061	421.222	172.327	352.738	414.531	303.031	237.759	244.212	397.043	436.061	174.704	374.965	399.732	325.265	0.00079131	0.00073141	0.00015056	1354.1	4.2994e-06	5.6834e-06	1349.7	367.05	5.1906e-06	3.6243e-06	420.06	139.35	122.38	41.634	2.9813e-06	51.597	0.00057183	0.00057254	0.00015932	1383.3	6.261e-06	6.252e-06	1380.3	375.34	6.2396e-06	6.2103e-06	430.37	143.88	125.79	43.128	6.2493e-06	53.343	143.904	107.190	121.001	100.059	202.417	331.474	99.823	104.700	173.988	400.890	104.442	108.387	108.403	113.621	202.649	112.495	-8191	255	
18872.107	1	1	0	0	0.2838	0.23384	0.05122	0.1944	0.074353	0.17229	0.31941	0.27748	0.25278	0.18225	0.22567	0.1243	0.18019	0.11756	0.10238	0.26318	-1.1833	-1.9813	-1.6292	-2.2042	-1.9333	-1.5167	-2.3688	-1.875	-1.7646	-1.9729	-1.5917	-1.8479	-1.9417	-1.6187	-2.0271	-1.8979	258.076	287.867	164.682	323.481	163.907	170.868	400.148	439.210	251.514	222.108	345.822	417.248	307.877	154.709	302.151	438.741	0.00065394	0.00056035	0.00016094	1356.6	6.3473e-06	3.4513e-06	1356.5	366.93	5.4224e-06	3.8373e-06	423.13	140.09	122.05	41.7	2.7989e-06	51.785	0.00057025	0.0005715	0.00015925	1383.7	6.2372e-06	6.2616e-06	1380.9	375.64	6.2306e-06	6.2635e-06	431.15	143.89	125.87	43.1	6.2291e-06	53.356	146.410	160.908	369.649	99.990	190.683	255.875	99.843	104.762	108.736	90.495	104.135	108.451	108.316	113.432	179.968	112.971	-8191	255	
18872.203	1	1	0	0	0.12486	0.21757	0.070196	0.28221	0.023024	0.022725	0.19274	0.14499	0.15597	0.12825	0.040429	0.26253	0.22424	0.23081	0.068246	0.1164	-1.4396	-2.0187	-1.5604	-1.9688	-2.0479	-1.5146	-2.15	-1.775	-1.7146	-1.925	-1.5875	-1.9312	-2.0187	-1.6604	-1.8917	-2.0125	296.922	391.557	279.771	426.682	146.263	352.729	428.687	359.674	137.319	433.857	410.986	411.855	88.960	97.009	290.860	296.326	0.00064156	0.00066684	0.00018824	1360.4	7.3574e-06	6.0419e-06	1355.4	367.51	6.8065e-06	9.0819e-06	414.23	140.42	123.42	41.536	3.6928e-06	51.648	0.00056632	0.00056777	0.00015755	1381.3	6.172e-06	6.1604e-06	1379.6	374.54	6.1564e-06	6.198e-06	429.18	143.76	125.57	43.013	6.2007e-06	53.334	133.780	127.162	113.298	99.956	177.156	279.835	99.860	104.869	210.721	234.618	103.934	108.363	108.983	113.850	275.210	112.326	-8191	255	
18872.301	1	1	0	0	0.20941	0.23403	0.27036	0.17279	0.16577	0.24271	0.2532	0.081679	0.25515	0.11061	0.31117	0.04033	0.019283	0.37845	0.078843	0.10377	-1.1292	-2.1229	-1.5688	-1.8875	-2.1729	-1.5104	-2.2583	-2.1042	-1.5104	-2.1146	-1.7646	-1.7521	-2.1437	-1.5208	-1.7563	-1.9396	230.672	316.219	443.878	181.060	285.157	111.312	375.543	334.123	313.437	367.041	134.333	155.508	431.905	151.155	206.379	270.416	0.00087549	0.00083779	0.00015811	1357	9.7306e-06	9.4224e-06	1355.3	366.72	6.1571e-06	6.6522e-06	420.18	139.68	121.84	41.708	5.5577e-06	51.648	0.00056485	0.00056416	0.00015752	1381.9	6.1411e-06	6.1343e-06	1377.1	374.81	6.1275e-06	6.1209e-06	428.73	143.44	124.96	43.037	6.1267e-06	53.301	149.219	210.730	102.455	99.938	183.207	226.523	99.847	104.739	279.271	310.608	104.577	108.247	108.791	113.772	268.633	112.899	-8191	255	
18872.371	1	1	0	0	0.095673	0.1485	0.25783	0.2981	0.092454	0.080363	0.18564	0.23072	0.077149	0.060316	0.16692	0.11146	0.045454	0.20853	0.28892	0.055967	-1.0771	-1.9167	-1.6083	-1.7188	-2.05	-1.5396	-1.8104	-1.9625	-1.5854	-2.0083	-1.7354	-1.6146	-2.1063	-1.575	-1.6542	-2.0833	320.785	332.900	443.100	348.985	270.645	265.996	408.238	339.553	444.018	312.745	259.229	354.515	110.311	428.437	283.780	190.025	0.00065706	0.00084793	7.7617e-05	1359.6	4.4206e-06	1.3111e-06	1355.8	367.24	2.809e-06	1.8005e-06	419.87	139.99	122.43	41.724	8.4039e-06	51.467	0.00056288	0.00056177	0.00015629	1380.8	6.154e-06	6.1575e-06	1379.1	374.78	6.1815e-06	6.1441e-06	429.55	143.66	125.57	43.13	6.1995e-06	53.359	143.990	102.349	333.609	99.590	108.385	298.929	99.738	104.430	188.924	257.936	104.033	108.462	108.368	113.492	243.161	112.305	-8191	255	
18872.492	1	1	0	0	0.075333	0.033839	0.22767	0.25983	0.14768	0.24131	0.3319	0.22112	0.2128	0.10263	0.072086	0.15339	0.2875	0.27433	0.21127	0.23742	-1.0875	-1.8625	-1.8104	-1.6729	-1.9604	-1.6854	-1.9792	-1.9708	-1.4271	-1.8458	-1.7104	-1.6833	-2.2271	-1.7104	-1.8396	-2.0229	169.127	222.946	164.130	413.339	212.181	92.592	358.019	404.951	215.554	91.405	248.533	411.023	236.011	101.882	377.674	320.975	0.00070739	0.00025061	0.0001807	1358.2	4.4548e-06	6.5034e-06	1355.7	366	6.3706e-06	1.9715e-06	418.34	140.12	121.85	41.535	5.9819e-06	51.518	0.00056779	0.00056776	0.00015819	1384.4	6.1929e-06	6.2242e-06	1380.7	374.89	6.2378e-06	6.2203e-06	429.85	143.58	125.75	43.039	6.2392e-06	53.403	155.614	221.277	182.760	99.786	175.248	208.026	99.576	104.482	302.741	392.038	103.701	108.071	108.401	112.842	401.539	112.281	-8191	255	
