BOXY.EXE: ISS Imagent and Oximeter Data Acquisition Program Version 0.80
Ascii Record File

#ACQ INFORMATION
2  Detector Channels 
16  External MUX Channels 
1  Auxiliary Channels 
5000  Waveform (CCF) Frequency (Hz)
1  Waveforms Skipped 
30  Waveforms Averaged 
1  Cycles Averaged 
16  Acquisitions per Waveform 
10.0806  Updata Rate (Hz) 

#FILE INFORMATION
TRUE -- External MUX Channel results are PARSED.
FALSE -- AC DC and Phase are NOT grouped.
TRUE -- Companion Program Settings File CREATED.
FALSE -- AC data not excluded
FALSE -- DC data not excluded
FALSE -- Phase data not excluded
FALSE -- Auxillary Chn. data not excluded
Tab delimiters

#CALIBRATION STATE
TRUE -- Waveform Calibration Values APPLIED.


#AUX CALIBRATION VALUES
Val Type	aux-1	

Term	1.0000e+00	
Factor	0.0000e+00	


#WF CALIBRATION VALUES
A = Detector Channel
Val Type	A-AC1	A-AC2	A-AC3	A-AC4	A-AC5	A-AC6	A-AC7	A-AC8	A-AC9	A-AC10	A-AC11	A-AC12	A-AC13	A-AC14	A-AC15	A-AC16	A-DC1	A-DC2	A-DC3	A-DC4	A-DC5	A-DC6	A-DC7	A-DC8	A-DC9	A-DC10	A-DC11	A-DC12	A-DC13	A-DC14	A-DC15	A-DC16	A-Ph1	A-Ph2	A-Ph3	A-Ph4	A-Ph5	A-Ph6	A-Ph7	A-Ph8	A-Ph9	A-Ph10	A-Ph11	A-Ph12	A-Ph13	A-Ph14	A-Ph15	A-Ph16	

Term	0.00000e+00	0.00000e+00	0.00000e+00	0.00000e+00	0.00000e+00	0.00000e+00	0.00000e+00	0.00000e+00	0.00000e+00	0.00000e+00	0.00000e+00	0.00000e+00	0.00000e+00	0.00000e+00	0.00000e+00	0.00000e+00	0.00000e+00	0.00000e+00	0.00000e+00	0.00000e+00	0.00000e+00	0.00000e+00	0.00000e+00	0.00000e+00	0.00000e+00	0.00000e+00	0.00000e+00	0.00000e+00	0.00000e+00	0.00000e+00	0.00000e+00	0.00000e+00	0.00000e+00	0.00000e+00	0.00000e+00	0.00000e+00	0.00000e+00	0.00000e+00	0.00000e+00	0.00000e+00	0.00000e+00	0.00000e+00	0.00000e+00	0.00000e+00	0.00000e+00	0.00000e+00	0.00000e+00	0.00000e+00	
Factor	1.00000e+00	1.00000e+00	1.00000e+00	1.00000e+00	1.00000e+00	1.00000e+00	1.00000e+00	1.00000e+00	1.00000e+00	1.00000e+00	1.00000e+00	1.00000e+00	1.00000e+00	1.00000e+00	1.00000e+00	1.00000e+00	1.00000e+00	1.00000e+00	1.00000e+00	1.00000e+00	1.00000e+00	1.00000e+00	1.00000e+00	1.00000e+00	1.00000e+00	1.00000e+00	1.00000e+00	1.00000e+00	1.00000e+00	1.00000e+00	1.00000e+00	1.00000e+00	X	X	X	X	X	X	X	X	X	X	X	X	X	X	X	X	

B = Detector Channel
Val Type	B-AC1	B-AC2	B-AC3	B-AC4	B-AC5	B-AC6	B-AC7	B-AC8	B-AC9	B-AC10	B-AC11	B-AC12	B-AC13	B-AC14	B-AC15	B-AC16	B-DC1	B-DC2	B-DC3	B-DC4	B-DC5	B-DC6	B-DC7	B-DC8	B-DC9	B-DC10	B-DC11	B-DC12	B-DC13	B-DC14	B-DC15	B-DC16	B-Ph1	B-Ph2	B-Ph3	B-Ph4	B-Ph5	B-Ph6	B-Ph7	B-Ph8	B-Ph9	B-Ph10	B-Ph11	B-Ph12	B-Ph13	B-Ph14	B-Ph15	B-Ph16	

Term	0.00000e+00	0.00000e+00	0.00000e+00	0.00000e+00	0.00000e+00	0.00000e+00	0.00000e+00	0.00000e+00	0.00000e+00	0.00000e+00	0.00000e+00	0.00000e+00	0.00000e+00	0.00000e+00	0.00000e+00	0.00000e+00	0.00000e+00	0.00000e+00	0.00000e+00	0.00000e+00	0.00000e+00	0.00000e+00	0.00000e+00	0.00000e+00	0.00000e+00	0.00000e+00	0.00000e+00	0.00000e+00	0.00000e+00	0.00000e+00	0.00000e+00	0.00000e+00	-1.60165e+02	-1.56046e+02	-1.61601e+02	-1.84043e+02	-1.15639e+02	-8.35182e+01	-1.55479e+02	-1.62015e+02	-1.02200e+02	-1.19732e+02	-1.85372e+02	-1.70396e+02	-1.86982e+02	-1.76531e+02	-6.46452e+01	-1.49226e+02	
Factor	2.80052e-05	7.83278e-05	3.39611e-05	2.47397e-01	8.53685e-07	8.94540e-07	1.74294e-01	5.63954e-02	8.49358e-07	1.01448e-06	2.25253e-01	3.31667e-02	6.79303e-02	9.94483e-03	1.03214e-06	1.41766e-02	3.98363e-07	4.02558e-07	1.11943e-07	1.12903e-01	4.40606e-09	4.40072e-09	7.81490e-02	2.63565e-02	4.40888e-09	4.39813e-09	8.24592e-02	1.43961e-02	2.55369e-02	4.44917e-03	4.40686e-09	6.06539e-03	X	X	X	X	X	X	X	X	X	X	X	X	X	X	X	X	



#DISTANCE SETTINGS
A = Detector Channel
A-1	A-2	A-3	A-4	A-5	A-6	A-7	A-8	A-9	A-10	A-11	A-12	A-13	A-14	A-15	A-16	

2.5000e+00	3.0000e+00	2.5000e+00	3.0000e+00	2.0000e+00	3.0000e+00	1.5000e+00	3.0000e+00	3.0000e+00	3.0000e+00	3.0000e+00	3.0000e+00	3.0000e+00	3.0000e+00	1.5000e+00	3.0000e+00	

B = Detector Channel
B-1	B-2	B-3	B-4	B-5	B-6	B-7	B-8	B-9	B-10	B-11	B-12	B-13	B-14	B-15	B-16	

1.0000e+01	1.0000e+01	1.0000e+01	1.4400e+00	1.0000e+01	1.0000e+01	1.5100e+00	1.9400e+00	1.0000e+01	1.0000e+01	1.9900e+00	2.4900e+00	2.4100e+00	2.9000e+00	1.0000e+01	2.9800e+00	




#DATA BEGINS
time	group	step	mark	flag	A-AC1	A-AC2	A-AC3	A-AC4	A-AC5	A-AC6	A-AC7	A-AC8	A-AC9	A-AC10	A-AC11	A-AC12	A-AC13	A-AC14	A-AC15	A-AC16	A-DC1	A-DC2	A-DC3	A-DC4	A-DC5	A-DC6	A-DC7	A-DC8	A-DC9	A-DC10	A-DC11	A-DC12	A-DC13	A-DC14	A-DC15	A-DC16	A-Ph1	A-Ph2	A-Ph3	A-Ph4	A-Ph5	A-Ph6	A-Ph7	A-Ph8	A-Ph9	A-Ph10	A-Ph11	A-Ph12	A-Ph13	A-Ph14	A-Ph15	A-Ph16	B-AC1	B-AC2	B-AC3	B-AC4	B-AC5	B-AC6	B-AC7	B-AC8	B-AC9	B-AC10	B-AC11	B-AC12	B-AC13	B-AC14	B-AC15	B-AC16	B-DC1	B-DC2	B-DC3	B-DC4	B-DC5	B-DC6	B-DC7	B-DC8	B-DC9	B-DC10	B-DC11	B-DC12	B-DC13	B-DC14	B-DC15	B-DC16	B-Ph1	B-Ph2	B-Ph3	B-Ph4	B-Ph5	B-Ph6	B-Ph7	B-Ph8	B-Ph9	B-Ph10	B-Ph11	B-Ph12	B-Ph13	B-Ph14	B-Ph15	B-Ph16	aux-1	digaux	

18890.955	1	1	0	256	0.15532	0.16403	0.19347	0.076219	0.23299	0.16313	0.04516	0.15345	0.11321	0.1254	0.40684	0.2223	0.26714	0.094178	0.20639	0.21067	-1.2583	-1.8208	-1.1667	-1.9021	-1.7042	-1.325	-2.2875	-1.9021	-1.5958	-1.9479	-1.3021	-1.7771	-1.7313	-1.4542	-1.8917	-1.7104	350.170	266.120	209.822	188.566	308.200	348.767	321.881	378.561	108.641	413.317	93.297	124.646	419.747	220.885	206.180	314.999	0.00049109	0.00025289	0.00014152	1119	4.5369e-06	3.0759e-06	1208.8	229.61	3.1859e-06	1.6322e-06	289.69	81.077	64.472	18.785	1.4395e-06	25.699	9.2535e-05	8.8143e-05	2.4568e-05	1004.5	9.7907e-07	9.641e-07	1118.5	211.86	9.8507e-07	9.6971e-07	230.2	73.238	51.878	17.233	9.7386e-07	23.325	144.005	149.789	266.723	102.205	164.044	247.429	102.074	109.446	233.143	191.910	109.207	115.933	115.694	123.525	264.977	123.228	-8191	255	
18891.051	1	1	0	0	0.14611	0.11947	0.16832	0.15623	0.31285	0.33995	0.13227	0.050038	0.11971	0.19081	0.29555	0.22867	0.19504	0.1565	0.11637	0.23207	-1.05	-1.9708	-1.4792	-1.95	-1.65	-1.4667	-2.1375	-1.7417	-1.45	-2.0687	-1.5104	-1.8667	-1.9333	-1.5979	-1.7729	-1.7958	361.900	345.153	111.957	373.552	449.960	187.318	433.330	108.188	332.548	327.899	227.941	335.611	273.732	311.066	292.794	277.948	0.00044313	0.00019451	0.00018027	1118.6	1.8021e-06	2.7367e-06	1204.9	228.64	3.3811e-06	4.5566e-06	287.95	81.212	64.757	18.66	2.1815e-06	25.822	9.0036e-05	8.7726e-05	2.4732e-05	1004.3	9.6254e-07	9.4913e-07	1118.1	211.23	9.611e-07	9.425e-07	229.06	73.038	51.83	17.184	9.4134e-07	23.38	138.792	211.486	164.855	102.148	201.375	178.278	102.088	109.520	217.721	182.716	108.858	115.680	115.518	123.253	213.047	122.851	-8191	255	
18891.146	1	1	0	0	0.38184	0.076259	0.17746	0.21682	0.23797	0.030349	0.32939	0.28174	0.044818	0.20989	0.28048	0.015702	0.36231	0.16565	0.24633	0.021364	-0.8375	-2.0479	-1.3625	-1.6167	-1.8896	-1.3708	-2.0458	-1.7604	-1.5	-2.0979	-1.5021	-1.6896	-1.7646	-1.225	-1.7938	-1.8146	290.443	303.361	441.578	382.456	304.379	314.556	394.565	351.318	323.003	301.682	386.256	438.719	326.992	264.982	177.264	176.046	0.00035565	8.2646e-05	0.00012736	1114	1.4296e-06	2.7197e-06	1204	230.3	2.0706e-06	1.5043e-06	287.99	81.714	64.527	18.746	2.3585e-06	25.639	8.9359e-05	8.6004e-05	2.3918e-05	1001.9	9.4771e-07	9.3932e-07	1114.9	211.8	9.387e-07	9.3977e-07	228.71	73.419	51.805	17.231	9.6097e-07	23.344	153.243	170.670	241.176	101.774	165.184	258.867	102.052	109.309	152.377	214.612	109.224	115.741	115.890	123.208	213.310	122.416	-8191	255	
18891.266	1	1	0	0	0.080053	0.25221	0.17074	0.12492	0.32426	0.19683	0.23309	0.3271	0.020457	0.1035	0.064577	0.13569	0.34331	0.096974	0.2384	0.1941	-1.0042	-1.9396	-1.5688	-1.6562	-1.8354	-1.4562	-1.7542	-1.9229	-1.4625	-1.8479	-1.7521	-1.4458	-1.7437	-1.6208	-1.9	-1.9458	110.314	176.017	359.470	247.728	178.108	151.534	379.779	408.130	107.285	332.384	426.783	325.364	187.321	205.136	129.809	144.750	0.00037616	0.00013288	8.0132e-05	1125.7	6.9251e-07	2.8889e-06	1205.6	228.71	9.2911e-07	3.4408e-06	288.67	81.555	65.3	18.631	6.7805e-07	25.759	9.0596e-05	8.7416e-05	2.4196e-05	1005.4	9.6382e-07	9.4956e-07	1118	211.59	9.6596e-07	9.512e-07	229.41	73.161	51.814	17.183	9.3888e-07	23.309	148.900	93.151	240.472	101.943	269.515	245.473	101.814	109.523	293.611	271.886	109.172	115.579	116.019	123.436	201.945	122.267	-8191	255	
18891.361	1	1	0	0	0.29616	0.1038	0.25116	0.20299	0.11385	0.1814	0.13374	0.20436	0.12941	0.10545	0.10503	0.048411	0.20788	0.18129	0.25781	0.08526	-1.0542	-1.8687	-1.5521	-1.4292	-1.8604	-1.5375	-1.775	-1.8	-1.5083	-1.7021	-1.6187	-1.4792	-1.8917	-1.5854	-1.7354	-1.9292	265.868	97.800	112.219	117.910	268.231	396.863	434.478	326.970	424.458	352.515	327.838	128.889	237.924	361.296	340.590	243.575	0.00032117	0.00032066	3.2988e-05	1118.2	1.7713e-06	3.2484e-06	1208.1	229.12	3.9662e-06	5.1995e-06	289.33	80.513	64.334	18.565	3.2329e-06	25.688	8.7895e-05	8.4503e-05	2.3676e-05	1001.8	9.2478e-07	9.1184e-07	1116.5	211.53	9.3661e-07	9.1423e-07	228.2	72.867	51.577	17.118	9.3915e-07	23.345	144.899	363.655	360.059	101.965	176.347	224.196	101.779	109.341	171.617	110.522	109.490	115.521	116.057	123.263	247.105	122.934	-8191	255	
18891.434	1	1	0	0	0.26929	0.12788	0.38252	0.09685	0.093556	0.19036	0.07998	0.1016	0.32666	0.15761	0.052955	0.19377	0.053001	0.16124	0.040117	0.15533	-0.96667	-1.6979	-1.6792	-1.4896	-1.8333	-1.6875	-1.9667	-1.9125	-1.4438	-1.825	-1.6688	-1.5063	-2.0125	-1.5125	-1.6083	-2.1542	309.727	134.909	262.851	381.886	292.708	264.422	336.956	369.242	308.311	251.039	289.005	305.090	267.537	428.076	237.385	220.064	0.00036458	0.00032238	9.4736e-06	1118.1	2.1147e-06	3.1137e-06	1211.8	229.05	1.0802e-06	2.0203e-06	290.25	81.319	65.117	18.569	2.6421e-06	25.671	8.9904e-05	8.7867e-05	2.4546e-05	1004.5	1.003e-06	1.0032e-06	1121	211.71	1.0301e-06	1.0159e-06	231.54	73.525	52.173	17.257	1.0125e-06	23.465	146.348	100.592	126.327	101.907	333.498	180.445	101.848	109.439	212.351	444.280	109.189	115.661	115.834	123.155	305.606	122.640	-8191	255	
18891.529	1	1	0	0	0.12361	0.4438	0.13839	0.20292	0.29648	0.32884	0.24846	0.027814	0.15744	0.39292	0.196	0.28841	0.080389	0.13953	0.18028	0.12607	-1.1063	-1.7583	-1.7125	-1.6604	-1.9625	-1.6333	-1.7021	-1.8937	-1.4083	-2.0083	-1.7625	-1.5792	-1.7375	-1.875	-1.2979	-1.9333	377.923	129.517	93.652	94.529	138.134	132.484	381.454	122.764	286.365	192.944	128.064	92.740	198.132	123.335	120.867	168.977	0.00026003	0.00031205	7.4614e-05	1116.9	3.56e-06	2.7014e-06	1209.8	230.3	4.7202e-06	3.0629e-06	288.38	81.029	64.967	18.805	4.0251e-06	25.624	9.3882e-05	9.1334e-05	2.4951e-05	1006.7	9.896e-07	9.8344e-07	1120.7	212.15	9.8243e-07	9.7344e-07	229.96	73.195	51.963	17.244	9.6674e-07	23.328	149.919	440.253	155.962	102.021	129.223	125.124	101.968	109.371	138.137	170.231	108.982	115.850	115.990	123.448	312.267	122.848	-8191	255	
18891.650	1	1	0	0	0.14009	0.12936	0.16984	0.29471	0.25838	0.097789	0.13002	0.15466	0.21674	0.12676	0.27073	0.070323	0.20863	0.24443	0.033603	0.26399	-1.2083	-1.8167	-1.8125	-1.4083	-1.9458	-1.6979	-1.6688	-2.1375	-1.6083	-1.6479	-2.0479	-1.5833	-1.9562	-1.6333	-1.3896	-1.8312	237.894	156.305	168.391	144.267	440.373	214.368	413.941	382.084	137.193	431.641	349.493	148.219	236.026	139.047	242.328	436.088	0.00043897	0.00023418	0.00017832	1116.9	2.9093e-06	1.6576e-06	1208	229.95	3.1584e-06	1.4628e-06	286.41	80.925	64.387	18.564	3.4287e-06	25.634	8.9959e-05	8.7329e-05	2.4093e-05	1002.1	9.5386e-07	9.4197e-07	1116.1	211.69	9.4089e-07	9.2578e-07	228.75	73.108	51.453	17.078	9.0876e-07	23.257	135.150	110.508	185.158	101.768	206.323	177.811	101.962	109.747	216.584	238.453	108.919	115.766	116.276	123.681	149.172	122.631	-8191	255	
18891.746	1	1	0	0	0.35459	0.19088	0.10368	0.25782	0.088297	0.10066	0.23995	0.29708	0.20398	0.076955	0.23083	0.038091	0.11067	0.10749	0.18145	0.16575	-1.0646	-1.5917	-1.8813	-1.4854	-1.8417	-1.5187	-1.7833	-2.0604	-1.5271	-1.4917	-1.9875	-1.5833	-1.8208	-1.8271	-1.4875	-2.0958	267.273	400.815	281.932	348.423	223.970	418.853	418.904	382.425	142.476	418.803	152.238	246.440	143.742	288.198	306.469	325.541	0.00036309	0.00013889	4.2266e-05	1105.8	8.4299e-07	3.2343e-06	1203.2	228.49	2.176e-06	2.9608e-06	282.87	80.605	64.997	18.62	2.2846e-06	25.43	8.46e-05	8.0312e-05	2.2043e-05	993.24	8.7375e-07	8.6854e-07	1110.7	210.23	8.9059e-07	8.9054e-07	226.62	72.856	51.582	17.086	8.9516e-07	23.154	144.095	159.143	152.093	102.168	280.957	240.271	101.990	109.636	239.844	175.134	109.004	115.961	115.933	123.523	359.975	122.740	-8191	255	
18891.844	1	1	0	0	0.10286	0.086821	0.22244	0.23125	0.18439	0.32616	0.36125	0.12249	0.23488	0.13241	0.14374	0.071468	0.2115	0.26181	0.12001	0.12697	-1.1187	-1.2979	-1.7333	-1.5438	-1.7563	-1.9646	-1.3604	-1.9604	-1.5833	-1.6375	-2.0875	-1.7083	-1.825	-1.8625	-1.5271	-1.8646	301.050	409.058	297.538	386.629	259.991	330.204	366.806	100.175	267.896	214.351	445.883	301.387	106.517	285.809	403.088	304.450	0.00038733	2.5672e-05	4.4932e-05	1118.2	2.0427e-06	3.0309e-06	1198.3	228.39	4.8929e-07	2.586e-06	288.44	80.887	64.731	18.593	1.2766e-06	25.914	8.5095e-05	8.1203e-05	2.2733e-05	999.45	8.9037e-07	8.7328e-07	1109.9	210.39	8.9503e-07	8.77e-07	227.93	72.814	51.356	17.115	8.9945e-07	23.356	132.294	178.484	99.305	101.920	401.923	230.637	101.837	109.236	198.788	364.178	109.839	115.669	116.155	123.198	188.973	123.012	-8191	255	
18891.939	1	1	0	0	0.089042	0.069172	0.098257	0.28208	0.25554	0.24969	0.15922	0.10745	0.2138	0.21982	0.36547	0.3138	0.1459	0.17778	0.051383	0.19181	-1.4229	-1.3792	-2.0563	-1.7	-1.7437	-1.8083	-1.525	-1.9125	-1.5979	-1.5438	-1.9896	-1.7	-1.825	-1.7646	-1.4271	-2.0021	119.460	172.558	345.088	396.249	278.431	438.900	356.952	369.286	297.729	314.614	315.351	423.039	417.522	329.748	278.416	418.007	0.00038676	0.00028205	9.0844e-05	1108.2	2.963e-06	1.4923e-06	1200.1	227.88	1.4304e-06	2.6646e-06	288.72	80.694	64.7	18.629	5.12e-06	25.768	8.5799e-05	8.203e-05	2.2728e-05	996.98	9.2009e-07	8.9934e-07	1112	210.26	9.1051e-07	8.9444e-07	227.77	72.721	51.379	17.067	8.9591e-07	23.218	138.807	407.685	165.919	101.883	241.026	330.963	102.110	109.363	153.162	249.245	109.031	116.004	115.623	123.371	310.675	123.379	-8191	255	
18892.035	1	1	0	0	0.09832	0.21432	0.14184	0.1365	0.19035	0.092622	0.36488	0.19601	0.089074	0.28416	0.18899	0.083046	0.13393	0.27143	0.29493	0.0022251	-1.0958	-1.3458	-1.9688	-1.6125	-1.5896	-1.9937	-1.6063	-1.7292	-1.8146	-1.2	-1.9229	-1.6625	-1.5688	-1.8229	-1.6167	-1.8333	409.475	368.765	411.207	167.804	236.522	175.115	314.905	423.194	433.139	261.377	307.950	299.160	343.054	118.387	268.285	180.000	0.00042695	8.8671e-05	7.6804e-05	1117.5	2.3643e-06	6.6396e-07	1206.6	227.95	1.9255e-06	1.0532e-06	286.52	80.826	64.904	18.555	2.8093e-06	25.524	8.5253e-05	8.2072e-05	2.2525e-05	999.62	8.959e-07	8.636e-07	1113.3	210.39	8.7226e-07	8.5395e-07	226.44	72.522	51.113	17.028	8.3336e-07	23.147	135.302	180.770	120.750	102.178	172.523	254.303	102.037	109.518	209.612	450.947	109.453	115.561	115.791	123.012	222.729	123.117	-8191	255	
18892.131	1	1	0	0	0.13318	0.30886	0.012049	0.18289	0.1001	0.16909	0.31305	0.16751	0.30535	0.15621	0.14631	0.18427	0.16773	0.1076	0.1071	0.076457	-1.4438	-1.5208	-1.875	-1.6396	-1.5958	-2.0021	-1.75	-1.9729	-1.7938	-1.5604	-1.9792	-1.65	-1.4083	-2.0062	-1.6	-1.6604	135.755	294.659	133.742	95.951	436.491	223.518	369.608	180.680	308.479	215.618	366.741	404.814	426.219	378.170	373.040	449.942	0.00036843	0.00010821	0.00011757	1112.8	1.1999e-06	1.4147e-06	1205.5	227.94	3.8776e-06	2.2917e-06	288.56	81.322	64.29	18.766	2.792e-06	25.62	7.9527e-05	7.8538e-05	2.1292e-05	996.84	8.7901e-07	8.6729e-07	1113.1	210.13	8.9717e-07	8.8643e-07	228.02	72.98	51.467	17.186	9.2116e-07	23.287	137.893	299.283	133.211	101.897	102.081	274.610	101.808	109.528	179.479	284.545	109.205	115.885	115.984	123.275	274.804	122.499	-8191	255	
18892.252	1	1	0	0	0.12168	0.21509	0.104	0.27033	0.10764	0.18308	0.30481	0.20041	0.1164	0.076513	0.051688	0.10532	0.093004	0.32975	0.15801	0.045452	-1.2812	-1.4312	-1.8438	-1.7917	-1.3833	-1.875	-1.7896	-1.6125	-1.9312	-1.5229	-1.8813	-1.8271	-1.475	-1.8583	-1.6125	-1.5833	350.266	383.301	251.992	353.118	136.782	334.045	347.815	339.386	390.214	431.241	238.564	133.707	403.203	404.354	256.195	372.488	0.00033571	8.9273e-05	6.217e-05	1121.8	1.8148e-06	3.227e-06	1203.1	229.14	3.9506e-07	1.7142e-06	289.31	80.857	64.489	18.653	1.1902e-06	25.858	8.6957e-05	8.3615e-05	2.28e-05	1000.1	9.1541e-07	8.9341e-07	1113.7	210.89	8.9514e-07	8.9241e-07	227.13	72.808	51.43	17.142	8.7768e-07	23.19	142.991	199.808	96.944	101.915	337.632	265.853	101.886	109.522	264.794	230.467	109.037	116.160	115.579	123.291	98.494	122.959	-8191	255	
18892.346	1	1	0	0	0.15926	0.049105	0.037339	0.13252	0.068299	0.16369	0.13744	0.25005	0.12365	0.17899	0.21183	0.051762	0.24452	0.23427	0.052644	0.1139	-1.4104	-1.425	-1.6458	-1.8312	-1.5333	-1.9646	-1.6938	-1.4854	-1.9354	-1.4	-1.6167	-1.8021	-1.4854	-1.8708	-1.7062	-1.5	245.752	344.494	273.601	160.356	180.711	436.194	376.149	437.105	447.647	122.543	333.670	119.907	260.980	285.951	153.997	263.459	0.00042843	0.00014095	8.0657e-05	1111.3	2.2689e-06	4.831e-07	1204.4	228.58	1.449e-06	1.1412e-06	289.57	80.844	64.75	18.734	2.2766e-06	25.785	8.2946e-05	8.1835e-05	2.273e-05	999.46	9.0301e-07	9.0299e-07	1115.6	210.99	9.1609e-07	9.175e-07	228.24	72.999	51.612	17.25	9.3716e-07	23.34	145.080	262.944	229.984	102.120	259.628	223.513	101.855	109.362	278.038	294.312	109.111	116.022	115.802	123.413	369.123	122.704	-8191	255	
18892.441	1	1	0	0	0.096327	0.051137	0.3522	0.1337	0.17209	0.021211	0.247	0.19019	0.21948	0.10988	0.094927	0.24891	0.18027	0.12544	0.284	0.17617	-1.6167	-1.3813	-1.5667	-1.9646	-1.5063	-1.8563	-2.025	-1.425	-1.8833	-1.5542	-1.7229	-1.9833	-1.3354	-1.8417	-1.7396	-1.6375	429.393	319.282	190.209	319.860	385.637	310.983	282.146	387.487	153.929	245.829	270.652	321.469	309.140	402.286	276.568	100.301	0.00031309	0.00025248	5.2064e-05	1111.7	5.6381e-07	1.2042e-06	1210.7	229.9	4.4531e-06	5.1468e-06	290.48	81.774	64.466	18.611	1.2166e-06	25.95	8.8616e-05	8.6203e-05	2.4084e-05	1002	9.564e-07	9.4529e-07	1118.7	211.77	9.6193e-07	9.4754e-07	229.47	73.452	51.947	17.203	9.567e-07	23.479	143.242	403.394	326.688	101.908	148.982	138.191	101.978	109.852	153.639	128.696	108.999	115.928	116.123	123.169	358.115	122.507	-8191	255	
18892.539	1	1	0	0	0.13604	0.18426	0.19826	0.23703	0.24697	0.057176	0.28998	0.28164	0.080611	0.13231	0.57955	0.14029	0.16877	0.12199	0.27518	0.20259	-1.4021	-1.4813	-1.4958	-1.9188	-1.425	-1.8958	-2.0417	-1.4937	-1.9167	-1.5625	-1.5458	-2.0271	-1.4417	-1.7958	-1.7833	-1.6667	184.644	182.283	302.903	101.899	299.791	401.578	380.117	91.529	107.902	195.920	377.976	127.645	402.243	239.719	313.369	345.650	0.00037956	7.1848e-05	9.2881e-05	1120.5	3.3751e-06	7.5227e-07	1213.9	229.61	1.8083e-06	2.2206e-06	289.17	81.193	65.599	18.85	4.4279e-06	25.974	9.032e-05	8.6988e-05	2.4789e-05	1005.9	9.7401e-07	9.7149e-07	1121.5	212.44	9.9025e-07	9.8462e-07	230.11	73.469	52.433	17.372	1.0049e-06	23.582	146.356	137.409	132.281	101.670	245.387	288.572	101.889	109.403	311.979	197.051	109.393	115.656	115.728	123.438	236.442	122.840	-8191	255	
18892.658	1	1	0	0	0.29795	0.15386	0.20821	0.19294	0.16201	0.20624	0.055941	0.087449	0.025235	0.16846	0.15349	0.078053	0.21896	0.3746	0.12881	0.13149	-1.1958	-1.6187	-1.5104	-2.1021	-1.3312	-1.8021	-1.9104	-1.5417	-1.9792	-1.7604	-1.5042	-2.1104	-1.5792	-1.6583	-1.7021	-1.4104	123.660	186.904	296.227	133.167	288.380	428.486	218.528	165.591	103.433	242.924	229.507	324.122	381.735	423.934	221.597	99.595	0.00034128	5.9577e-05	9.9491e-05	1118.8	1.917e-06	2.8979e-06	1210.8	229.42	2.7919e-07	4.2738e-07	291	81.233	65.066	18.818	2.9232e-06	25.985	9.659e-05	9.3659e-05	2.5955e-05	1008.2	1.0116e-06	1.0081e-06	1121.6	212.69	9.8638e-07	9.655e-07	230.48	73.525	51.996	17.285	9.6867e-07	23.495	155.706	197.000	221.243	101.912	197.869	333.795	101.814	109.387	228.309	121.911	109.741	115.468	115.725	123.743	396.140	122.577	-8191	255	
