BOXY.EXE: ISS Imagent and Oximeter Data Acquisition Program Version 0.80
Ascii Record File

#ACQ INFORMATION
2  Detector Channels 
16  External MUX Channels 
1  Auxiliary Channels 
5000  Waveform (CCF) Frequency (Hz)
1  Waveforms Skipped 
30  Waveforms Averaged 
1  Cycles Averaged 
16  Acquisitions per Waveform 
10.0806  Updata Rate (Hz) 

#FILE INFORMATION
TRUE -- External MUX Channel results are PARSED.
FALSE -- AC DC and Phase are NOT grouped.
TRUE -- Companion Program Settings File CREATED.
FALSE -- AC data not excluded
FALSE -- DC data not excluded
FALSE -- Phase data not excluded
FALSE -- Auxillary Chn. data not excluded
Tab delimiters

#CALIBRATION STATE
TRUE -- Waveform Calibration Values APPLIED.


#AUX CALIBRATION VALUES
Val Type	aux-1	

Term	1.0000e+00	
Factor	0.0000e+00	


#WF CALIBRATION VALUES
A = Detector Channel
Val Type	A-AC1	A-AC2	A-AC3	A-AC4	A-AC5	A-AC6	A-AC7	A-AC8	A-AC9	A-AC10	A-AC11	A-AC12	A-AC13	A-AC14	A-AC15	A-AC16	A-DC1	A-DC2	A-DC3	A-DC4	A-DC5	A-DC6	A-DC7	A-DC8	A-DC9	A-DC10	A-DC11	A-DC12	A-DC13	A-DC14	A-DC15	A-DC16	A-Ph1	A-Ph2	A-Ph3	A-Ph4	A-Ph5	A-Ph6	A-Ph7	A-Ph8	A-Ph9	A-Ph10	A-Ph11	A-Ph12	A-Ph13	A-Ph14	A-Ph15	A-Ph16	

Term	0.00000e+00	0.00000e+00	0.00000e+00	0.00000e+00	0.00000e+00	0.00000e+00	0.00000e+00	0.00000e+00	0.00000e+00	0.00000e+00	0.00000e+00	0.00000e+00	0.00000e+00	0.00000e+00	0.00000e+00	0.00000e+00	0.00000e+00	0.00000e+00	0.00000e+00	0.00000e+00	0.00000e+00	0.00000e+00	0.00000e+00	0.00000e+00	0.00000e+00	0.00000e+00	0.00000e+00	0.00000e+00	0.00000e+00	0.00000e+00	0.00000e+00	0.00000e+00	0.00000e+00	0.00000e+00	0.00000e+00	0.00000e+00	0.00000e+00	0.00000e+00	0.00000e+00	0.00000e+00	0.00000e+00	0.00000e+00	0.00000e+00	0.00000e+00	0.00000e+00	0.00000e+00	0.00000e+00	0.00000e+00	
Factor	1.00000e+00	1.00000e+00	1.00000e+00	1.00000e+00	1.00000e+00	1.00000e+00	1.00000e+00	1.00000e+00	1.00000e+00	1.00000e+00	1.00000e+00	1.00000e+00	1.00000e+00	1.00000e+00	1.00000e+00	1.00000e+00	1.00000e+00	1.00000e+00	1.00000e+00	1.00000e+00	1.00000e+00	1.00000e+00	1.00000e+00	1.00000e+00	1.00000e+00	1.00000e+00	1.00000e+00	1.00000e+00	1.00000e+00	1.00000e+00	1.00000e+00	1.00000e+00	X	X	X	X	X	X	X	X	X	X	X	X	X	X	X	X	

B = Detector Channel
Val Type	B-AC1	B-AC2	B-AC3	B-AC4	B-AC5	B-AC6	B-AC7	B-AC8	B-AC9	B-AC10	B-AC11	B-AC12	B-AC13	B-AC14	B-AC15	B-AC16	B-DC1	B-DC2	B-DC3	B-DC4	B-DC5	B-DC6	B-DC7	B-DC8	B-DC9	B-DC10	B-DC11	B-DC12	B-DC13	B-DC14	B-DC15	B-DC16	B-Ph1	B-Ph2	B-Ph3	B-Ph4	B-Ph5	B-Ph6	B-Ph7	B-Ph8	B-Ph9	B-Ph10	B-Ph11	B-Ph12	B-Ph13	B-Ph14	B-Ph15	B-Ph16	

Term	0.00000e+00	0.00000e+00	0.00000e+00	0.00000e+00	0.00000e+00	0.00000e+00	0.00000e+00	0.00000e+00	0.00000e+00	0.00000e+00	0.00000e+00	0.00000e+00	0.00000e+00	0.00000e+00	0.00000e+00	0.00000e+00	0.00000e+00	0.00000e+00	0.00000e+00	0.00000e+00	0.00000e+00	0.00000e+00	0.00000e+00	0.00000e+00	0.00000e+00	0.00000e+00	0.00000e+00	0.00000e+00	0.00000e+00	0.00000e+00	0.00000e+00	0.00000e+00	-2.02558e+02	-1.16413e+02	-1.30120e+02	-1.82161e+02	-9.57707e+01	-1.01369e+02	-1.59306e+02	-1.62015e+02	-1.14350e+02	-5.77035e+01	-1.70639e+02	-1.72301e+02	-1.77500e+02	-1.76674e+02	-5.36760e+01	-1.49496e+02	
Factor	4.10936e-05	9.52974e-05	2.49006e-05	1.49428e-01	8.83243e-07	8.91524e-07	1.68800e-01	4.93801e-02	1.17695e-06	7.15398e-07	8.34437e-02	2.98807e-02	2.54106e-02	8.75613e-03	1.20421e-06	1.26828e-02	6.26555e-07	6.35961e-07	1.78841e-07	7.42432e-02	6.95763e-09	6.96690e-09	7.86376e-02	2.43642e-02	6.96256e-09	6.98071e-09	3.91092e-02	1.39300e-02	1.23175e-02	4.23067e-03	7.03845e-09	5.88851e-03	X	X	X	X	X	X	X	X	X	X	X	X	X	X	X	X	



#DISTANCE SETTINGS
A = Detector Channel
A-1	A-2	A-3	A-4	A-5	A-6	A-7	A-8	A-9	A-10	A-11	A-12	A-13	A-14	A-15	A-16	

2.5000e+00	3.0000e+00	2.5000e+00	3.0000e+00	2.0000e+00	3.0000e+00	1.5000e+00	3.0000e+00	3.0000e+00	3.0000e+00	3.0000e+00	3.0000e+00	3.0000e+00	3.0000e+00	1.5000e+00	3.0000e+00	

B = Detector Channel
B-1	B-2	B-3	B-4	B-5	B-6	B-7	B-8	B-9	B-10	B-11	B-12	B-13	B-14	B-15	B-16	

1.0000e+01	1.0000e+01	1.0000e+01	1.4400e+00	1.0000e+01	1.0000e+01	1.5100e+00	1.9400e+00	1.0000e+01	1.0000e+01	1.9900e+00	2.4900e+00	2.4100e+00	2.9000e+00	1.0000e+01	2.9800e+00	




#DATA BEGINS
time	group	step	mark	flag	A-AC1	A-AC2	A-AC3	A-AC4	A-AC5	A-AC6	A-AC7	A-AC8	A-AC9	A-AC10	A-AC11	A-AC12	A-AC13	A-AC14	A-AC15	A-AC16	A-DC1	A-DC2	A-DC3	A-DC4	A-DC5	A-DC6	A-DC7	A-DC8	A-DC9	A-DC10	A-DC11	A-DC12	A-DC13	A-DC14	A-DC15	A-DC16	A-Ph1	A-Ph2	A-Ph3	A-Ph4	A-Ph5	A-Ph6	A-Ph7	A-Ph8	A-Ph9	A-Ph10	A-Ph11	A-Ph12	A-Ph13	A-Ph14	A-Ph15	A-Ph16	B-AC1	B-AC2	B-AC3	B-AC4	B-AC5	B-AC6	B-AC7	B-AC8	B-AC9	B-AC10	B-AC11	B-AC12	B-AC13	B-AC14	B-AC15	B-AC16	B-DC1	B-DC2	B-DC3	B-DC4	B-DC5	B-DC6	B-DC7	B-DC8	B-DC9	B-DC10	B-DC11	B-DC12	B-DC13	B-DC14	B-DC15	B-DC16	B-Ph1	B-Ph2	B-Ph3	B-Ph4	B-Ph5	B-Ph6	B-Ph7	B-Ph8	B-Ph9	B-Ph10	B-Ph11	B-Ph12	B-Ph13	B-Ph14	B-Ph15	B-Ph16	aux-1	digaux	

6658.558	1	1	0	256	0.1839	0.3349	0.030378	0.1195	0.24071	0.050882	0.32013	0.32501	0.19518	0.22401	0.11356	0.29303	0.1676	0.13758	0.23879	0.29362	-1.4937	-1.8792	-2.1958	-1.9771	-1.9312	-2.1729	-2.1063	-2.1104	-2.1771	-1.775	-2.4062	-2.1083	-1.7292	-2.5417	-1.7896	-2.2833	55.371	330.089	122.311	389.899	306.850	266.387	64.836	377.867	290.578	272.833	318.928	72.775	348.795	374.100	79.933	388.195	0.0011438	0.00058942	0.00013459	1299.5	1.4057e-06	3.396e-06	1315.1	365.07	4.2867e-06	1.3473e-06	415.6	139.86	120.81	41.366	8.4825e-06	51.455	0.00040366	0.0003739	0.00010311	1310.3	4.3158e-06	4.0596e-06	1317.6	367.13	4.3393e-06	4.0911e-06	414.99	139.93	120.36	41.345	4.2605e-06	51.817	90.008	101.589	145.620	64.615	323.022	191.636	64.572	69.530	197.063	256.228	68.915	73.299	73.580	78.321	218.569	77.115	-8191	255	
6658.654	1	1	0	0	0.26381	0.12466	0.20329	0.12138	0.074119	0.20583	0.20391	0.33376	0.17676	0.34471	0.052367	0.30044	0.29171	0.15016	0.073767	0.10278	-1.8021	-1.6833	-2.1333	-2.3104	-1.6187	-2.2771	-2.0521	-2	-2.3646	-1.3771	-2.3208	-2.0146	-1.7042	-2.3729	-1.7563	-1.8771	155.350	66.318	395.712	258.414	184.411	301.793	378.652	397.528	381.125	69.010	370.614	80.460	270.652	61.819	338.084	54.867	0.0010774	0.00052693	0.00026977	1298.5	5.4403e-06	1.649e-06	1316.7	362.89	5.1785e-06	1.8816e-06	417.9	139.52	120.99	41.328	1.1645e-05	51.56	0.00039208	0.00036311	0.00010885	1309.2	4.2259e-06	3.922e-06	1319.3	366.45	4.1799e-06	3.9488e-06	416.82	139.64	120.24	41.287	4.4289e-06	51.638	78.070	163.478	126.171	64.832	146.366	87.631	64.799	69.524	169.465	287.669	68.808	73.310	73.835	78.229	203.017	77.141	-8191	255	
6658.750	1	1	0	0	0.015056	0.36016	0.0949	0.2698	0.20879	0.20286	0.16018	0.28244	0.099676	0.097687	0.27741	0.079147	0.052999	0.33213	0.10613	0.26507	-1.9604	-1.6896	-2.1167	-2.2854	-1.7229	-2.4396	-1.9729	-2.1458	-2.3042	-1.9042	-2.0938	-2.2938	-1.8583	-2.3229	-1.8208	-2.1188	370.111	320.960	349.770	328.641	101.926	393.816	357.289	323.970	285.554	329.612	384.434	402.216	56.070	396.659	403.849	352.658	0.0010303	0.00038485	0.00010042	1300.4	4.4554e-06	2.8071e-06	1310.9	363.89	3.6968e-06	3.2593e-06	416.79	139.53	120.77	41.193	7.454e-06	51.255	0.00038087	0.00035799	0.00011321	1306.3	4.0454e-06	3.9084e-06	1317	365.84	4.0713e-06	3.9938e-06	417.01	139.22	119.71	41.239	4.6511e-06	51.455	85.258	184.104	85.078	64.786	129.813	59.644	64.521	69.656	265.954	178.232	68.845	73.256	73.568	78.432	251.226	77.187	-8191	255	
6658.846	1	1	0	0	0.21816	0.20908	0.20753	0.1503	0.098071	0.283	0.16556	0.10853	0.25204	0.088688	0.12007	0.25203	0.20876	0.14	0.13763	0.2094	-1.9729	-1.7229	-1.8375	-2.3104	-1.8396	-2.3187	-2.2313	-1.9333	-2.5542	-1.7604	-1.9208	-2.3021	-1.6729	-2.4875	-2.0563	-1.7437	292.025	265.800	340.529	344.658	111.911	181.422	333.163	144.347	411.024	354.223	260.634	393.392	397.247	112.930	264.955	379.553	0.00093694	0.00070618	0.00016538	1298.3	1.0905e-06	5.685e-06	1309.7	364.05	9.1145e-06	5.5784e-06	418.05	139.58	120.34	41.228	2.2008e-06	51.418	0.00037735	0.0003789	0.00011872	1306	4.0699e-06	4.1596e-06	1319.4	365.83	4.0675e-06	4.2587e-06	418.96	138.99	119.8	41.444	4.6655e-06	51.451	76.519	171.787	97.803	64.845	101.902	204.246	64.332	69.438	152.084	245.110	68.798	73.252	73.823	78.456	238.173	77.333	-8191	255	
6658.942	1	1	0	0	0.25562	0.10633	0.10455	0.36874	0.046806	0.14321	0.14168	0.26351	0.21465	0.029206	0.18842	0.079703	0.28258	0.36124	0.16406	0.24659	-1.9208	-1.8333	-1.8729	-2.4958	-1.7896	-2.1729	-2.3104	-1.8937	-2.1562	-1.7958	-2.0938	-2.3812	-1.7604	-2.0771	-2.3417	-1.6562	187.910	285.719	73.910	387.602	262.164	96.351	408.956	362.833	326.817	276.547	332.120	193.729	345.708	406.749	342.196	328.139	0.00099553	0.00069877	7.13e-05	1302.8	3.5547e-06	2.1153e-06	1310.1	364.89	1.0007e-05	3.546e-06	417.1	138.9	120.62	41.092	3.9359e-06	51.271	0.00037193	0.00039946	0.00011655	1306.4	3.9679e-06	4.3684e-06	1321	365.49	3.9938e-06	4.4761e-06	417.75	138.46	119.56	41.563	4.5009e-06	51.3	94.337	168.995	223.395	64.699	162.466	180.852	64.426	69.544	157.955	218.561	68.562	73.267	73.595	78.374	239.972	77.378	-8191	255	
6659.063	1	1	0	0	0.18848	0.20539	0.21024	0.31982	0.28821	0.26869	0.33691	0.2478	0.074872	0.19619	0.36678	0.19949	0.12865	0.21286	0.11275	0.28527	-1.9125	-1.6812	-1.8354	-2.4062	-1.7646	-1.9937	-2.3271	-1.7854	-2.3479	-2.0271	-1.8208	-2.4146	-1.6833	-2.0021	-2.2479	-1.6896	350.776	258.452	175.848	402.120	113.127	86.060	369.030	56.467	188.789	133.716	372.039	97.704	362.062	77.115	320.283	295.401	0.0010204	0.00052196	2.8492e-05	1300.8	7.1628e-06	2.0241e-06	1314.6	365.28	3.1489e-06	3.44e-06	417.54	139.37	120.45	41.218	3.4028e-06	51.169	0.00037073	0.0004187	0.00011302	1304.4	4.0716e-06	4.5592e-06	1320.5	365.31	4.0934e-06	4.6119e-06	416.93	138.61	120.1	41.615	4.4052e-06	51.239	83.993	192.763	201.302	64.714	165.956	230.181	64.280	69.400	147.910	222.135	68.845	73.104	73.932	78.485	201.853	77.538	-8191	255	
6659.159	1	1	0	0	0.24242	0.20293	0.20618	0.1973	0.26264	0.23359	0.12802	0.34932	0.032187	0.12612	0.17217	0.19276	0.29121	0.14519	0.12027	0.064204	-1.7667	-1.7771	-1.7542	-2.45	-1.7229	-1.9396	-2.2625	-1.6875	-2.2208	-1.9104	-1.9229	-2.1167	-1.7771	-2.0625	-2.3187	-1.9625	185.271	138.112	94.180	346.316	300.718	300.857	308.134	377.663	256.741	176.315	311.665	345.329	349.303	308.763	282.288	137.318	0.0010139	0.00039745	9.0077e-05	1295.4	6.5504e-06	4.6897e-07	1313	362.88	1.0666e-05	2.3504e-06	417.59	139.81	120.36	41.049	1.6364e-06	51.143	0.00039361	0.00042863	0.00011121	1304.8	4.4041e-06	4.7298e-06	1318.6	365.22	4.4541e-06	4.7533e-06	416.79	138.69	120.75	41.722	4.4388e-06	51.269	78.328	95.789	101.570	64.771	186.776	347.413	64.451	69.591	177.950	160.318	68.848	73.333	73.826	78.568	187.910	77.358	-8191	255	
6659.255	1	1	0	0	0.2878	0.11455	0.27821	0.46062	0.11893	0.1044	0.32693	0.12393	0.12089	0.32115	0.21927	0.21755	0.14001	0.20618	0.099263	0.17637	-1.6875	-2.0021	-1.5875	-2.4271	-1.8125	-2.225	-2.3771	-1.9479	-2.0312	-1.9875	-1.7792	-2.2583	-1.825	-1.8604	-2.2521	-1.7333	130.908	101.717	339.257	337.645	297.774	62.178	369.610	390.679	337.242	99.568	409.392	317.130	343.296	65.069	348.115	56.176	0.0012433	0.00047474	0.00015803	1303.3	7.2477e-06	3.5588e-06	1312.8	365.13	5.3985e-06	1.4096e-06	418.63	139.74	121.49	41.14	3.0493e-06	51.409	0.00042877	0.00043182	0.0001122	1307.1	4.7195e-06	4.6925e-06	1321.3	365.95	4.8503e-06	4.7917e-06	418.07	139.22	121.8	41.748	4.6132e-06	51.752	86.439	390.997	52.464	64.653	139.127	174.200	64.484	69.443	166.326	178.491	68.743	73.291	73.744	78.381	177.358	77.550	-8191	255	
6659.351	1	1	0	0	0.21502	0.072816	0.1122	0.2766	0.36668	0.1342	0.15314	0.31378	0.10839	0.16638	0.28959	0.17026	0.1604	0.15789	0.22302	0.11065	-1.725	-2.1667	-1.4604	-2.2438	-2.1292	-1.8771	-2.4146	-1.9646	-2.0438	-2.1771	-1.8958	-2.3271	-2.0875	-1.8583	-2.3187	-1.9625	339.464	138.647	253.896	53.011	228.179	149.142	257.039	372.005	379.784	128.355	60.901	210.714	122.671	348.689	352.116	294.425	0.0011354	0.0004081	0.0001004	1306.3	6.6652e-06	4.7232e-06	1316.6	366.39	1.7579e-06	2.9853e-06	419.7	140.42	121.02	41.219	6.3838e-07	51.163	0.00047632	0.00044753	0.00011879	1319.1	5.2883e-06	4.969e-06	1328.9	369.43	5.3775e-06	5.0916e-06	420.87	140.9	122.77	41.906	4.8168e-06	52.223	90.697	185.336	76.777	64.729	193.575	405.533	64.709	69.188	192.076	265.150	68.814	73.230	73.902	78.332	342.492	77.679	-8191	255	
6659.446	1	1	0	0	0.036503	0.19153	0.21871	0.32499	0.069669	0.15429	0.30062	0.19622	0.29408	0.20334	0.062715	0.18392	0.18761	0.24169	0.3949	0.43822	-1.5708	-2.2229	-1.7167	-2.4083	-1.8958	-1.6729	-2.5083	-1.8917	-1.9667	-2.2	-1.8813	-2.1271	-2.1792	-1.75	-2.0229	-1.8146	288.701	151.158	115.327	403.846	73.880	344.321	349.016	307.574	201.657	131.893	69.061	311.601	322.998	86.101	274.414	59.194	0.0010326	0.0004755	9.2604e-05	1313	8.1389e-06	1.7813e-06	1330.6	366.55	5.0344e-06	3.1919e-06	419.31	140.43	120.91	41.315	5.1185e-06	51.452	0.00050355	0.00046648	0.00012265	1329.5	5.4716e-06	5.0447e-06	1335.6	371.41	5.4713e-06	5.0716e-06	421.64	141.83	122.67	42.004	4.8599e-06	52.562	82.600	256.187	187.160	64.730	127.859	221.831	64.514	69.426	271.625	195.613	68.554	73.135	73.741	78.493	262.589	77.342	-8191	255	
6659.542	1	1	0	0	0.12608	0.23092	0.16528	0.16325	0.19325	0.083814	0.20166	0.0045038	0.3504	0.10242	0.38333	0.21878	0.12998	0.20813	0.12957	0.091643	-1.6396	-2.35	-1.7458	-2.2438	-2	-1.7833	-2.5667	-2.175	-1.7938	-2.2625	-1.7687	-2.2625	-2.3208	-1.7792	-2.2313	-2.1229	209.937	227.856	184.161	385.039	104.339	385.497	332.082	402.566	164.652	324.571	321.486	357.463	268.104	89.804	407.032	183.388	0.0008805	0.00059639	8.7557e-05	1316.1	1.0234e-05	1.6373e-06	1325.2	366.51	7.599e-06	1.4491e-06	419.27	140.11	120.84	41.269	2.7298e-06	51.208	0.00049516	0.00046055	0.000125	1335.7	5.3548e-06	5.0362e-06	1340.4	372.94	5.3894e-06	5.0184e-06	422.84	142.23	122.53	41.921	5.1064e-06	52.672	70.667	161.563	161.551	64.959	172.710	71.233	64.533	69.656	173.482	232.636	68.634	73.424	73.758	78.327	331.648	77.410	-8191	255	
6659.638	1	1	0	0	0.18634	0.21215	0.16735	0.3387	0.1665	0.09845	0.47272	0.15777	0.3473	0.10823	0.28835	0.21119	0.22536	0.076943	0.10819	0.14576	-1.2687	-2.4229	-1.8292	-2.1146	-2.1771	-1.6479	-2.1917	-2.2438	-1.8354	-2.2188	-1.9417	-2.0812	-2.3542	-1.7854	-2.0833	-1.9062	377.007	99.156	253.001	409.186	126.214	209.190	347.570	352.072	283.226	238.402	390.810	301.895	55.491	343.336	312.530	254.421	0.0011008	0.00052083	0.0002045	1320.4	2.5705e-06	3.7869e-07	1331.1	366.81	6.3158e-06	6.2546e-06	420.97	139.84	120.97	41.368	1.9393e-05	51.417	0.00048565	0.00045358	0.00013275	1338	5.2661e-06	4.932e-06	1344.7	373.26	5.2152e-06	4.8929e-06	425.26	142.42	122.36	41.95	5.43e-06	52.78	85.462	342.940	144.952	64.742	165.841	282.975	64.573	69.287	140.766	153.568	68.631	73.285	73.962	78.365	217.570	77.447	-8191	255	
6659.734	1	1	0	0	0.11754	0.17998	0.25108	0.50487	0.029521	0.23801	0.16694	0.11326	0.1698	0.17185	0.069975	0.048954	0.12026	0.25876	0.074192	0.10971	-1.0583	-2.2458	-1.6812	-2.0938	-2.1833	-1.6688	-2.3063	-2.3021	-1.8229	-2.1625	-1.9583	-2.0396	-2.5104	-1.6125	-2.0125	-2.2958	327.347	309.258	148.115	71.925	52.144	74.974	344.253	208.611	52.129	185.643	345.906	259.005	353.062	349.730	272.311	375.707	0.00099183	0.00049955	0.00019585	1317.1	3.8231e-06	4.5716e-06	1330.5	367.18	6.3118e-06	2.0835e-06	421.05	139.92	121.09	41.307	7.4564e-06	51.375	0.00048027	0.00044734	0.00014049	1339.9	5.1928e-06	4.907e-06	1349.7	372.81	5.0984e-06	4.8923e-06	426.45	141.98	122.12	41.935	5.6038e-06	52.543	79.276	118.435	142.429	64.718	136.904	192.159	64.630	69.318	200.004	346.381	68.688	73.421	73.663	78.413	229.100	77.747	-8191	255	
6659.855	1	1	0	0	0.20867	0.10013	0.053547	0.33089	0.12556	0.046373	0.13168	0.15121	0.15162	0.12048	0.14891	0.0078945	0.032079	0.27911	0.18299	0.22147	-1.2146	-2.1896	-1.9292	-1.9917	-2.1208	-2.0021	-2.2667	-2.1208	-1.6146	-2.1083	-2.0896	-1.9271	-2.4896	-1.8354	-2.1292	-2.25	291.304	233.514	100.757	63.397	186.425	246.837	63.024	405.782	170.022	217.970	286.696	402.883	276.478	65.529	117.087	342.424	0.00092788	0.00088959	0.0001519	1317.2	3.4646e-06	2.2599e-06	1331.8	366.71	3.9052e-06	8.1375e-06	418.95	139.54	121.46	41.222	1.6015e-06	51.383	0.0004658	0.00045243	0.00014571	1335.4	5.0664e-06	5.0473e-06	1351.6	372.31	5.0476e-06	5.0949e-06	427.52	141.38	122.11	42.035	5.7248e-06	52.332	80.679	161.956	146.466	64.597	131.914	105.570	64.649	69.505	154.803	228.954	68.885	72.980	73.949	78.348	330.368	77.459	-8191	255	
6659.951	1	1	0	0	0.11009	0.099996	0.096784	0.19927	0.14581	0.23349	0.27823	0.19067	0.31233	0.17964	0.24166	0.16682	0.26519	0.14037	0.34085	0.083904	-1.3438	-2.2979	-1.8271	-1.7479	-2.2875	-1.7771	-2.1292	-2.3104	-1.4083	-2.1312	-2.2104	-1.8875	-2.2729	-1.9208	-1.7042	-2.3458	139.704	331.955	119.671	364.672	355.754	158.136	65.649	278.554	273.043	293.517	347.335	134.607	393.318	220.935	335.706	348.015	0.00082751	0.00037604	0.00014113	1316.3	3.395e-06	7.1491e-06	1337	366.95	7.8576e-06	7.9888e-06	419.7	140.39	121.1	41.405	4.5137e-06	51.365	0.00045627	0.00047471	0.0001456	1334.8	4.8647e-06	5.2762e-06	1352.7	371.25	4.8781e-06	5.3443e-06	425.77	141.51	121.69	42.257	5.5615e-06	52.226	79.108	238.065	82.844	64.727	278.191	137.936	64.561	69.437	186.974	207.826	68.828	73.304	73.560	78.455	235.557	77.237	-8191	255	
6660.023	1	1	0	0	0.23112	0.21521	0.4062	0.31446	0.1091	0.091258	0.26954	0.32568	0.059706	0.086734	0.11646	0.36201	0.093349	0.10284	0.18703	0.14453	-1.2417	-2.0104	-1.9792	-1.7625	-2.3708	-1.775	-1.9708	-2.2333	-1.6729	-2.0021	-2.1042	-1.4979	-2.3042	-2.0354	-1.925	-2.3729	185.307	145.604	258.059	382.842	398.988	405.578	384.401	300.135	158.467	312.918	379.112	122.984	91.466	140.612	172.814	150.183	0.0009791	0.00064943	9.7028e-05	1318.7	5.0113e-06	2.8204e-06	1329.8	367.13	9.63e-06	1.7171e-06	421.4	139.82	120.76	41.315	5.7025e-06	51.421	0.0004495	0.0005003	0.00014132	1333.7	4.8635e-06	5.5459e-06	1348.4	371.13	4.9226e-06	5.5593e-06	425.41	140.89	121.81	42.417	5.3951e-06	52.142	79.594	191.711	208.537	64.823	224.954	152.237	64.562	69.415	126.983	197.951	68.756	73.760	73.682	78.298	190.015	77.545	-8191	255	
6660.143	1	1	0	0	0.16913	0.2236	0.087927	0.36256	0.073908	0.10929	0.1183	0.2084	0.021349	0.16339	0.19303	0.1673	0.1674	0.12607	0.22435	0.007472	-1.3188	-2.2167	-2.1292	-1.7062	-2.3563	-2.1792	-1.9854	-2.4729	-1.6458	-2.0979	-2.2521	-1.675	-2.2417	-2.0771	-1.7229	-2.5083	338.913	64.272	193.387	352.776	187.641	320.481	286.529	368.448	285.182	406.304	366.398	66.321	393.248	194.287	390.396	232.438	0.0011642	0.00061073	5.8078e-05	1317.9	5.7981e-06	2.9709e-06	1331.4	365.44	8.6547e-06	1.4093e-06	421.97	139.78	121.02	41.443	1.5996e-06	51.583	0.00046576	0.00051454	0.00013597	1333.1	5.0343e-06	5.6434e-06	1345.9	369.76	5.152e-06	5.5914e-06	424.36	140.87	122.37	42.391	5.2134e-06	52.083	79.492	177.882	154.843	64.773	182.362	351.730	64.437	69.485	146.233	296.248	68.784	73.385	73.817	78.302	281.287	77.403	-8191	255	
6660.239	1	1	0	0	0.1715	0.21983	0.093935	0.34541	0.33236	0.12547	0.54292	0.2015	0.3983	0.25205	0.19244	0.29144	0.23972	0.44395	0.17186	0.25022	-1.4667	-1.9521	-2.2104	-1.8042	-2.0958	-1.8208	-1.9229	-2.4479	-1.8833	-2.0583	-2.3875	-1.9604	-2.0625	-2.1146	-1.6021	-2.3458	378.107	330.668	384.887	367.513	64.319	129.619	324.006	55.707	141.959	232.994	387.485	392.357	98.974	374.866	240.331	79.194	0.0014769	0.0003987	8.062e-05	1317.1	6.5204e-06	5.1284e-06	1329.4	366.39	1.4564e-05	2.9744e-06	417.9	139.48	120.92	41.16	5.3825e-06	51.419	0.00048817	0.00050325	0.00013067	1331.5	5.2807e-06	5.48e-06	1344.1	369.73	5.3788e-06	5.3806e-06	422.45	140.45	122.56	42.155	4.9677e-06	51.956	82.311	215.293	380.276	64.692	194.005	117.068	64.634	69.544	144.323	160.219	68.895	73.495	73.785	78.316	200.961	77.452	-8191	255	
