BOXY.EXE: ISS Imagent and Oximeter Data Acquisition Program Version 0.80
Ascii Record File

#ACQ INFORMATION
2  Detector Channels 
16  External MUX Channels 
1  Auxiliary Channels 
5000  Waveform (CCF) Frequency (Hz)
1  Waveforms Skipped 
30  Waveforms Averaged 
1  Cycles Averaged 
16  Acquisitions per Waveform 
10.0806  Updata Rate (Hz) 

#FILE INFORMATION
TRUE -- External MUX Channel results are PARSED.
FALSE -- AC DC and Phase are NOT grouped.
TRUE -- Companion Program Settings File CREATED.
FALSE -- AC data not excluded
FALSE -- DC data not excluded
FALSE -- Phase data not excluded
FALSE -- Auxillary Chn. data not excluded
Tab delimiters

#CALIBRATION STATE
TRUE -- Waveform Calibration Values APPLIED.


#AUX CALIBRATION VALUES
Val Type	aux-1	

Term	1.0000e+00	
Factor	0.0000e+00	


#WF CALIBRATION VALUES
A = Detector Channel
Val Type	A-AC1	A-AC2	A-AC3	A-AC4	A-AC5	A-AC6	A-AC7	A-AC8	A-AC9	A-AC10	A-AC11	A-AC12	A-AC13	A-AC14	A-AC15	A-AC16	A-DC1	A-DC2	A-DC3	A-DC4	A-DC5	A-DC6	A-DC7	A-DC8	A-DC9	A-DC10	A-DC11	A-DC12	A-DC13	A-DC14	A-DC15	A-DC16	A-Ph1	A-Ph2	A-Ph3	A-Ph4	A-Ph5	A-Ph6	A-Ph7	A-Ph8	A-Ph9	A-Ph10	A-Ph11	A-Ph12	A-Ph13	A-Ph14	A-Ph15	A-Ph16	

Term	0.00000e+00	0.00000e+00	0.00000e+00	0.00000e+00	0.00000e+00	0.00000e+00	0.00000e+00	0.00000e+00	0.00000e+00	0.00000e+00	0.00000e+00	0.00000e+00	0.00000e+00	0.00000e+00	0.00000e+00	0.00000e+00	0.00000e+00	0.00000e+00	0.00000e+00	0.00000e+00	0.00000e+00	0.00000e+00	0.00000e+00	0.00000e+00	0.00000e+00	0.00000e+00	0.00000e+00	0.00000e+00	0.00000e+00	0.00000e+00	0.00000e+00	0.00000e+00	0.00000e+00	0.00000e+00	0.00000e+00	0.00000e+00	0.00000e+00	0.00000e+00	0.00000e+00	0.00000e+00	0.00000e+00	0.00000e+00	0.00000e+00	0.00000e+00	0.00000e+00	0.00000e+00	0.00000e+00	0.00000e+00	
Factor	1.00000e+00	1.00000e+00	1.00000e+00	1.00000e+00	1.00000e+00	1.00000e+00	1.00000e+00	1.00000e+00	1.00000e+00	1.00000e+00	1.00000e+00	1.00000e+00	1.00000e+00	1.00000e+00	1.00000e+00	1.00000e+00	1.00000e+00	1.00000e+00	1.00000e+00	1.00000e+00	1.00000e+00	1.00000e+00	1.00000e+00	1.00000e+00	1.00000e+00	1.00000e+00	1.00000e+00	1.00000e+00	1.00000e+00	1.00000e+00	1.00000e+00	1.00000e+00	X	X	X	X	X	X	X	X	X	X	X	X	X	X	X	X	

B = Detector Channel
Val Type	B-AC1	B-AC2	B-AC3	B-AC4	B-AC5	B-AC6	B-AC7	B-AC8	B-AC9	B-AC10	B-AC11	B-AC12	B-AC13	B-AC14	B-AC15	B-AC16	B-DC1	B-DC2	B-DC3	B-DC4	B-DC5	B-DC6	B-DC7	B-DC8	B-DC9	B-DC10	B-DC11	B-DC12	B-DC13	B-DC14	B-DC15	B-DC16	B-Ph1	B-Ph2	B-Ph3	B-Ph4	B-Ph5	B-Ph6	B-Ph7	B-Ph8	B-Ph9	B-Ph10	B-Ph11	B-Ph12	B-Ph13	B-Ph14	B-Ph15	B-Ph16	

Term	0.00000e+00	0.00000e+00	0.00000e+00	0.00000e+00	0.00000e+00	0.00000e+00	0.00000e+00	0.00000e+00	0.00000e+00	0.00000e+00	0.00000e+00	0.00000e+00	0.00000e+00	0.00000e+00	0.00000e+00	0.00000e+00	0.00000e+00	0.00000e+00	0.00000e+00	0.00000e+00	0.00000e+00	0.00000e+00	0.00000e+00	0.00000e+00	0.00000e+00	0.00000e+00	0.00000e+00	0.00000e+00	0.00000e+00	0.00000e+00	0.00000e+00	0.00000e+00	-2.02558e+02	-1.16413e+02	-1.30120e+02	-1.82161e+02	-9.57707e+01	-1.01369e+02	-1.59306e+02	-1.62015e+02	-1.14350e+02	-5.77035e+01	-1.70639e+02	-1.72301e+02	-1.77500e+02	-1.76674e+02	-5.36760e+01	-1.49496e+02	
Factor	4.10936e-05	9.52974e-05	2.49006e-05	1.49428e-01	8.83243e-07	8.91524e-07	1.68800e-01	4.93801e-02	1.17695e-06	7.15398e-07	8.34437e-02	2.98807e-02	2.54106e-02	8.75613e-03	1.20421e-06	1.26828e-02	6.26555e-07	6.35961e-07	1.78841e-07	7.42432e-02	6.95763e-09	6.96690e-09	7.86376e-02	2.43642e-02	6.96256e-09	6.98071e-09	3.91092e-02	1.39300e-02	1.23175e-02	4.23067e-03	7.03845e-09	5.88851e-03	X	X	X	X	X	X	X	X	X	X	X	X	X	X	X	X	



#DISTANCE SETTINGS
A = Detector Channel
A-1	A-2	A-3	A-4	A-5	A-6	A-7	A-8	A-9	A-10	A-11	A-12	A-13	A-14	A-15	A-16	

2.5000e+00	3.0000e+00	2.5000e+00	3.0000e+00	2.0000e+00	3.0000e+00	1.5000e+00	3.0000e+00	3.0000e+00	3.0000e+00	3.0000e+00	3.0000e+00	3.0000e+00	3.0000e+00	1.5000e+00	3.0000e+00	

B = Detector Channel
B-1	B-2	B-3	B-4	B-5	B-6	B-7	B-8	B-9	B-10	B-11	B-12	B-13	B-14	B-15	B-16	

1.0000e+01	1.0000e+01	1.0000e+01	1.4400e+00	1.0000e+01	1.0000e+01	1.5100e+00	1.9400e+00	1.0000e+01	1.0000e+01	1.9900e+00	2.4900e+00	2.4100e+00	2.9000e+00	1.0000e+01	2.9800e+00	




#DATA BEGINS
time	group	step	mark	flag	A-AC1	A-AC2	A-AC3	A-AC4	A-AC5	A-AC6	A-AC7	A-AC8	A-AC9	A-AC10	A-AC11	A-AC12	A-AC13	A-AC14	A-AC15	A-AC16	A-DC1	A-DC2	A-DC3	A-DC4	A-DC5	A-DC6	A-DC7	A-DC8	A-DC9	A-DC10	A-DC11	A-DC12	A-DC13	A-DC14	A-DC15	A-DC16	A-Ph1	A-Ph2	A-Ph3	A-Ph4	A-Ph5	A-Ph6	A-Ph7	A-Ph8	A-Ph9	A-Ph10	A-Ph11	A-Ph12	A-Ph13	A-Ph14	A-Ph15	A-Ph16	B-AC1	B-AC2	B-AC3	B-AC4	B-AC5	B-AC6	B-AC7	B-AC8	B-AC9	B-AC10	B-AC11	B-AC12	B-AC13	B-AC14	B-AC15	B-AC16	B-DC1	B-DC2	B-DC3	B-DC4	B-DC5	B-DC6	B-DC7	B-DC8	B-DC9	B-DC10	B-DC11	B-DC12	B-DC13	B-DC14	B-DC15	B-DC16	B-Ph1	B-Ph2	B-Ph3	B-Ph4	B-Ph5	B-Ph6	B-Ph7	B-Ph8	B-Ph9	B-Ph10	B-Ph11	B-Ph12	B-Ph13	B-Ph14	B-Ph15	B-Ph16	aux-1	digaux	

6676.109	1	1	0	256	0.041318	0.12308	0.067348	0.36794	0.28184	0.046195	0.30216	0.23052	0.053235	0.15768	0.085171	0.16021	0.063028	0.11035	0.1248	0.085657	-1.4062	-2.0917	-1.6521	-2.0167	-2.1021	-1.6542	-1.9792	-2.1229	-1.5688	-2.2167	-1.9562	-1.725	-2.2812	-1.7062	-1.9667	-2.1396	206.202	193.700	150.683	400.371	389.380	377.040	377.726	75.712	142.899	215.143	348.319	412.638	330.877	386.185	310.036	359.152	0.00063991	0.00016604	1.4396e-05	992.17	3.2931e-06	3.6763e-06	1095.7	211.65	3.9555e-06	2.2595e-06	271.09	77.301	59.569	17.394	6.8079e-06	24.66	0.00025196	0.00024098	7.7796e-05	969.4	2.7369e-06	2.6429e-06	1067.1	208.84	2.689e-06	2.6405e-06	267.36	76.667	59.132	17.776	3.1084e-06	25.161	82.176	223.301	346.771	66.978	401.361	158.273	66.957	74.492	198.133	271.344	74.340	80.950	81.538	88.820	269.180	87.859	-8191	255	
6676.228	1	1	0	0	0.12884	0.13889	0.27853	0.24526	0.087727	0.095715	0.15161	0.077948	0.12716	0.20228	0.2673	0.13576	0.082129	0.20077	0.088933	0.16356	-1.3229	-1.8646	-1.8854	-1.9021	-2.2375	-1.6375	-2.1854	-2.3333	-1.5125	-2.2042	-2.0042	-1.5187	-2.2375	-1.875	-1.9229	-2.2	282.139	130.408	383.832	110.764	192.623	97.761	370.073	316.699	110.508	334.454	402.568	401.305	413.975	165.354	193.131	91.003	0.00075597	0.00042317	0.00011106	991.85	7.8787e-07	5.3194e-06	1095.2	210.65	2.1569e-06	2.6713e-06	271.77	76.933	59.731	17.514	1.9469e-06	24.736	0.00024762	0.0002478	8.0245e-05	965.21	2.6315e-06	2.8068e-06	1067.8	208.19	2.6677e-06	2.8636e-06	267.34	76.29	58.985	17.926	3.1229e-06	25.06	78.986	231.731	78.401	67.081	70.403	93.676	67.233	74.646	335.101	220.729	74.182	81.163	81.359	88.589	161.342	88.025	-8191	255	
6676.324	1	1	0	0	0.21796	0.19958	0.30438	0.3251	0.1283	0.15067	0.12461	0.054313	0.12579	0.23758	0.065478	0.21245	0.20694	0.16315	0.11442	0.1288	-1.1562	-2.0958	-1.75	-1.8729	-2.0375	-1.8208	-1.8438	-2.2479	-1.7854	-1.9813	-2.1063	-1.6896	-2.1396	-1.9708	-1.7042	-2.3	413.552	394.064	61.449	416.322	346.027	153.382	391.480	102.545	96.915	380.689	134.665	89.956	347.104	140.784	205.561	118.700	0.00058562	0.00077115	1.8765e-05	992.69	3.2909e-06	4.1194e-06	1098.6	210.73	3.4529e-06	8.8789e-07	271.44	77.152	59.654	17.434	3.211e-06	24.782	0.00024689	0.00026916	7.9003e-05	966.5	2.6296e-06	3.0254e-06	1068.4	208.09	2.6812e-06	3.0546e-06	266.65	76.293	59.088	18.033	2.9977e-06	25.035	86.618	191.160	241.720	67.170	213.851	116.099	67.232	74.338	142.541	247.161	74.293	80.833	81.517	88.450	343.682	87.783	-8191	255	
6676.421	1	1	0	0	0.078665	0.18784	0.23491	0.12011	0.12778	0.29407	0.35714	0.11719	0.16244	0.17402	0.078827	0.1092	0.099671	0.26075	0.19635	0.10503	-1.3021	-1.9958	-2.0792	-1.6729	-2.2979	-1.7729	-1.9708	-2.1917	-1.7229	-1.8854	-2.2167	-1.8312	-2.2292	-1.9104	-1.8854	-2.1604	310.908	371.940	146.157	387.416	70.178	99.505	365.825	202.258	326.579	336.659	308.439	322.603	92.321	103.015	195.459	367.573	0.00062627	0.0010064	9.15e-05	995.26	3.6139e-06	5.5727e-06	1097	210.92	3.3215e-06	3.3256e-06	271.27	76.708	58.967	17.26	2.9718e-06	24.574	0.00024903	0.00028664	7.6273e-05	965.7	2.7651e-06	3.1313e-06	1067.3	207.9	2.7717e-06	3.1216e-06	265.82	76.075	59.168	17.975	2.8462e-06	24.905	88.157	180.138	111.358	67.087	235.597	173.161	66.807	74.499	161.483	252.511	73.936	81.189	81.420	88.809	304.071	87.464	-8191	255	
6676.492	1	1	0	0	0.14122	0.065027	0.16231	0.37938	0.11324	0.14563	0.25591	0.30791	0.23997	0.051752	0.15797	0.28171	0.38875	0.28058	0.101	0.10554	-1.3937	-1.8271	-2.0667	-1.6292	-2.0604	-2.1708	-1.625	-2.2021	-1.7479	-1.9167	-2.1833	-1.4167	-1.9	-2.0312	-1.8167	-2.1792	236.670	141.391	103.431	305.054	130.201	59.214	314.276	284.247	409.669	360.452	284.337	356.067	374.838	196.163	235.871	127.111	0.00044919	0.00014958	8.2565e-05	987.56	3.6587e-06	1.1586e-06	1096.6	210.3	4.4705e-06	3.4282e-06	272.57	77.148	59.46	17.265	1.0599e-06	24.679	0.00026066	0.00028175	7.2757e-05	962.58	2.9438e-06	3.1458e-06	1064.9	207.76	2.9842e-06	3.1256e-06	265.69	75.974	59.742	17.957	2.8167e-06	24.961	412.559	146.818	115.024	66.940	165.132	106.270	66.920	74.614	104.204	195.658	74.277	80.855	80.991	88.380	251.448	87.558	-8191	255	
6676.613	1	1	0	0	0.13611	0.10545	0.1935	0.17586	0.16088	0.3146	0.327	0.4396	0.21136	0.28699	0.068356	0.049609	0.12328	0.17164	0.084132	0.14967	-1.3438	-1.8792	-2.3917	-1.8354	-2.0208	-2.0292	-1.9062	-2.2542	-1.7229	-1.7417	-2.1646	-1.5562	-1.9417	-2.1875	-1.4854	-2.1333	397.592	368.573	357.320	360.423	260.952	67.461	72.760	348.257	386.020	380.176	223.872	100.509	97.675	279.742	353.526	184.816	0.00064282	0.00042706	7.2369e-05	986.31	2.5159e-06	1.1408e-06	1098.2	211.46	7.7256e-06	1.9801e-06	271.87	76.652	59.579	17.232	5.333e-07	24.417	0.00028179	0.00027565	7.098e-05	962.27	3.0562e-06	2.9631e-06	1064.2	207.83	3.0856e-06	2.9697e-06	265.39	76.031	59.72	17.865	2.7702e-06	24.987	91.514	270.390	415.718	67.211	131.378	299.815	66.812	74.775	169.581	249.702	74.340	81.244	81.349	88.853	366.520	87.666	-8191	255	
6676.709	1	1	0	0	0.19576	0.13667	0.13261	0.31708	0.14349	0.24501	0.3688	0.13727	0.13663	0.052615	0.19434	0.18896	0.19261	0.35319	0.075618	0.078028	-1.2458	-1.8188	-2.2062	-1.9292	-1.9	-2.1146	-1.7083	-2.2562	-2.0792	-1.7396	-2.3083	-1.9229	-1.8167	-2.3021	-1.4854	-2.1292	346.133	142.819	356.326	373.876	319.092	196.882	352.263	105.739	355.246	329.409	74.068	337.468	63.952	164.136	115.964	365.331	0.00067837	0.00031966	0.00011246	993.38	6.2224e-07	1.9447e-06	1094.9	211.19	2.6461e-06	3.4181e-06	271.94	76.843	59.691	17.258	6.0571e-06	24.587	0.00028913	0.00026347	6.9354e-05	966.47	3.1254e-06	2.8575e-06	1064.3	208.01	3.1231e-06	2.851e-06	264.79	76.334	59.735	17.817	2.711e-06	25.13	79.655	66.300	59.685	67.027	98.641	293.894	67.141	74.616	141.198	403.447	74.049	81.259	81.263	88.601	233.917	88.209	-8191	255	
6676.805	1	1	0	0	0.15977	0.037863	0.19102	0.037433	0.23455	0.1152	0.31512	0.20292	0.052714	0.10623	0.05885	0.41574	0.12002	0.0498	0.19462	0.062314	-1.4604	-1.7437	-2.0958	-1.9292	-1.7125	-2.2438	-1.8292	-2.1958	-1.8188	-1.6479	-2.35	-1.7062	-2.0375	-2.0229	-1.7167	-2.0854	143.523	132.746	160.593	69.996	380.236	221.232	354.024	399.570	172.279	315.819	227.679	57.399	406.744	232.679	316.485	351.230	0.0005614	0.00070195	0.00010335	992.01	3.6071e-06	4.9817e-06	1095.4	211.28	9.4167e-07	1.4095e-06	269.58	76.943	59.269	17.348	2.9676e-06	24.568	0.0002831	0.00025496	6.6788e-05	967.36	3.0549e-06	2.7794e-06	1062.7	209.22	3.051e-06	2.7619e-06	264.25	76.667	59.516	17.796	2.6879e-06	25.265	92.744	205.809	365.106	66.847	185.016	189.320	67.374	74.785	148.796	109.107	73.770	80.784	81.063	88.759	185.878	87.816	-8191	255	
6676.901	1	1	0	0	0.035018	0.072624	0.057494	0.19443	0.20108	0.14745	0.13844	0.061711	0.25163	0.12843	0.15433	0.10883	0.023855	0.27655	0.097866	0.14388	-1.7458	-1.7458	-2.2958	-2.1063	-1.6542	-2.3604	-1.9792	-2.1583	-2.0417	-1.5083	-2.3187	-1.8083	-1.8792	-2.3375	-1.7687	-1.8542	399.250	298.871	373.957	77.228	373.861	412.565	337.432	132.368	139.766	85.563	57.742	119.017	96.539	342.106	236.963	364.772	0.00058425	7.8606e-05	7.0653e-05	987.03	2.6539e-06	4.5698e-06	1098.3	210.69	3.7214e-06	2.0444e-06	272.64	76.883	58.977	17.319	5.5694e-06	24.567	0.00027363	0.00024923	6.8624e-05	966.41	2.9379e-06	2.6887e-06	1062.6	209.25	2.898e-06	2.6973e-06	265.06	76.79	59.121	17.707	2.7914e-06	25.248	95.199	291.260	298.405	67.052	294.597	178.110	66.937	74.499	384.743	409.525	73.852	81.110	81.790	88.562	214.216	87.950	-8191	255	
6677.020	1	1	0	0	0.10409	0.012608	0.22526	0.32958	0.11656	0.18533	0.20918	0.19666	0.12509	0.22231	0.066327	0.21005	0.38666	0.091842	0.1814	0.050096	-1.6042	-1.5917	-2.0771	-1.9542	-1.7229	-2.2146	-1.9896	-1.8604	-2.1417	-1.6083	-2.1354	-1.9021	-1.8521	-2.1667	-1.8833	-1.9479	304.172	282.136	271.178	404.743	324.429	144.818	379.985	363.297	109.690	257.518	72.704	322.710	139.360	222.224	220.701	376.359	0.00048939	0.00032145	0.00012364	986.31	4.1537e-06	9.3411e-07	1099.4	210.39	9.1273e-06	1.6519e-06	269.13	76.692	59.187	17.268	8.9262e-06	24.614	0.00025692	0.00024076	7.229e-05	967.48	2.8139e-06	2.6196e-06	1064.7	208.98	2.7987e-06	2.6273e-06	265.24	76.819	59.124	17.685	3.009e-06	25.162	82.941	100.055	157.122	67.090	214.405	241.826	67.259	74.540	132.260	394.388	74.100	80.752	81.556	88.780	203.839	87.864	-8191	255	
6677.116	1	1	0	0	0.025367	0.17328	0.19668	0.24689	0.32396	0.33954	0.28575	0.083151	0.15708	0.15478	0.2372	0.18086	0.27371	0.088482	0.12623	0.11959	-1.8104	-1.5854	-2.1354	-2.05	-1.7854	-2.0604	-2.0542	-1.7833	-2.2646	-1.6021	-2.4771	-2.4083	-1.6854	-2.3417	-1.9125	-1.8042	116.312	176.705	181.347	392.408	183.229	284.386	348.267	98.436	381.653	181.271	91.031	329.906	393.482	364.786	320.975	414.234	0.00045078	0.00045879	0.00019158	987.38	1.1548e-06	3.7006e-06	1093.4	210.36	2.9878e-06	3.3833e-06	269.86	76.79	59.01	17.332	5.8058e-06	24.672	0.00025426	0.00023957	7.5645e-05	964.56	2.7343e-06	2.6264e-06	1066.4	208.46	2.7386e-06	2.6659e-06	266.92	76.683	58.952	17.74	3.1561e-06	25.198	64.914	138.127	175.417	66.897	74.627	209.499	67.157	74.385	356.436	232.888	74.436	80.758	81.834	88.763	213.673	88.182	-8191	255	
6677.190	1	1	0	0	0.2445	0.13421	0.10025	0.11256	0.20162	0.088899	0.36581	0.15377	0.14872	0.031144	0.1355	0.14806	0.22155	0.1843	0.13639	0.10831	-1.7875	-1.6646	-1.9771	-2.2479	-1.7625	-2.3917	-2.1125	-1.875	-2.1583	-1.6083	-2.1417	-2.1458	-1.7667	-2.2125	-1.9958	-1.7292	407.022	344.738	293.207	364.365	334.013	171.459	375.055	325.983	411.712	240.486	325.846	61.067	347.087	206.582	401.790	177.119	0.00046913	0.00038407	5.9214e-05	993.37	1.408e-06	4.3204e-06	1098.7	210.2	8.879e-06	2.4456e-06	271.09	76.995	58.922	17.285	7.9627e-06	24.851	0.00025237	0.00025321	8.1315e-05	968.13	2.725e-06	2.8124e-06	1069.2	208.41	2.7478e-06	2.8785e-06	267.39	76.663	59.044	17.883	3.2018e-06	25.167	79.775	127.898	135.360	66.799	407.141	143.262	66.951	74.741	129.026	291.961	73.902	81.295	81.003	89.007	250.657	88.057	-8191	255	
6677.309	1	1	0	0	0.081897	0.1047	0.17481	0.2394	0.19896	0.061662	0.28965	0.1441	0.1316	0.12344	0.14506	0.16714	0.2822	0.1047	0.32483	0.24495	-1.7458	-1.5375	-1.8792	-2.2021	-1.5875	-1.9833	-2.1396	-1.6313	-2.2604	-1.8646	-1.8646	-2.1646	-1.6	-2.1229	-2.0438	-1.8312	99.133	267.197	98.486	381.893	236.801	391.241	394.149	90.962	219.379	97.648	64.828	84.885	368.328	359.055	249.178	341.371	0.00053246	0.00062135	6.9949e-05	989.77	3.1408e-06	2.293e-06	1093.3	210.36	4.146e-06	4.5126e-06	270.07	76.826	59.43	17.254	4.3732e-06	24.558	0.00024925	0.00026985	7.9198e-05	965.53	2.6769e-06	2.9695e-06	1068	208.02	2.6619e-06	3.0181e-06	266.13	76.199	59.063	17.963	3.0691e-06	24.987	87.104	176.133	414.979	66.923	188.178	147.645	66.986	74.353	181.970	240.551	73.903	80.799	81.113	88.544	367.729	87.753	-8191	255	
6677.405	1	1	0	0	0.12999	0.037796	0.25115	0.10481	0.082553	0.1846	0.29081	0.016258	0.16927	0.057258	0.25217	0.069644	0.23895	0.16679	0.08656	0.076204	-1.6375	-1.9458	-1.6333	-2.2208	-1.5812	-2.125	-2.0875	-1.7396	-2.0104	-1.975	-1.7271	-2.3146	-1.9792	-1.8958	-1.8937	-1.5729	177.378	363.731	221.869	354.040	180.166	310.496	381.779	408.305	150.125	401.041	373.457	121.544	86.155	319.596	208.223	136.341	0.00059259	0.00026441	4.4896e-05	992.11	3.4061e-06	4.3871e-06	1099.6	210.47	6.1521e-06	5.5322e-06	270.4	77.022	58.903	17.354	6.54e-06	24.651	0.00025028	0.00028277	7.7098e-05	964.49	2.7481e-06	3.158e-06	1067.1	207.9	2.7828e-06	3.189e-06	265.99	76.4	59.417	18.066	2.9795e-06	24.967	86.341	403.227	357.312	66.965	223.372	197.225	66.976	74.946	186.419	234.422	74.102	80.714	81.631	88.331	314.177	87.265	-8191	255	
6677.501	1	1	0	0	0.069398	0.2292	0.15171	0.069646	0.17028	0.079853	0.36959	0.087973	0.13181	0.084182	0.19789	0.28004	0.33716	0.074811	0.055009	0.19122	-1.8417	-1.9042	-1.475	-2.4125	-1.7583	-1.9896	-2.4188	-1.6313	-2.175	-2.0854	-1.6625	-2.5208	-1.7542	-2.0438	-2.1208	-1.6583	137.260	375.325	260.327	369.320	256.319	226.481	60.215	325.004	379.654	92.182	388.589	227.555	348.702	91.244	273.840	389.232	0.00055832	0.00045818	4.6191e-05	989.56	2.463e-06	3.1991e-06	1098.5	210.91	7.787e-06	3.9469e-06	271.41	76.816	59.193	17.244	3.0097e-06	24.615	0.00026336	0.00029305	7.4936e-05	965.39	2.9257e-06	3.1824e-06	1066.8	207.69	2.9484e-06	3.1575e-06	265.78	76.223	59.558	18.04	2.8938e-06	25.037	77.533	83.725	157.705	67.021	227.757	131.828	66.994	74.676	171.728	108.609	74.061	80.958	81.578	88.717	247.079	87.990	-8191	255	
6677.622	1	1	0	0	0.33326	0.15222	0.10997	0.21426	0.10274	0.27714	0.45004	0.07648	0.40943	0.068692	0.25251	0.19476	0.26033	0.14597	0.34868	0.022065	-1.6646	-2.0083	-1.6688	-2.3063	-1.7062	-1.8333	-2.5479	-1.6729	-2.1188	-2.0583	-1.7396	-2.1875	-1.9375	-1.7479	-2.3667	-1.8979	242.985	248.082	331.046	390.870	135.367	72.404	354.934	65.804	121.599	229.055	289.569	73.905	64.734	361.318	401.367	151.161	0.00057903	0.0007896	0.00013264	996.23	5.5451e-06	2.1835e-06	1098.5	211.42	4.0027e-06	3.4593e-06	270.99	76.997	59.045	17.393	4.2879e-06	24.747	0.00027877	0.00028445	7.381e-05	966.95	3.1021e-06	3.099e-06	1065.2	208.02	3.1569e-06	3.098e-06	265.36	76.163	59.996	17.962	2.8507e-06	25.148	95.324	158.190	300.521	67.002	217.325	233.097	66.837	74.663	200.663	344.522	74.270	81.055	81.204	88.545	181.190	88.516	-8191	255	
6677.718	1	1	0	0	0.24132	0.087618	0.16606	0.30732	0.034262	0.10401	0.39074	0.072895	0.1114	0.10123	0.20487	0.14151	0.057666	0.086402	0.070836	0.056508	-1.3333	-2.2625	-1.5333	-2.4604	-1.9333	-1.7771	-2.2208	-1.7542	-1.8687	-2.175	-1.6229	-2.3021	-1.9167	-1.7417	-2.2417	-1.7042	91.327	233.973	314.729	362.377	365.614	136.203	365.995	186.043	346.442	58.139	164.100	82.577	276.117	236.724	202.812	213.975	0.00073501	0.0005092	3.1326e-05	994.49	5.5875e-06	1.7815e-06	1092.3	211.76	2.0271e-06	5.5696e-06	271.94	76.862	59.483	17.399	4.5191e-06	24.688	0.00029428	0.00027673	7.1885e-05	966.66	3.2718e-06	2.9855e-06	1064.3	208.82	3.2151e-06	2.9646e-06	265.48	76.599	60.064	17.955	2.8048e-06	25.22	87.205	89.662	104.862	67.013	158.548	313.900	66.901	74.633	96.525	333.381	74.089	80.701	81.571	88.426	212.325	87.712	-8191	255	
6677.789	1	1	0	0	0.15444	0.11354	0.052623	0.27578	0.063439	0.20695	0.22804	0.14649	0.096952	0.029167	0.14322	0.13592	0.41911	0.063267	0.12537	0.27973	-1.5229	-2.2354	-1.4646	-2.2958	-1.9375	-1.6979	-2.4667	-1.7458	-1.9896	-2.0521	-1.6938	-2.0708	-1.8771	-1.7042	-2.0396	-1.8396	206.176	144.309	306.576	374.311	233.914	403.866	358.649	244.037	223.363	187.906	416.142	175.726	67.153	385.577	368.141	69.054	0.00043784	0.00024172	0.00015794	991.41	8.8817e-06	4.9256e-06	1099.9	210.3	2.3096e-06	2.2316e-06	273.19	76.697	59.447	17.278	2.5558e-06	24.589	0.00029791	0.00026644	7.102e-05	969.38	3.1987e-06	2.9266e-06	1065.2	208.93	3.1875e-06	2.9018e-06	266.17	77.01	59.952	17.86	2.7856e-06	25.368	91.053	161.967	114.640	67.181	166.163	189.527	66.981	74.555	152.742	389.428	74.328	80.985	81.111	88.384	197.664	88.104	-8191	255	
