BOXY.EXE: ISS Imagent and Oximeter Data Acquisition Program Version 0.80
Ascii Record File

#ACQ INFORMATION
2  Detector Channels 
16  External MUX Channels 
1  Auxiliary Channels 
5000  Waveform (CCF) Frequency (Hz)
1  Waveforms Skipped 
30  Waveforms Averaged 
1  Cycles Averaged 
16  Acquisitions per Waveform 
10.0806  Updata Rate (Hz) 

#FILE INFORMATION
TRUE -- External MUX Channel results are PARSED.
FALSE -- AC DC and Phase are NOT grouped.
TRUE -- Companion Program Settings File CREATED.
FALSE -- AC data not excluded
FALSE -- DC data not excluded
FALSE -- Phase data not excluded
FALSE -- Auxillary Chn. data not excluded
Tab delimiters

#CALIBRATION STATE
TRUE -- Waveform Calibration Values APPLIED.


#AUX CALIBRATION VALUES
Val Type	aux-1	

Term	1.0000e+00	
Factor	0.0000e+00	


#WF CALIBRATION VALUES
A = Detector Channel
Val Type	A-AC1	A-AC2	A-AC3	A-AC4	A-AC5	A-AC6	A-AC7	A-AC8	A-AC9	A-AC10	A-AC11	A-AC12	A-AC13	A-AC14	A-AC15	A-AC16	A-DC1	A-DC2	A-DC3	A-DC4	A-DC5	A-DC6	A-DC7	A-DC8	A-DC9	A-DC10	A-DC11	A-DC12	A-DC13	A-DC14	A-DC15	A-DC16	A-Ph1	A-Ph2	A-Ph3	A-Ph4	A-Ph5	A-Ph6	A-Ph7	A-Ph8	A-Ph9	A-Ph10	A-Ph11	A-Ph12	A-Ph13	A-Ph14	A-Ph15	A-Ph16	

Term	0.00000e+00	0.00000e+00	0.00000e+00	0.00000e+00	0.00000e+00	0.00000e+00	0.00000e+00	0.00000e+00	0.00000e+00	0.00000e+00	0.00000e+00	0.00000e+00	0.00000e+00	0.00000e+00	0.00000e+00	0.00000e+00	0.00000e+00	0.00000e+00	0.00000e+00	0.00000e+00	0.00000e+00	0.00000e+00	0.00000e+00	0.00000e+00	0.00000e+00	0.00000e+00	0.00000e+00	0.00000e+00	0.00000e+00	0.00000e+00	0.00000e+00	0.00000e+00	0.00000e+00	0.00000e+00	0.00000e+00	0.00000e+00	0.00000e+00	0.00000e+00	0.00000e+00	0.00000e+00	0.00000e+00	0.00000e+00	0.00000e+00	0.00000e+00	0.00000e+00	0.00000e+00	0.00000e+00	0.00000e+00	
Factor	1.00000e+00	1.00000e+00	1.00000e+00	1.00000e+00	1.00000e+00	1.00000e+00	1.00000e+00	1.00000e+00	1.00000e+00	1.00000e+00	1.00000e+00	1.00000e+00	1.00000e+00	1.00000e+00	1.00000e+00	1.00000e+00	1.00000e+00	1.00000e+00	1.00000e+00	1.00000e+00	1.00000e+00	1.00000e+00	1.00000e+00	1.00000e+00	1.00000e+00	1.00000e+00	1.00000e+00	1.00000e+00	1.00000e+00	1.00000e+00	1.00000e+00	1.00000e+00	X	X	X	X	X	X	X	X	X	X	X	X	X	X	X	X	

B = Detector Channel
Val Type	B-AC1	B-AC2	B-AC3	B-AC4	B-AC5	B-AC6	B-AC7	B-AC8	B-AC9	B-AC10	B-AC11	B-AC12	B-AC13	B-AC14	B-AC15	B-AC16	B-DC1	B-DC2	B-DC3	B-DC4	B-DC5	B-DC6	B-DC7	B-DC8	B-DC9	B-DC10	B-DC11	B-DC12	B-DC13	B-DC14	B-DC15	B-DC16	B-Ph1	B-Ph2	B-Ph3	B-Ph4	B-Ph5	B-Ph6	B-Ph7	B-Ph8	B-Ph9	B-Ph10	B-Ph11	B-Ph12	B-Ph13	B-Ph14	B-Ph15	B-Ph16	

Term	0.00000e+00	0.00000e+00	0.00000e+00	0.00000e+00	0.00000e+00	0.00000e+00	0.00000e+00	0.00000e+00	0.00000e+00	0.00000e+00	0.00000e+00	0.00000e+00	0.00000e+00	0.00000e+00	0.00000e+00	0.00000e+00	0.00000e+00	0.00000e+00	0.00000e+00	0.00000e+00	0.00000e+00	0.00000e+00	0.00000e+00	0.00000e+00	0.00000e+00	0.00000e+00	0.00000e+00	0.00000e+00	0.00000e+00	0.00000e+00	0.00000e+00	0.00000e+00	-1.53398e+02	-1.29654e+02	-1.26074e+02	-1.83912e+02	-7.55620e+01	-6.87672e+01	-1.55668e+02	-1.62015e+02	-8.01815e+01	-7.08960e+01	-1.85569e+02	-1.70567e+02	-1.87259e+02	-1.76693e+02	-7.46193e+01	-1.49436e+02	
Factor	2.31531e-05	1.78356e-04	5.60774e-05	2.30928e-01	1.52510e-06	1.94289e-06	1.64567e-01	5.06850e-02	1.44833e-06	2.13848e-06	2.09326e-01	2.95219e-02	6.28061e-02	8.86269e-03	1.65171e-06	1.24599e-02	1.74899e-05	4.03054e-05	1.13277e-05	1.22350e-01	3.89920e-07	4.56949e-07	8.23138e-02	2.69963e-02	3.70752e-07	4.58795e-07	1.07547e-01	1.53148e-02	3.38387e-02	4.76071e-03	4.01584e-07	6.51452e-03	X	X	X	X	X	X	X	X	X	X	X	X	X	X	X	X	



#DISTANCE SETTINGS
A = Detector Channel
A-1	A-2	A-3	A-4	A-5	A-6	A-7	A-8	A-9	A-10	A-11	A-12	A-13	A-14	A-15	A-16	

2.5000e+00	3.0000e+00	2.5000e+00	3.0000e+00	2.0000e+00	3.0000e+00	1.5000e+00	3.0000e+00	3.0000e+00	3.0000e+00	3.0000e+00	3.0000e+00	3.0000e+00	3.0000e+00	1.5000e+00	3.0000e+00	

B = Detector Channel
B-1	B-2	B-3	B-4	B-5	B-6	B-7	B-8	B-9	B-10	B-11	B-12	B-13	B-14	B-15	B-16	

1.0000e+01	1.0000e+01	1.0000e+01	1.4400e+00	1.0000e+01	1.0000e+01	1.5100e+00	1.9400e+00	1.0000e+01	1.0000e+01	1.9900e+00	2.4900e+00	2.4100e+00	2.9000e+00	1.0000e+01	2.9800e+00	




#DATA BEGINS
time	group	step	mark	flag	A-AC1	A-AC2	A-AC3	A-AC4	A-AC5	A-AC6	A-AC7	A-AC8	A-AC9	A-AC10	A-AC11	A-AC12	A-AC13	A-AC14	A-AC15	A-AC16	A-DC1	A-DC2	A-DC3	A-DC4	A-DC5	A-DC6	A-DC7	A-DC8	A-DC9	A-DC10	A-DC11	A-DC12	A-DC13	A-DC14	A-DC15	A-DC16	A-Ph1	A-Ph2	A-Ph3	A-Ph4	A-Ph5	A-Ph6	A-Ph7	A-Ph8	A-Ph9	A-Ph10	A-Ph11	A-Ph12	A-Ph13	A-Ph14	A-Ph15	A-Ph16	B-AC1	B-AC2	B-AC3	B-AC4	B-AC5	B-AC6	B-AC7	B-AC8	B-AC9	B-AC10	B-AC11	B-AC12	B-AC13	B-AC14	B-AC15	B-AC16	B-DC1	B-DC2	B-DC3	B-DC4	B-DC5	B-DC6	B-DC7	B-DC8	B-DC9	B-DC10	B-DC11	B-DC12	B-DC13	B-DC14	B-DC15	B-DC16	B-Ph1	B-Ph2	B-Ph3	B-Ph4	B-Ph5	B-Ph6	B-Ph7	B-Ph8	B-Ph9	B-Ph10	B-Ph11	B-Ph12	B-Ph13	B-Ph14	B-Ph15	B-Ph16	aux-1	digaux	

33936.867	1	1	0	768	0.13963	0.20681	0.36364	0.1715	0.074928	0.2166	0.27438	0.17103	0.27919	0.33323	0.12783	0.047968	0.15014	0.17716	0.24184	0.14342	-1.7042	-1.7771	-2.0312	-1.7833	-1.6771	-2.2062	-1.8354	-1.8979	-2.1271	-1.6375	-2.2083	-2.2438	-1.7542	-2.1271	-2.0312	-1.8771	247.791	283.103	386.563	220.789	194.633	208.268	442.584	386.873	235.159	369.722	156.076	276.428	170.512	442.902	325.802	428.101	0.00068041	0.00021675	9.6543e-05	379.71	3.1594e-06	1.8954e-06	506.89	152.7	2.347e-06	5.2282e-06	214.72	98.976	62.945	23.694	2.8564e-06	47.235	0.00084717	0.0010505	0.00026785	396.75	9.9218e-06	1.112e-05	527.21	159.63	1.0311e-05	1.1817e-05	224.98	104.01	66.005	25.11	1.102e-05	50.05	158.275	210.478	199.442	140.680	285.838	251.544	140.136	145.594	259.233	258.310	144.838	147.530	148.913	153.778	273.202	151.306	-8191	255	
33936.965	1	1	0	0	0.12002	0.22178	0.36355	0.15892	0.063254	0.0993	0.11643	0.19858	0.072464	0.20446	0.282	0.20085	0.40131	0.18896	0.25259	0.093225	-1.7188	-1.8146	-1.9188	-2.0458	-1.6688	-2.2771	-1.9396	-1.5792	-2.3812	-1.9354	-2.0167	-2.2396	-1.6333	-1.9854	-1.9146	-1.8021	194.900	285.563	179.359	419.290	272.321	421.855	387.690	133.921	385.731	217.554	454.018	426.309	437.345	156.088	444.535	133.278	0.00071526	0.00038884	0.00014641	380.93	1.7786e-06	2.4748e-06	507.78	152.9	3.9977e-06	3.894e-06	215.05	99.687	62.696	23.602	2.3863e-06	47.786	0.00082502	0.0010196	0.00026285	394.96	1.0048e-05	1.0944e-05	525.53	159.75	9.8218e-06	1.2011e-05	225.44	104.32	65.853	25.141	1.1361e-05	50.479	159.378	206.733	205.636	140.699	273.442	260.506	139.930	145.687	266.095	223.862	141.616	145.320	146.061	151.796	233.881	149.540	-8191	255	
33937.062	1	1	0	0	0.087033	0.078711	0.25535	0.21053	0.091927	0.065292	0.10755	0.18365	0.091831	0.18369	0.2584	0.23705	0.089007	0.29786	0.19632	0.49668	-1.6083	-1.6979	-1.9312	-2.0208	-1.6688	-1.9896	-1.9583	-1.8042	-2.1583	-1.8062	-1.9021	-2.0979	-1.6375	-2.0021	-1.9729	-1.8354	209.562	379.610	322.390	269.971	207.820	409.986	173.767	321.091	305.999	311.855	479.847	459.974	404.450	140.967	399.072	390.562	0.00071504	0.00036341	0.00014154	380.37	1.3559e-06	5.1561e-06	507.02	153.59	3.5301e-06	4.3031e-06	214.82	99.721	62.443	23.595	3.2801e-06	47.799	0.00082891	0.0010868	0.00027333	397.01	9.9901e-06	1.0731e-05	528.2	160.14	9.7994e-06	1.2272e-05	226.24	104.7	66.036	25.161	1.1067e-05	50.745	159.205	179.613	226.903	139.288	242.638	296.269	138.087	143.850	242.958	292.667	142.304	145.881	146.858	152.519	293.361	150.170	-8191	255	
33937.156	1	1	0	0	0.083853	0.21259	0.079862	0.24788	0.32029	0.31182	0.1335	0.084771	0.18222	0.029355	0.10489	0.16688	0.22139	0.19096	0.30814	0.22892	-1.7604	-1.675	-1.7417	-2.1146	-1.6042	-1.9896	-2.2021	-1.7396	-2.2062	-1.9104	-1.8104	-2.1937	-1.6792	-1.8479	-2.1854	-1.7083	317.786	402.983	286.453	396.661	399.691	158.903	172.753	372.778	352.529	237.753	343.021	456.173	237.602	461.275	300.115	190.151	0.00068748	0.00038466	8.8747e-05	384.35	2.2922e-06	5.1803e-06	509.32	153.58	3.4512e-06	5.2087e-06	215.75	100.08	63.487	23.722	3.1578e-06	47.895	0.00079149	0.0010784	0.00028555	398.16	1.0053e-05	1.0943e-05	530.75	160.79	9.7724e-06	1.2825e-05	227.39	105.22	66.239	25.134	1.1586e-05	50.64	159.826	223.367	218.258	141.098	259.851	279.865	139.752	145.294	282.750	266.144	144.305	147.709	148.406	153.719	283.550	151.326	-8191	255	
33937.254	1	1	0	0	0.1723	0.030447	0.2247	0.10441	0.091046	0.24153	0.16079	0.22624	0.034039	0.21471	0.28996	0.10976	0.25841	0.15901	0.20715	0.30133	-1.65	-1.7812	-1.8542	-2.1729	-1.8813	-1.9042	-2.0563	-1.8396	-1.9583	-1.9875	-1.9229	-2.2687	-1.8479	-2.0458	-2.0771	-1.5583	134.921	282.679	418.596	364.263	130.057	236.363	226.598	159.900	282.182	449.472	416.326	154.170	135.707	152.266	326.261	301.690	0.0007006	0.00043945	0.00011277	378.93	3.3991e-06	2.7741e-06	508.63	153.51	2.1149e-06	4.7305e-06	217.55	99.071	63.02	23.535	2.7659e-06	47.133	0.00079692	0.0011134	0.00028102	395.85	1.0486e-05	1.1255e-05	527.93	160.26	9.2518e-06	1.2297e-05	226.37	104.05	65.829	24.988	1.1384e-05	49.881	159.406	189.966	204.956	140.651	253.370	239.642	140.125	145.359	298.519	262.265	144.111	147.836	148.068	153.989	296.228	151.490	-8191	255	
33937.348	1	1	0	0	0.10883	0.017788	0.27211	0.11846	0.088381	0.056729	0.10511	0.2908	0.15212	0.12967	0.2207	0.17195	0.089267	0.039288	0.29598	0.27982	-1.6875	-1.9396	-1.8125	-2.3542	-1.8292	-1.9458	-2.2062	-1.7146	-2.0479	-2.1146	-2.0292	-2.1167	-1.8958	-1.7313	-2.0833	-1.7958	480.756	419.656	431.448	336.446	261.923	278.496	299.261	131.535	133.624	374.603	175.491	350.191	453.677	183.468	415.559	328.608	0.00062096	0.00043902	0.00019038	376.39	2.6654e-06	1.6375e-06	506.88	153.09	3.5341e-06	4.1518e-06	213.73	98.765	62.717	23.57	3.3844e-06	47.384	0.0007654	0.0011136	0.00029313	393.16	1.0676e-05	1.136e-05	525.8	159.33	9.5384e-06	1.2367e-05	224.79	103.85	65.909	24.962	1.0755e-05	50.17	160.155	186.977	209.176	141.001	274.158	299.268	139.957	145.448	266.930	251.920	144.543	147.695	149.019	153.561	274.546	151.554	-8191	255	
33937.469	1	1	0	0	0.27364	0.2588	0.098005	0.0466	0.16797	0.26966	0.11529	0.27894	0.23355	0.18322	0.057478	0.18962	0.22517	0.16985	0.20056	0.11202	-1.6375	-1.8958	-1.4875	-1.9896	-1.8271	-1.7583	-2.2167	-1.7729	-1.9854	-1.9417	-1.4979	-2.0729	-1.7979	-1.7208	-2.0187	-1.5938	361.349	455.684	314.959	156.505	221.378	268.479	383.653	408.210	255.630	174.030	187.515	133.794	484.744	384.096	227.760	318.755	0.00070096	0.0005272	0.00012766	379.73	4.776e-06	3.0565e-06	504.27	152.39	2.3664e-06	2.6806e-06	215.9	99.353	62.927	23.62	2.7203e-06	47.645	0.0007904	0.0011348	0.00028532	394.88	1.1051e-05	1.1034e-05	525.37	159.22	9.5361e-06	1.2451e-05	226.52	104.13	65.926	25.073	1.0846e-05	50.553	158.488	218.768	214.267	138.738	252.673	275.185	138.140	143.508	256.233	252.915	142.217	146.002	146.884	152.332	237.897	149.546	-8191	255	
33937.566	1	1	0	0	0.074723	0.28497	0.10002	0.27829	0.23144	0.20455	0.1641	0.080998	0.035338	0.20549	0.15573	0.34691	0.19671	0.22439	0.32335	0.068338	-1.4438	-1.9917	-1.65	-2.0771	-1.8333	-1.9	-2.2083	-1.7938	-1.7521	-2.0875	-1.6292	-2.0479	-2.0125	-1.625	-2.1333	-1.8875	351.692	134.012	370.098	472.798	273.304	478.151	449.136	486.161	140.166	468.186	454.678	456.281	370.490	446.880	159.009	356.815	0.00066062	0.00029038	0.00010012	377.31	2.3237e-06	3.2611e-06	509.04	152.96	3.6686e-06	2.8175e-06	215.74	99.854	63.227	23.646	4.2783e-06	47.977	0.00079022	0.0010901	0.00030085	395.18	1.1228e-05	1.1389e-05	529.18	159.93	9.7253e-06	1.2813e-05	226.84	105.09	66.162	25.155	1.0477e-05	50.872	158.485	211.841	222.941	139.352	252.845	292.167	138.462	144.317	290.073	270.978	141.721	146.185	146.628	152.076	314.136	149.446	-8191	255	
33937.660	1	1	0	0	0.22853	0.042221	0.23494	0.15072	0.30819	0.17226	0.29537	0.053855	0.19372	0.21657	0.15278	0.15515	0.24682	0.22675	0.21353	0.14004	-1.2604	-2.0708	-1.6375	-2.075	-1.9937	-1.7583	-2.2458	-1.6542	-1.7208	-2.0396	-1.8729	-2	-1.6896	-1.6146	-2.0812	-1.8667	142.017	338.249	435.348	227.477	227.591	179.865	478.538	245.857	251.275	187.160	373.344	129.228	321.895	287.530	167.340	151.954	0.00068046	0.00038806	6.7929e-05	379.41	3.3358e-06	2.5455e-06	508.08	153.42	2.3902e-06	4.8451e-06	215.47	99.093	63.482	23.461	3.3688e-06	46.898	0.00079018	0.0011087	0.0002911	397.31	1.1075e-05	1.0998e-05	529.03	160.44	9.7964e-06	1.1946e-05	226.31	104.17	65.918	25.008	1.019e-05	49.898	158.009	196.132	253.548	139.095	250.984	315.202	138.269	144.160	267.118	267.171	142.827	145.808	147.082	152.497	263.874	149.631	-8191	255	
33937.758	1	1	0	0	0.075379	0.21597	0.11122	0.22328	0.078313	0.085579	0.069499	0.12656	0.22817	0.12714	0.11173	0.25545	0.18271	0.26697	0.18769	0.19075	-1.075	-2.175	-1.8188	-1.8937	-1.9104	-1.7354	-2.1375	-1.7875	-1.6333	-2.1875	-1.5646	-1.9917	-1.9042	-1.5458	-1.9188	-1.9875	316.936	221.563	367.227	378.746	239.889	294.784	402.104	411.640	388.296	353.461	214.359	418.455	287.206	478.125	221.985	436.154	0.00070045	0.00020975	9.5788e-05	381.7	2.8512e-06	9.8911e-07	506.1	152.25	2.9305e-06	4.7001e-06	213.47	98.952	62.484	23.527	5.1581e-06	47.038	0.00080261	0.0010102	0.00030122	396.75	1.0767e-05	1.1251e-05	526.95	159.81	9.5847e-06	1.1489e-05	224.77	103.58	65.776	24.991	1.0288e-05	49.892	158.682	185.082	178.393	139.154	241.715	280.615	138.325	143.792	218.118	286.997	142.766	146.082	146.645	152.279	240.110	149.823	-8191	255	
33937.855	1	1	0	0	0.271	0.093912	0.017827	0.41443	0.067439	0.074443	0.096078	0.2067	0.18874	0.069369	0.10933	0.2207	0.061534	0.34158	0.15393	0.48884	-1.3625	-2.0812	-1.7125	-1.8438	-2.1729	-1.4562	-1.9333	-1.9792	-1.7687	-2.0708	-1.9979	-1.6896	-1.95	-1.75	-2.0354	-2.0625	346.055	146.262	130.578	419.136	140.375	235.935	193.218	247.407	132.390	152.463	456.621	410.185	152.041	418.431	451.055	479.604	0.00064922	0.00035658	0.00010803	381.8	2.6501e-06	3.0746e-06	503.8	151.79	3.7568e-06	2.8641e-06	211.44	98.567	62.293	23.439	3.3067e-06	47.576	0.0008287	0.0010327	0.00030892	396	1.1069e-05	1.2221e-05	524.48	159.32	1.013e-05	1.1427e-05	223.96	103.61	65.783	25.006	1.0512e-05	50.226	159.574	204.295	211.480	139.500	283.466	256.943	138.701	144.126	278.767	254.860	142.328	145.931	146.889	152.386	248.446	149.807	-8191	255	
33937.949	1	1	0	0	0.13131	0.24562	0.43486	0.29706	0.059681	0.053908	0.14736	0.28552	0.055401	0.26558	0.19071	0.24233	0.19315	0.34133	0.33158	0.22379	-0.975	-2.2042	-1.5833	-1.8167	-2.2583	-1.6375	-1.925	-2.0417	-1.6167	-2.0917	-1.925	-1.9188	-2.3146	-1.6875	-2.0771	-2.0417	234.836	373.932	399.645	440.605	296.126	266.827	397.392	460.791	238.171	443.463	194.566	383.052	315.741	146.711	210.307	437.797	0.00069714	0.00049942	7.654e-05	379.11	4.2672e-06	3.6096e-06	502.93	152.62	2.6606e-06	3.4885e-06	212.98	98.4	62.891	23.317	3.2389e-06	47.681	0.00084517	0.0010436	0.00031345	395.96	1.113e-05	1.2467e-05	525.75	160.09	1.0631e-05	1.2066e-05	225.42	103.72	66.015	24.964	1.075e-05	50.469	160.801	214.735	193.344	139.947	300.902	310.654	138.192	144.333	260.017	259.219	141.930	146.329	147.157	152.274	251.731	150.068	-8191	255	
33938.070	1	1	0	0	0.25935	0.25406	0.3166	0.2125	0.12566	0.12355	0.2239	0.065316	0.01157	0.19468	0.22888	0.098702	0.16312	0.16424	0.14626	0.34474	-1.2167	-2.1896	-1.6604	-1.7396	-2.05	-1.6417	-1.8937	-2.2083	-1.5146	-2.1521	-1.9375	-1.8333	-2.025	-1.7604	-1.9146	-1.9937	179.970	327.280	338.974	467.717	472.783	165.272	430.912	154.913	439.443	417.983	190.313	181.158	243.008	436.905	203.894	434.237	0.00069702	0.00030361	0.00017421	377.75	2.714e-06	4.5328e-06	504.1	152.44	4.2284e-06	5.2864e-06	213.42	98.8	61.598	23.239	3.5422e-06	46.945	0.00085883	0.0010661	0.00034165	396.6	1.1079e-05	1.2945e-05	526.39	159.66	1.0428e-05	1.1548e-05	225.46	103.19	65.243	24.791	1.0772e-05	49.552	158.527	218.158	228.178	139.558	279.283	283.187	138.457	144.018	257.555	290.078	142.436	146.114	146.804	152.260	255.490	150.085	-8191	255	
33938.164	1	1	0	0	0.17871	0.15566	0.15128	0.15016	0.061892	0.088716	0.1987	0.088477	0.22163	0.061558	0.17555	0.19146	0.1771	0.12402	0.15402	0.21702	-1.3625	-1.9917	-1.9354	-1.6958	-2.1875	-1.9875	-1.8083	-2.0563	-1.7	-1.9417	-2.0021	-1.6417	-2.0896	-2.0104	-1.7729	-2.1625	451.996	347.793	389.599	168.461	253.812	400.473	409.524	338.042	150.133	346.267	416.710	147.363	376.502	318.480	306.596	398.331	0.00065638	0.00019425	0.00019929	375.26	2.6949e-06	2.4842e-06	499.75	151.84	2.7367e-06	4.8062e-06	208.81	97.2	62.101	23.246	2.1014e-06	46.246	0.00084418	0.0010579	0.00033724	392.43	1.044e-05	1.3184e-05	519.37	158.54	1.0625e-05	1.1772e-05	222.03	102.06	65.186	24.716	1.0991e-05	49.147	158.697	251.466	206.225	139.059	244.803	279.906	138.224	144.020	250.983	293.727	142.347	146.260	146.955	152.153	303.280	149.539	-8191	255	
33938.262	1	1	0	0	0.148	0.25132	0.11348	0.090468	0.13374	0.10635	0.17137	0.15995	0.22034	0.23975	0.25412	0.3029	0.11083	0.18761	0.013489	0.089008	-1.3042	-1.9688	-2.0646	-1.5917	-2.1188	-1.7938	-1.6458	-1.8708	-1.75	-1.9583	-2.0667	-1.675	-2.0187	-1.8937	-1.7958	-2.2938	477.373	184.242	420.827	337.412	142.343	392.064	476.366	410.131	468.296	273.322	159.179	362.546	462.910	277.475	187.976	442.870	0.00069248	0.00023952	0.00010391	374.81	4.5884e-06	1.7648e-06	498.3	151.55	3.2401e-06	4.06e-06	212.06	97.023	62.219	23.249	2.6569e-06	46.832	0.00086229	0.0010106	0.00032902	393.1	9.9421e-06	1.278e-05	520.18	158.34	1.0869e-05	1.1883e-05	222.96	102.4	65.463	24.779	1.0781e-05	49.589	156.927	200.213	168.043	139.241	249.700	277.483	138.204	143.896	263.598	273.359	142.424	146.165	146.683	152.400	269.311	150.413	-8191	255	
33938.359	1	1	0	0	0.19745	0.050633	0.12539	0.12968	0.094163	0.19728	0.13581	0.048023	0.24176	0.14023	0.24697	0.19506	0.19182	0.11616	0.078113	0.24885	-1.2521	-1.8271	-2.1937	-1.8354	-2.1458	-1.9417	-1.9354	-2.0833	-1.8229	-1.85	-2.2917	-1.7125	-2.0833	-1.9146	-1.7583	-2.0896	146.691	288.368	370.371	450.803	377.757	448.692	401.611	472.031	134.405	246.588	337.944	142.716	218.290	365.942	359.688	362.192	0.0006555	0.00041529	1.6875e-05	380.3	2.6389e-06	3.5531e-06	504.36	152.94	3.353e-06	9.4891e-07	212.4	98.585	62.425	23.483	3.3047e-06	47.151	0.00084236	0.0010338	0.00031586	395.67	1.003e-05	1.349e-05	524.55	160	1.0621e-05	1.1609e-05	224.71	103.39	65.502	24.983	1.0264e-05	49.934	159.538	206.395	211.299	139.413	250.306	297.460	138.563	144.031	256.859	257.875	142.271	146.320	147.541	152.146	260.998	149.843	-8191	255	
33938.453	1	1	0	0	0.081167	0.38816	0.10719	0.26637	0.19974	0.091672	0.11885	0.28589	0.21979	0.096498	0.093358	0.030731	0.38305	0.048696	0.082842	0.11149	-1.1521	-1.6667	-2.1896	-1.5583	-1.9958	-2.05	-1.7687	-2.3833	-1.9104	-1.8021	-2.1521	-1.7583	-1.9562	-1.9333	-1.6854	-2.3063	293.771	222.400	442.836	256.754	387.216	272.069	437.740	291.079	240.467	266.528	241.083	293.418	251.033	243.443	161.608	300.855	0.00068488	0.00039288	0.00013784	378.61	3.4238e-06	4.1627e-06	508.27	153.23	4.8719e-06	3.2525e-06	215.72	99.154	62.554	23.324	3.7849e-06	47.135	0.00085752	0.0010012	0.00029336	397.94	9.6164e-06	1.2963e-05	528.73	160.24	1.0705e-05	1.1391e-05	226.17	103.7	65.807	24.884	1.0895e-05	49.801	157.631	245.344	191.200	139.828	271.307	267.043	138.680	144.379	247.173	292.769	142.331	145.906	147.061	152.074	255.806	149.735	-8191	255	
33938.551	1	1	0	0	0.12653	0.25909	0.26623	0.25377	0.29552	0.1531	0.25995	0.15522	0.063237	0.2394	0.10277	0.17547	0.23276	0.11277	0.098608	0.21145	-1.3667	-1.75	-1.9562	-1.7687	-1.7729	-2.0938	-1.7	-2.0208	-1.7396	-1.5458	-2.2125	-1.8646	-2.025	-2.1042	-1.5771	-2.1354	274.158	279.349	331.446	387.093	244.918	483.123	424.442	137.870	424.931	196.038	326.383	389.131	223.583	152.830	399.701	440.974	0.00068867	0.00021916	7.254e-05	377.51	3.6185e-06	3.8754e-06	508.14	153.06	2.6861e-06	3.0369e-06	209.89	96.932	61.424	23.089	3.3827e-06	45.998	0.00085559	0.0010133	0.00029568	397.19	9.8024e-06	1.2391e-05	526.52	159.38	1.1506e-05	1.1908e-05	222.28	101.88	64.846	24.602	1.1996e-05	48.813	160.598	191.297	254.993	139.573	286.398	291.087	138.511	144.114	283.305	267.516	142.536	146.365	147.051	152.595	302.975	149.898	-8191	255	
