BOXY.EXE: ISS Imagent and Oximeter Data Acquisition Program Version 0.80
Ascii Record File

#ACQ INFORMATION
2  Detector Channels 
16  External MUX Channels 
1  Auxiliary Channels 
5000  Waveform (CCF) Frequency (Hz)
1  Waveforms Skipped 
30  Waveforms Averaged 
1  Cycles Averaged 
16  Acquisitions per Waveform 
10.0806  Updata Rate (Hz) 

#FILE INFORMATION
TRUE -- External MUX Channel results are PARSED.
FALSE -- AC DC and Phase are NOT grouped.
TRUE -- Companion Program Settings File CREATED.
FALSE -- AC data not excluded
FALSE -- DC data not excluded
FALSE -- Phase data not excluded
FALSE -- Auxillary Chn. data not excluded
Tab delimiters

#CALIBRATION STATE
TRUE -- Waveform Calibration Values APPLIED.


#AUX CALIBRATION VALUES
Val Type	aux-1	

Term	1.0000e+00	
Factor	0.0000e+00	


#WF CALIBRATION VALUES
A = Detector Channel
Val Type	A-AC1	A-AC2	A-AC3	A-AC4	A-AC5	A-AC6	A-AC7	A-AC8	A-AC9	A-AC10	A-AC11	A-AC12	A-AC13	A-AC14	A-AC15	A-AC16	A-DC1	A-DC2	A-DC3	A-DC4	A-DC5	A-DC6	A-DC7	A-DC8	A-DC9	A-DC10	A-DC11	A-DC12	A-DC13	A-DC14	A-DC15	A-DC16	A-Ph1	A-Ph2	A-Ph3	A-Ph4	A-Ph5	A-Ph6	A-Ph7	A-Ph8	A-Ph9	A-Ph10	A-Ph11	A-Ph12	A-Ph13	A-Ph14	A-Ph15	A-Ph16	

Term	0.00000e+00	0.00000e+00	0.00000e+00	0.00000e+00	0.00000e+00	0.00000e+00	0.00000e+00	0.00000e+00	0.00000e+00	0.00000e+00	0.00000e+00	0.00000e+00	0.00000e+00	0.00000e+00	0.00000e+00	0.00000e+00	0.00000e+00	0.00000e+00	0.00000e+00	0.00000e+00	0.00000e+00	0.00000e+00	0.00000e+00	0.00000e+00	0.00000e+00	0.00000e+00	0.00000e+00	0.00000e+00	0.00000e+00	0.00000e+00	0.00000e+00	0.00000e+00	0.00000e+00	0.00000e+00	0.00000e+00	0.00000e+00	0.00000e+00	0.00000e+00	0.00000e+00	0.00000e+00	0.00000e+00	0.00000e+00	0.00000e+00	0.00000e+00	0.00000e+00	0.00000e+00	0.00000e+00	0.00000e+00	
Factor	1.00000e+00	1.00000e+00	1.00000e+00	1.00000e+00	1.00000e+00	1.00000e+00	1.00000e+00	1.00000e+00	1.00000e+00	1.00000e+00	1.00000e+00	1.00000e+00	1.00000e+00	1.00000e+00	1.00000e+00	1.00000e+00	1.00000e+00	1.00000e+00	1.00000e+00	1.00000e+00	1.00000e+00	1.00000e+00	1.00000e+00	1.00000e+00	1.00000e+00	1.00000e+00	1.00000e+00	1.00000e+00	1.00000e+00	1.00000e+00	1.00000e+00	1.00000e+00	X	X	X	X	X	X	X	X	X	X	X	X	X	X	X	X	

B = Detector Channel
Val Type	B-AC1	B-AC2	B-AC3	B-AC4	B-AC5	B-AC6	B-AC7	B-AC8	B-AC9	B-AC10	B-AC11	B-AC12	B-AC13	B-AC14	B-AC15	B-AC16	B-DC1	B-DC2	B-DC3	B-DC4	B-DC5	B-DC6	B-DC7	B-DC8	B-DC9	B-DC10	B-DC11	B-DC12	B-DC13	B-DC14	B-DC15	B-DC16	B-Ph1	B-Ph2	B-Ph3	B-Ph4	B-Ph5	B-Ph6	B-Ph7	B-Ph8	B-Ph9	B-Ph10	B-Ph11	B-Ph12	B-Ph13	B-Ph14	B-Ph15	B-Ph16	

Term	0.00000e+00	0.00000e+00	0.00000e+00	0.00000e+00	0.00000e+00	0.00000e+00	0.00000e+00	0.00000e+00	0.00000e+00	0.00000e+00	0.00000e+00	0.00000e+00	0.00000e+00	0.00000e+00	0.00000e+00	0.00000e+00	0.00000e+00	0.00000e+00	0.00000e+00	0.00000e+00	0.00000e+00	0.00000e+00	0.00000e+00	0.00000e+00	0.00000e+00	0.00000e+00	0.00000e+00	0.00000e+00	0.00000e+00	0.00000e+00	0.00000e+00	0.00000e+00	-1.39278e+02	-1.18623e+02	-1.35795e+02	-1.82111e+02	-6.77916e+01	-8.69060e+01	-1.58920e+02	-1.62015e+02	-8.07281e+01	-9.04246e+01	-1.70527e+02	-1.72392e+02	-1.77825e+02	-1.76618e+02	-8.58281e+01	-1.49177e+02	
Factor	2.08840e-05	1.12845e-04	4.51227e-05	1.72743e-01	1.01973e-06	1.29749e-06	1.94666e-01	5.53233e-02	1.05499e-06	1.31565e-06	9.43069e-02	3.35196e-02	2.78317e-02	9.88634e-03	1.30373e-06	1.45576e-02	1.37347e-06	1.43500e-06	4.00220e-07	8.51377e-02	1.56614e-08	1.57660e-08	8.99492e-02	2.72962e-02	1.56928e-08	1.57274e-08	4.45325e-02	1.58891e-02	1.37582e-02	4.84121e-03	1.57627e-08	6.86061e-03	X	X	X	X	X	X	X	X	X	X	X	X	X	X	X	X	



#DISTANCE SETTINGS
A = Detector Channel
A-1	A-2	A-3	A-4	A-5	A-6	A-7	A-8	A-9	A-10	A-11	A-12	A-13	A-14	A-15	A-16	

2.5000e+00	3.0000e+00	2.5000e+00	3.0000e+00	2.0000e+00	3.0000e+00	1.5000e+00	3.0000e+00	3.0000e+00	3.0000e+00	3.0000e+00	3.0000e+00	3.0000e+00	3.0000e+00	1.5000e+00	3.0000e+00	

B = Detector Channel
B-1	B-2	B-3	B-4	B-5	B-6	B-7	B-8	B-9	B-10	B-11	B-12	B-13	B-14	B-15	B-16	

1.0000e+01	1.0000e+01	1.0000e+01	1.4400e+00	1.0000e+01	1.0000e+01	1.5100e+00	1.9400e+00	1.0000e+01	1.0000e+01	1.9900e+00	2.4900e+00	2.4100e+00	2.9000e+00	1.0000e+01	2.9800e+00	




#DATA BEGINS
time	group	step	mark	flag	A-AC1	A-AC2	A-AC3	A-AC4	A-AC5	A-AC6	A-AC7	A-AC8	A-AC9	A-AC10	A-AC11	A-AC12	A-AC13	A-AC14	A-AC15	A-AC16	A-DC1	A-DC2	A-DC3	A-DC4	A-DC5	A-DC6	A-DC7	A-DC8	A-DC9	A-DC10	A-DC11	A-DC12	A-DC13	A-DC14	A-DC15	A-DC16	A-Ph1	A-Ph2	A-Ph3	A-Ph4	A-Ph5	A-Ph6	A-Ph7	A-Ph8	A-Ph9	A-Ph10	A-Ph11	A-Ph12	A-Ph13	A-Ph14	A-Ph15	A-Ph16	B-AC1	B-AC2	B-AC3	B-AC4	B-AC5	B-AC6	B-AC7	B-AC8	B-AC9	B-AC10	B-AC11	B-AC12	B-AC13	B-AC14	B-AC15	B-AC16	B-DC1	B-DC2	B-DC3	B-DC4	B-DC5	B-DC6	B-DC7	B-DC8	B-DC9	B-DC10	B-DC11	B-DC12	B-DC13	B-DC14	B-DC15	B-DC16	B-Ph1	B-Ph2	B-Ph3	B-Ph4	B-Ph5	B-Ph6	B-Ph7	B-Ph8	B-Ph9	B-Ph10	B-Ph11	B-Ph12	B-Ph13	B-Ph14	B-Ph15	B-Ph16	aux-1	digaux	

1470.380	1	1	0	256	0.13447	0.15772	0.17731	0.16939	0.32204	0.13248	0.20375	0.29891	0.11621	0.14465	0.11349	0.15488	0.19524	0.058097	0.13327	0.23451	-1.4521	-2.3917	-2.0875	-2.2812	-2.5479	-1.9333	-2.3625	-2.3521	-1.9188	-2.3479	-2.2917	-2.2021	-2.525	-2.0521	-2.2542	-2.4688	329.211	204.038	83.221	110.041	226.479	121.943	412.263	393.978	101.186	370.060	203.160	101.280	411.065	336.805	239.544	400.378	0.0004716	0.00022256	0.00021382	1346.1	4.0751e-06	3.5355e-06	1349.5	365.09	5.436e-06	9.1737e-06	418.8	140.1	120.58	42.073	3.684e-06	52.169	0.00071168	0.000707	0.00022945	1377.3	7.6794e-06	8.0379e-06	1385	375.08	7.8527e-06	8.1233e-06	434.2	145.9	124.82	43.841	9.0903e-06	54.379	153.704	209.205	136.348	90.163	156.342	216.967	89.881	94.748	296.741	179.184	94.162	98.444	98.984	103.508	255.146	102.929	-8191	255	
1470.476	1	1	0	0	0.12791	0.22391	0.16862	0.10097	0.22478	0.23326	0.22776	0.25064	0.28645	0.11522	0.23361	0.13384	0.054614	0.14687	0.1308	0.35426	-1.4854	-2.4833	-1.9813	-2.1625	-2.4979	-2.0042	-2.5167	-2.3083	-1.9583	-2.5042	-2.4333	-2.0458	-2.7521	-2.1771	-2.2812	-2.4625	229.470	408.359	407.654	362.601	215.767	136.468	394.984	97.912	430.064	209.433	430.891	360.243	388.570	382.836	381.593	237.677	0.00050822	0.00078655	0.00022823	1345.5	6.0849e-07	1.3878e-05	1348.9	363.71	5.3752e-06	9.661e-06	416.01	139.95	120.73	42.041	5.0494e-06	52.174	0.00070777	0.00076892	0.00022943	1375.2	7.5768e-06	8.6432e-06	1384.2	374.32	7.645e-06	8.6249e-06	432.18	145.66	124.75	43.916	8.5067e-06	54.229	154.330	148.181	335.560	89.866	167.524	165.142	89.922	94.733	235.067	208.937	94.460	98.789	99.113	103.788	204.336	102.863	-8191	255	
1470.597	1	1	0	0	0.14471	0.29462	0.20028	0.056825	0.34352	0.11433	0.23603	0.20143	0.1692	0.15748	0.10746	0.30734	0.34242	0.39092	0.10698	0.084313	-1.3771	-2.3396	-2.0417	-2.3479	-2.4333	-2.0312	-2.3333	-2.4729	-1.9708	-2.3438	-2.2562	-2.0917	-2.6188	-2.0563	-2.3146	-2.4833	98.114	78.298	317.899	375.875	318.075	322.369	379.660	413.111	354.017	160.129	372.587	83.173	94.119	398.225	268.748	346.007	0.00054806	0.00049189	0.00022171	1346.2	7.7711e-06	7.2692e-06	1350	365.16	8.6221e-06	2.1493e-06	415.96	140.8	120.9	42.029	3.209e-06	52.081	0.00068309	0.00078391	0.00020996	1373.2	7.3647e-06	8.6276e-06	1381.2	373.69	7.5766e-06	8.6152e-06	430.06	145.2	125.03	43.965	7.9431e-06	54.113	160.893	130.348	106.541	90.022	220.510	296.711	89.971	94.611	185.729	138.817	94.254	98.705	99.233	103.789	258.403	103.037	-8191	255	
1470.669	1	1	0	0	0.151	0.11793	0.18074	0.18773	0.21851	0.067971	0.098425	0.30595	0.22658	0.3238	0.18994	0.083736	0.20408	0.16851	0.10792	0.21127	-1.5063	-2.3729	-2.1688	-1.9667	-2.5062	-2.1625	-2.0708	-2.6583	-1.8042	-2.1021	-2.4417	-2.0167	-2.4958	-2.0979	-1.9146	-2.5958	121.552	98.762	411.825	283.305	360.353	93.597	95.689	378.314	364.693	264.130	431.663	387.087	89.573	126.983	418.870	204.482	0.00059748	0.00042415	0.00022912	1347.3	7.1632e-06	2.2893e-06	1348.9	364.29	8.8644e-06	7.7541e-07	417.1	141.22	121.21	42.123	2.6502e-06	52.374	0.00069711	0.00078163	0.00019745	1371.2	7.7396e-06	8.5731e-06	1378.5	373.31	7.9674e-06	8.5188e-06	429.13	145.26	125.5	43.94	7.7309e-06	54.161	148.173	165.466	173.809	90.166	214.354	334.412	90.058	94.685	219.100	365.876	94.152	98.610	99.255	103.796	97.574	102.962	-8191	255	
1470.765	1	1	0	0	0.11391	0.11916	0.29582	0.34949	0.066454	0.3203	0.36626	0.038878	0.14067	0.15001	0.34529	0.1545	0.16353	0.22603	0.22761	0.14315	-1.4208	-2.2708	-2.3021	-2.125	-2.1771	-2.1667	-2.3083	-2.4938	-2.0625	-2.0708	-2.4125	-1.9667	-2.4375	-2.4104	-1.9688	-2.4313	202.773	307.262	403.787	375.599	310.318	341.220	380.953	346.716	78.781	327.951	428.642	192.559	97.786	383.352	282.187	92.402	0.00067348	0.00032208	0.00039904	1345.2	8.2371e-06	3.4989e-06	1343.6	365.02	3.4724e-06	2.1314e-06	415.88	140.93	121.38	41.971	8.376e-06	52.341	0.00074625	0.00076127	0.00019095	1370.1	8.2091e-06	8.1563e-06	1375.1	373.37	8.3801e-06	8.1628e-06	428.63	145.45	126.06	43.767	7.4773e-06	54.109	157.224	266.883	182.387	90.070	193.583	294.624	90.003	94.687	250.360	340.485	94.176	98.515	99.331	103.506	231.875	103.174	-8191	255	
1470.885	1	1	0	0	0.04921	0.29981	0.29231	0.49939	0.068398	0.06638	0.2981	0.29012	0.41838	0.19683	0.39042	0.30839	0.046247	0.20584	0.069479	0.24247	-1.5396	-1.9312	-2.4	-2.0625	-2.3187	-2.2708	-2.0896	-2.5104	-2.1	-2.0458	-2.5938	-1.8896	-2.5292	-2.4208	-1.9729	-2.4521	85.325	188.032	135.580	410.804	374.331	212.490	327.123	383.702	362.738	268.747	345.312	357.675	415.379	416.037	376.026	366.750	0.0006519	0.00028436	4.0456e-05	1347.2	4.3872e-06	6.0249e-06	1346.4	364.82	6.7051e-06	2.2847e-06	414.5	141.56	121.12	42.122	6.1861e-06	52.283	0.00076889	0.00071781	0.00018273	1371.5	8.4397e-06	7.7203e-06	1376.7	374.18	8.3986e-06	7.643e-06	427.12	145.83	126.06	43.734	7.1852e-06	54.361	144.546	212.826	405.055	90.052	254.429	325.496	89.898	94.754	215.234	428.503	94.084	98.579	99.186	103.995	241.107	103.168	-8191	255	
1470.981	1	1	0	0	0.036013	0.23674	0.20015	0.18057	0.22848	0.23482	0.072478	0.086568	0.20019	0.15504	0.11869	0.48946	0.20653	0.19803	0.21495	0.16614	-1.6063	-1.9958	-2.3896	-2.1667	-2.2062	-2.2396	-2.2062	-2.4583	-2.175	-2.0875	-2.4604	-2.1271	-2.4333	-2.1417	-1.8021	-2.4833	236.247	304.666	284.665	378.139	428.289	161.590	402.515	93.262	256.422	273.730	111.455	81.807	347.600	409.085	207.263	281.642	0.00049136	0.0006444	0.00020413	1345.1	2.8213e-06	2.8896e-06	1351.3	366.1	8.9926e-06	3.2521e-06	417.25	141.5	121.27	42.1	6.4061e-06	52.413	0.00074815	0.00068357	0.00017735	1374.4	8.2631e-06	7.41e-06	1374.9	375.42	8.0881e-06	7.4786e-06	428.19	146.61	125.62	43.657	7.2214e-06	54.64	156.646	181.535	173.955	90.070	298.602	111.569	89.955	94.875	231.596	380.901	94.436	98.605	98.996	103.686	248.266	102.906	-8191	255	
1471.076	1	1	0	0	0.10277	0.15011	0.25093	0.21857	0.23657	0.26355	0.084105	0.30088	0.062114	0.19029	0.22905	0.17984	0.32007	0.22769	0.1365	0.15	-1.7167	-2.0062	-2.325	-2.125	-2.2604	-2.2854	-2.275	-2.5167	-2.0708	-1.9354	-2.4896	-2.0354	-2.2771	-2.4313	-1.9312	-2.2896	180.501	139.164	182.728	332.735	237.851	127.734	383.015	424.971	389.814	200.828	133.363	371.260	404.360	397.777	91.464	354.141	0.00044947	0.00027188	0.00010449	1347.5	2.7334e-06	4.1927e-06	1353.8	364.55	6.1752e-06	2.8044e-06	416.7	141.21	121.43	42.324	6.9624e-06	52.436	0.00072532	0.00067172	0.00018117	1377.7	7.9398e-06	7.207e-06	1377.9	375.24	7.736e-06	7.2258e-06	428.34	146.71	125.44	43.644	7.4046e-06	54.769	164.486	225.833	152.092	90.093	396.784	200.864	90.143	94.702	222.030	393.183	94.361	98.625	99.133	103.590	251.462	102.769	-8191	255	
1471.172	1	1	0	0	0.026377	0.1607	0.031388	0.33585	0.26854	0.16284	0.15182	0.17149	0.20327	0.017392	0.1823	0.35058	0.1219	0.18577	0.17726	0.018663	-1.9937	-1.85	-2.25	-2.2292	-2.1937	-2.35	-2.1604	-2.4479	-2.2375	-2.0563	-2.6083	-2.175	-2.3333	-2.5812	-2.2687	-2.2396	269.901	290.956	353.388	369.044	394.495	89.187	356.885	129.811	367.544	308.839	326.833	419.323	144.904	85.395	380.647	92.840	0.00047565	0.00058291	0.00022856	1344.5	3.8772e-06	7.9829e-06	1347.1	366.28	1.0783e-06	9.7633e-07	417.43	141.29	121.39	42.009	3.2492e-06	52.35	0.00067778	0.00065229	0.00018799	1376.6	7.5574e-06	7.0004e-06	1379.3	376.13	7.444e-06	7.0771e-06	430.68	146.67	125.14	43.555	7.9728e-06	54.621	151.412	167.500	196.586	90.184	322.638	203.591	90.011	94.812	147.668	138.997	94.262	98.362	99.267	103.730	187.802	103.009	-8191	255	
1471.268	1	1	0	0	0.14598	0.25945	0.11339	0.48525	0.11962	0.18506	0.26605	0.3207	0.043267	0.11275	0.31708	0.3544	0.21779	0.26293	0.21972	0.024291	-1.9521	-2.0687	-2.35	-2.2833	-2.1833	-2.2479	-2.1667	-2.5312	-2.3646	-2.0417	-2.4479	-2.3875	-2.0833	-2.5875	-1.8875	-2.3375	99.026	334.982	328.122	404.443	369.905	207.501	369.309	405.138	241.417	153.793	351.608	382.017	123.071	400.726	255.731	361.688	0.00053555	9.7482e-05	0.00033712	1342.9	3.5022e-06	6.3315e-06	1347.1	365.56	5.4215e-06	8.1979e-07	417.39	140.73	121.05	42.011	7.9689e-06	52.408	0.00066175	0.00064479	0.00020267	1374.9	7.3694e-06	6.9504e-06	1380.5	375.46	7.224e-06	7.1183e-06	431.27	145.98	124.95	43.633	8.3346e-06	54.568	152.627	212.194	148.936	90.242	201.578	193.116	89.978	94.687	220.662	313.024	94.170	98.592	99.400	103.865	200.872	103.269	-8191	255	
1471.364	1	1	0	0	0.28823	0.11366	0.23973	0.16708	0.18243	0.29687	0.19387	0.41636	0.15996	0.13022	0.045222	0.23288	0.19479	0.2007	0.15743	0.14777	-1.9479	-1.9521	-2.4271	-2.4396	-2.0146	-2.2521	-2.2708	-2.0792	-2.3625	-1.875	-2.4958	-2.3354	-1.875	-2.5208	-2.0896	-1.9646	427.331	326.367	418.147	209.892	201.749	267.914	384.128	368.959	197.813	253.802	250.199	403.065	384.868	100.820	266.971	395.251	0.00057252	0.00048054	0.00026308	1346	6.547e-06	7.3003e-06	1350.3	365.03	2.8923e-06	1.2666e-05	417.85	141.16	121.55	42.123	4.5666e-06	52.555	0.00065547	0.00067539	0.00021555	1374.2	7.2948e-06	7.404e-06	1382.5	374.8	7.1414e-06	7.565e-06	432.82	146.02	125.24	43.805	8.4253e-06	54.503	151.388	123.948	394.996	90.174	245.847	190.708	89.871	94.876	235.832	188.151	94.108	98.688	99.147	103.641	180.328	103.174	-8191	255	
1471.460	1	1	0	0	0.16715	0.083516	0.067327	0.22769	0.1737	0.11119	0.26089	0.56028	0.1893	0.15181	0.046065	0.19387	0.27205	0.089567	0.025778	0.14983	-1.8208	-2.0708	-2.3708	-2.4875	-1.8458	-2.3396	-2.175	-2.3125	-2.3979	-2.1479	-2.3375	-2.5333	-2.0917	-2.3875	-2.1229	-2.0396	295.275	334.795	168.140	400.605	365.971	94.820	310.385	425.586	412.864	430.253	411.685	362.885	393.696	384.697	233.025	108.930	0.00058094	0.00065432	0.00036552	1347.9	5.7171e-06	5.1214e-06	1347.7	365.44	3.6223e-06	9.0114e-06	418.95	141.47	121.92	42.363	5.0088e-06	52.522	0.00063958	0.00070826	0.00021326	1374.5	7.1381e-06	7.8881e-06	1383.4	375.08	6.9551e-06	7.9937e-06	432.33	146.18	125.51	44.122	7.8943e-06	54.48	154.720	123.085	161.696	90.023	213.863	188.662	89.847	94.743	229.458	193.222	94.356	98.588	99.144	103.727	210.267	103.077	-8191	255	
1471.557	1	1	0	0	0.32774	0.25448	0.45027	0.15954	0.07491	0.21594	0.27538	0.39217	0.32148	0.13111	0.32081	0.12018	0.23945	0.28817	0.092735	0.34972	-1.9917	-2.0229	-2.2083	-2.4083	-1.8917	-2.4208	-2.4125	-2.0271	-2.4396	-2.1958	-2.2958	-2.4292	-1.9937	-2.6146	-2.2062	-2.2646	196.135	363.402	317.742	334.258	436.274	127.515	377.998	345.719	127.006	359.241	180.990	321.544	416.324	321.329	244.822	357.462	0.00054574	0.00034015	0.00017746	1347	7.2351e-06	7.7913e-06	1351.2	366.16	5.3903e-06	8.6524e-06	417.54	141.32	121.97	42.103	2.3475e-06	52.319	0.00063019	0.00073471	0.00019911	1370.5	7.0949e-06	8.1443e-06	1379.1	374.32	7.0932e-06	8.2603e-06	431.07	145.55	125.56	44.055	7.618e-06	54.207	159.100	128.532	156.737	90.251	229.109	175.819	89.828	94.929	187.703	262.413	94.039	98.487	99.037	103.771	271.208	102.926	-8191	255	
1471.677	1	1	0	0	0.10613	0.21416	0.24434	0.10535	0.026206	0.16472	0.15338	0.23066	0.12534	0.1985	0.13629	0.27228	0.29773	0.12386	0.11972	0.17047	-2.0208	-2.1854	-2.1937	-2.7333	-2.0896	-2.3104	-2.5833	-2.2958	-2.6188	-1.8875	-2.3021	-2.5625	-2.1792	-2.4604	-2.3563	-2.1437	204.457	286.234	183.432	429.024	215.300	425.683	414.022	364.215	105.403	170.558	292.596	92.607	405.408	312.755	181.597	251.147	0.00061081	6.0695e-05	0.00013177	1342.1	6.7673e-06	2.9961e-06	1347.3	365.88	9.2113e-06	6.2926e-06	418.39	142.1	121.94	42.289	7.7683e-06	52.441	0.0006728	0.00075911	0.00019337	1368.4	7.5022e-06	8.2366e-06	1376.5	373.52	7.5566e-06	8.1219e-06	429.65	145.47	125.84	44.053	7.1749e-06	54.119	158.712	82.927	197.095	90.066	248.498	182.113	89.887	94.889	190.675	205.970	94.231	98.594	99.126	103.792	184.515	103.054	-8191	255	
1471.773	1	1	0	0	0.15957	0.14616	0.050199	0.28769	0.0045858	0.28768	0.087569	0.22261	0.30121	0.15341	0.16924	0.20377	0.069858	0.084054	0.11914	0.24012	-1.9708	-2.0812	-1.9646	-2.625	-1.9958	-2.3438	-2.3917	-2.1771	-2.3875	-2.2104	-2.05	-2.625	-2.1917	-2.4167	-2.425	-2.0792	181.248	140.335	254.459	415.005	235.127	249.438	332.857	380.583	235.872	245.273	389.226	332.227	96.182	167.761	324.060	302.086	0.00059192	0.00033148	7.8394e-05	1345.4	7.8389e-06	8.6713e-07	1349.9	366.17	5.8785e-06	4.4471e-06	417.8	142.41	121.93	42.449	6.2662e-06	52.723	0.00069087	0.00070808	0.00018163	1364.3	7.5815e-06	7.4974e-06	1375.6	373.37	7.5291e-06	7.2238e-06	427.66	145.76	125.9	43.943	6.3997e-06	54.243	152.669	128.603	189.059	89.984	220.357	256.070	89.936	94.890	249.635	281.469	94.415	98.445	99.142	103.634	159.412	102.640	-8191	255	
1471.870	1	1	0	0	0.093623	0.15058	0.20277	0.073434	0.25563	0.076284	0.30045	0.28051	0.22847	0.15397	0.18889	0.22505	0.045002	0.16269	0.087099	0.13498	-1.9958	-2.2792	-2.05	-2.5062	-2.2521	-2.0563	-2.4375	-2.2021	-2.2875	-2.0667	-2.1375	-2.5542	-2.1562	-2.1021	-2.3375	-2.0667	314.079	249.776	148.026	87.133	144.670	89.380	345.997	425.237	202.795	119.617	411.074	95.505	389.796	276.079	334.173	90.242	0.00064062	0.00034655	0.00016856	1346.9	3.1436e-06	4.2223e-06	1349.5	365.48	1.869e-06	3.7663e-06	418.19	142.87	122.07	42.444	3.6246e-06	52.37	0.00066091	0.00061281	0.00016172	1365.6	7.1949e-06	6.6347e-06	1368.5	372.62	7.2893e-06	6.5132e-06	426.47	146.22	125.83	43.795	6.2568e-06	54.317	144.187	178.592	146.302	90.128	207.028	100.800	90.025	94.873	167.895	230.918	94.295	98.607	99.376	103.427	196.669	103.150	-8191	255	
1471.966	1	1	0	0	0.16542	0.22554	0.088936	0.12463	0.15335	0.13803	0.19739	0.21844	0.11376	0.23312	0.081557	0.19399	0.25882	0.22533	0.035761	0.10872	-1.6646	-2.2458	-1.9292	-2.4333	-2.1792	-2.0042	-2.5917	-2.2396	-2.2729	-2.3083	-2.0542	-2.4792	-2.2313	-2.1667	-2.2917	-1.9979	231.358	359.354	187.596	168.038	268.525	78.407	378.515	348.223	137.422	138.706	390.748	270.984	415.288	134.103	160.456	117.364	0.00053857	0.00012414	0.00022161	1343.9	3.0603e-07	4.1871e-06	1347.8	364.34	3.3565e-06	7.7968e-06	417.44	142.49	122.16	42.593	6.0879e-06	52.667	0.00067298	0.00061064	0.00016153	1366.8	7.3501e-06	6.7071e-06	1369.8	373.87	7.3893e-06	6.7035e-06	426.85	146.78	125.85	43.871	6.3109e-06	54.624	161.370	258.370	194.963	90.164	431.478	225.990	90.028	94.741	154.018	174.089	94.368	98.823	99.142	103.737	222.491	102.698	-8191	255	
1472.062	1	1	0	0	0.39905	0.13794	0.042676	0.1676	0.21935	0.062592	0.31232	0.31636	0.21944	0.18342	0.3084	0.089532	0.19394	0.090935	0.17125	0.20612	-1.9042	-2.3438	-1.9062	-2.6479	-2.1583	-2.0729	-2.4188	-2.1833	-2.0563	-2.2188	-2.0625	-2.2646	-2.2396	-2.0833	-2.2083	-2.1979	186.616	271.816	320.711	384.152	187.303	424.724	328.097	428.512	159.259	344.751	343.351	432.456	83.119	433.508	135.316	412.587	0.0004557	0.00047806	0.00019057	1346.6	5.1038e-06	3.2159e-06	1345.7	366.41	1.6693e-06	8.0744e-06	420.01	142.87	122.04	42.525	6.3388e-06	52.663	0.00065504	0.00058908	0.00016506	1372.1	7.0103e-06	6.5344e-06	1367.6	374.99	6.9027e-06	6.1946e-06	426.95	147.13	125.25	43.748	6.3208e-06	54.568	160.251	234.566	194.532	90.223	225.620	207.154	89.880	94.619	141.921	235.436	94.241	98.575	99.494	103.652	185.135	103.134	-8191	255	
