BOXY.EXE: ISS Imagent and Oximeter Data Acquisition Program Version 0.80
Ascii Record File

#ACQ INFORMATION
2  Detector Channels 
16  External MUX Channels 
1  Auxiliary Channels 
5000  Waveform (CCF) Frequency (Hz)
1  Waveforms Skipped 
30  Waveforms Averaged 
1  Cycles Averaged 
16  Acquisitions per Waveform 
10.0806  Updata Rate (Hz) 

#FILE INFORMATION
TRUE -- External MUX Channel results are PARSED.
FALSE -- AC DC and Phase are NOT grouped.
TRUE -- Companion Program Settings File CREATED.
FALSE -- AC data not excluded
FALSE -- DC data not excluded
FALSE -- Phase data not excluded
FALSE -- Auxillary Chn. data not excluded
Tab delimiters

#CALIBRATION STATE
TRUE -- Waveform Calibration Values APPLIED.


#AUX CALIBRATION VALUES
Val Type	aux-1	

Term	1.0000e+00	
Factor	0.0000e+00	


#WF CALIBRATION VALUES
A = Detector Channel
Val Type	A-AC1	A-AC2	A-AC3	A-AC4	A-AC5	A-AC6	A-AC7	A-AC8	A-AC9	A-AC10	A-AC11	A-AC12	A-AC13	A-AC14	A-AC15	A-AC16	A-DC1	A-DC2	A-DC3	A-DC4	A-DC5	A-DC6	A-DC7	A-DC8	A-DC9	A-DC10	A-DC11	A-DC12	A-DC13	A-DC14	A-DC15	A-DC16	A-Ph1	A-Ph2	A-Ph3	A-Ph4	A-Ph5	A-Ph6	A-Ph7	A-Ph8	A-Ph9	A-Ph10	A-Ph11	A-Ph12	A-Ph13	A-Ph14	A-Ph15	A-Ph16	

Term	0.00000e+00	0.00000e+00	0.00000e+00	0.00000e+00	0.00000e+00	0.00000e+00	0.00000e+00	0.00000e+00	0.00000e+00	0.00000e+00	0.00000e+00	0.00000e+00	0.00000e+00	0.00000e+00	0.00000e+00	0.00000e+00	0.00000e+00	0.00000e+00	0.00000e+00	0.00000e+00	0.00000e+00	0.00000e+00	0.00000e+00	0.00000e+00	0.00000e+00	0.00000e+00	0.00000e+00	0.00000e+00	0.00000e+00	0.00000e+00	0.00000e+00	0.00000e+00	0.00000e+00	0.00000e+00	0.00000e+00	0.00000e+00	0.00000e+00	0.00000e+00	0.00000e+00	0.00000e+00	0.00000e+00	0.00000e+00	0.00000e+00	0.00000e+00	0.00000e+00	0.00000e+00	0.00000e+00	0.00000e+00	
Factor	1.00000e+00	1.00000e+00	1.00000e+00	1.00000e+00	1.00000e+00	1.00000e+00	1.00000e+00	1.00000e+00	1.00000e+00	1.00000e+00	1.00000e+00	1.00000e+00	1.00000e+00	1.00000e+00	1.00000e+00	1.00000e+00	1.00000e+00	1.00000e+00	1.00000e+00	1.00000e+00	1.00000e+00	1.00000e+00	1.00000e+00	1.00000e+00	1.00000e+00	1.00000e+00	1.00000e+00	1.00000e+00	1.00000e+00	1.00000e+00	1.00000e+00	1.00000e+00	X	X	X	X	X	X	X	X	X	X	X	X	X	X	X	X	

B = Detector Channel
Val Type	B-AC1	B-AC2	B-AC3	B-AC4	B-AC5	B-AC6	B-AC7	B-AC8	B-AC9	B-AC10	B-AC11	B-AC12	B-AC13	B-AC14	B-AC15	B-AC16	B-DC1	B-DC2	B-DC3	B-DC4	B-DC5	B-DC6	B-DC7	B-DC8	B-DC9	B-DC10	B-DC11	B-DC12	B-DC13	B-DC14	B-DC15	B-DC16	B-Ph1	B-Ph2	B-Ph3	B-Ph4	B-Ph5	B-Ph6	B-Ph7	B-Ph8	B-Ph9	B-Ph10	B-Ph11	B-Ph12	B-Ph13	B-Ph14	B-Ph15	B-Ph16	

Term	0.00000e+00	0.00000e+00	0.00000e+00	0.00000e+00	0.00000e+00	0.00000e+00	0.00000e+00	0.00000e+00	0.00000e+00	0.00000e+00	0.00000e+00	0.00000e+00	0.00000e+00	0.00000e+00	0.00000e+00	0.00000e+00	0.00000e+00	0.00000e+00	0.00000e+00	0.00000e+00	0.00000e+00	0.00000e+00	0.00000e+00	0.00000e+00	0.00000e+00	0.00000e+00	0.00000e+00	0.00000e+00	0.00000e+00	0.00000e+00	0.00000e+00	0.00000e+00	-1.39278e+02	-1.18623e+02	-1.35795e+02	-1.82111e+02	-6.77916e+01	-8.69060e+01	-1.58920e+02	-1.62015e+02	-8.07281e+01	-9.04246e+01	-1.70527e+02	-1.72392e+02	-1.77825e+02	-1.76618e+02	-8.58281e+01	-1.49177e+02	
Factor	2.08840e-05	1.12845e-04	4.51227e-05	1.72743e-01	1.01973e-06	1.29749e-06	1.94666e-01	5.53233e-02	1.05499e-06	1.31565e-06	9.43069e-02	3.35196e-02	2.78317e-02	9.88634e-03	1.30373e-06	1.45576e-02	1.37347e-06	1.43500e-06	4.00220e-07	8.51377e-02	1.56614e-08	1.57660e-08	8.99492e-02	2.72962e-02	1.56928e-08	1.57274e-08	4.45325e-02	1.58891e-02	1.37582e-02	4.84121e-03	1.57627e-08	6.86061e-03	X	X	X	X	X	X	X	X	X	X	X	X	X	X	X	X	



#DISTANCE SETTINGS
A = Detector Channel
A-1	A-2	A-3	A-4	A-5	A-6	A-7	A-8	A-9	A-10	A-11	A-12	A-13	A-14	A-15	A-16	

2.5000e+00	3.0000e+00	2.5000e+00	3.0000e+00	2.0000e+00	3.0000e+00	1.5000e+00	3.0000e+00	3.0000e+00	3.0000e+00	3.0000e+00	3.0000e+00	3.0000e+00	3.0000e+00	1.5000e+00	3.0000e+00	

B = Detector Channel
B-1	B-2	B-3	B-4	B-5	B-6	B-7	B-8	B-9	B-10	B-11	B-12	B-13	B-14	B-15	B-16	

1.0000e+01	1.0000e+01	1.0000e+01	1.4400e+00	1.0000e+01	1.0000e+01	1.5100e+00	1.9400e+00	1.0000e+01	1.0000e+01	1.9900e+00	2.4900e+00	2.4100e+00	2.9000e+00	1.0000e+01	2.9800e+00	




#DATA BEGINS
time	group	step	mark	flag	A-AC1	A-AC2	A-AC3	A-AC4	A-AC5	A-AC6	A-AC7	A-AC8	A-AC9	A-AC10	A-AC11	A-AC12	A-AC13	A-AC14	A-AC15	A-AC16	A-DC1	A-DC2	A-DC3	A-DC4	A-DC5	A-DC6	A-DC7	A-DC8	A-DC9	A-DC10	A-DC11	A-DC12	A-DC13	A-DC14	A-DC15	A-DC16	A-Ph1	A-Ph2	A-Ph3	A-Ph4	A-Ph5	A-Ph6	A-Ph7	A-Ph8	A-Ph9	A-Ph10	A-Ph11	A-Ph12	A-Ph13	A-Ph14	A-Ph15	A-Ph16	B-AC1	B-AC2	B-AC3	B-AC4	B-AC5	B-AC6	B-AC7	B-AC8	B-AC9	B-AC10	B-AC11	B-AC12	B-AC13	B-AC14	B-AC15	B-AC16	B-DC1	B-DC2	B-DC3	B-DC4	B-DC5	B-DC6	B-DC7	B-DC8	B-DC9	B-DC10	B-DC11	B-DC12	B-DC13	B-DC14	B-DC15	B-DC16	B-Ph1	B-Ph2	B-Ph3	B-Ph4	B-Ph5	B-Ph6	B-Ph7	B-Ph8	B-Ph9	B-Ph10	B-Ph11	B-Ph12	B-Ph13	B-Ph14	B-Ph15	B-Ph16	aux-1	digaux	

1417.394	1	1	0	256	0.43683	0.0725	0.42683	0.26568	0.27449	0.14695	0.17562	0.26225	0.13735	0.054515	0.15488	0.11342	0.24654	0.050684	0.16603	0.038042	-1.9396	-1.6479	-2.2625	-2.2708	-2.0687	-2.4938	-2.1854	-2.0792	-2.1625	-1.9333	-2.3667	-2.1354	-2.1562	-2.3958	-2.1188	-2.0271	102.449	167.161	261.683	343.740	94.872	358.779	401.799	133.702	148.899	213.006	420.186	85.429	407.875	262.478	287.193	409.774	0.00020877	0.00078812	7.2038e-05	1131.6	7.2027e-06	1.1366e-05	1228.7	242.05	2.0628e-07	2.948e-06	301.59	84.674	67.376	20.126	3.0439e-06	27.349	0.0010639	0.0011793	0.00036509	1161.1	1.2113e-05	1.2856e-05	1262	256.33	1.172e-05	1.3133e-05	329.05	94.289	75.078	23.567	1.4173e-05	32.041	151.916	201.874	303.089	92.123	217.162	127.707	92.194	99.447	225.945	184.646	99.502	105.841	106.121	112.621	154.234	112.676	-8191	255	
1417.489	1	1	0	0	0.066654	0.10184	0.26031	0.22947	0.16482	0.2198	0.1416	0.35441	0.18875	0.16186	0.16613	0.33886	0.25601	0.21143	0.15739	0.12055	-1.8333	-2.0375	-2.1271	-2.3354	-2.0604	-2.15	-2.4479	-2.0438	-2.4188	-2.0042	-2.1333	-2.2604	-1.9917	-2.3708	-1.9729	-1.8146	127.815	216.538	228.958	434.859	394.015	155.325	439.724	437.138	384.090	285.045	419.879	406.780	120.640	389.503	266.553	289.155	0.00043551	0.00073497	0.00055833	1133.3	6.996e-06	9.2103e-06	1226.4	242.36	2.8209e-06	4.5276e-06	301.61	85.134	67.632	20.171	1.1056e-06	27.313	0.0010697	0.0012703	0.00036078	1161.6	1.2352e-05	1.4154e-05	1263.8	257.13	1.2176e-05	1.423e-05	328.1	94.313	75.45	23.82	1.3378e-05	31.799	137.859	177.906	323.085	92.016	290.609	121.909	92.065	99.191	204.566	255.653	99.420	105.861	106.381	113.274	170.754	112.768	-8191	255	
1417.585	1	1	0	0	0.34063	0.1942	0.17841	0.28111	0.073536	0.23734	0.12975	0.16846	0.045414	0.14483	0.041045	0.16554	0.26379	0.15331	0.025639	0.14042	-2.0042	-2.0312	-2.0167	-2.5687	-1.8979	-2.2458	-2.2521	-1.8375	-2.2938	-2.0542	-2.2438	-2.5021	-1.9417	-2.3708	-2.2188	-2.0687	245.556	289.596	283.232	373.345	247.410	267.606	367.818	109.467	333.835	253.748	136.650	293.706	97.934	139.087	336.328	338.586	0.0003473	0.00092387	0.0002292	1133.1	8.7173e-06	1.276e-05	1223.9	243.58	7.2737e-06	4.1043e-06	303.15	84.766	66.902	19.906	5.2387e-06	27.177	0.0010797	0.001281	0.00033316	1157.4	1.2246e-05	1.4106e-05	1254.3	255.62	1.2263e-05	1.3898e-05	325.3	93.511	75.596	23.679	1.2667e-05	31.601	156.103	205.314	323.734	92.094	208.212	188.681	91.889	99.403	195.486	374.278	99.174	105.584	106.507	112.389	440.771	112.489	-8191	255	
1417.681	1	1	0	0	0.16677	0.22562	0.050476	0.13157	0.061422	0.28539	0.18638	0.069577	0.24412	0.21622	0.046262	0.3529	0.10223	0.17132	0.34929	0.077127	-1.9229	-2.1896	-2.0333	-2.6562	-1.9562	-2.3312	-2.4708	-1.8937	-2.3563	-2.1792	-2.2938	-2.3521	-2.1708	-2.325	-2.2979	-1.9875	342.786	432.230	437.873	383.639	428.340	312.580	373.925	90.843	171.607	272.010	166.363	369.832	132.048	325.525	279.107	397.311	0.00034742	0.00093274	6.6322e-05	1139.3	6.4014e-06	8.6313e-06	1227	241.61	5.3229e-06	4.2018e-06	301.38	85.274	67.38	19.904	2.1573e-06	27.117	0.0011547	0.0012968	0.00032943	1159.9	1.3657e-05	1.4427e-05	1257.8	255.98	1.3951e-05	1.443e-05	326.34	94.179	77.134	23.779	1.2934e-05	31.909	148.066	409.371	204.812	92.039	150.195	278.783	92.274	99.735	158.942	304.149	98.886	105.731	106.076	112.859	191.590	112.276	-8191	255	
1417.777	1	1	0	0	0.14038	0.098392	0.13334	0.15813	0.13114	0.15165	0.20121	0.15191	0.069278	0.1315	0.21257	0.27333	0.19674	0.30293	0.24245	0.13431	-1.9167	-2.3667	-1.9688	-2.5604	-2.1167	-2.1208	-2.4396	-2.0958	-2.4375	-2.3625	-1.9646	-2.4875	-2.2021	-2.325	-2.4208	-2.0979	116.070	404.510	265.660	139.200	147.601	415.485	408.192	191.031	318.280	196.789	347.866	397.983	307.595	115.787	245.222	342.444	0.00043151	0.00020913	0.00016396	1138.4	9.7253e-06	5.2248e-06	1226.4	241.65	5.117e-06	5.0709e-06	301.33	84.301	67.127	19.979	6.2074e-06	26.944	0.0012734	0.0012818	0.00032661	1160.9	1.4338e-05	1.3831e-05	1254.9	255.98	1.4264e-05	1.3384e-05	324.02	93.807	76.801	23.323	1.2179e-05	31.881	176.546	405.425	353.267	92.039	243.178	344.938	92.080	99.621	223.708	298.215	99.105	105.674	105.846	112.799	270.781	113.061	-8191	255	
1417.898	1	1	0	0	0.15656	0.32335	0.15536	0.067802	0.17485	0.55663	0.029508	0.09014	0.16764	0.21378	0.26098	0.27362	0.088849	0.084222	0.15426	0.1785	-2.025	-2.4167	-1.8792	-2.5396	-2	-2.0208	-2.6479	-1.9729	-2.3042	-2.1292	-1.9229	-2.2354	-1.9021	-2.0396	-2.5125	-1.9646	255.452	370.510	256.270	373.691	408.108	191.414	286.654	315.822	401.389	336.961	385.460	135.574	217.012	218.710	182.888	423.391	0.00028749	0.001115	0.00024738	1138.1	5.76e-06	7.2595e-06	1225.9	242.28	1.0921e-05	2.1321e-06	301.39	84.401	66.638	19.915	4.7534e-06	27.265	0.0012755	0.0011876	0.00031344	1163.2	1.4559e-05	1.3222e-05	1253.4	257.59	1.4618e-05	1.306e-05	324.35	95.308	76.959	23.349	1.2414e-05	32.459	155.416	258.167	93.760	92.235	222.070	302.634	91.998	99.457	352.775	287.224	99.294	105.904	105.574	112.784	256.766	112.419	-8191	255	
1417.969	1	1	0	0	0.20017	0.14931	0.16279	0.3185	0.23705	0.21142	0.129	0.21135	0.19651	0.25475	0.17084	0.13466	0.20755	0.32638	0.35409	0.14059	-1.7854	-2.0563	-1.8479	-2.3854	-2.0833	-2.1021	-2.5167	-2.1958	-2.1292	-2.25	-2.1688	-2.2938	-2.1625	-1.9333	-2.3625	-2.0792	352.750	105.319	210.929	409.037	133.640	124.354	412.097	426.663	298.961	414.625	134.204	413.164	380.939	415.743	360.309	292.183	0.00021313	0.00052952	0.00043098	1132.1	4.8354e-06	6.5467e-07	1223.8	241.25	3.5294e-06	7.9378e-06	300.72	84.448	66.277	19.921	4.9928e-06	27.002	0.0012772	0.0011914	0.00031931	1170.1	1.4312e-05	1.3135e-05	1252	258.61	1.4091e-05	1.2657e-05	323.84	95.762	76.133	23.143	1.2297e-05	32.538	172.775	319.095	184.168	92.141	321.850	166.342	92.204	99.516	409.126	83.408	99.044	105.775	106.180	113.107	200.459	112.337	-8191	255	
1418.066	1	1	0	0	0.11345	0.14075	0.069075	0.15374	0.17091	0.022016	0.27173	0.42035	0.25479	0.062465	0.14817	0.085577	0.15477	0.16518	0.34803	0.06876	-1.7354	-2.3542	-1.8458	-2.4083	-2.2208	-1.8958	-2.5	-2.0563	-2.0771	-2.2875	-2	-2.2792	-2.2979	-2	-2.3417	-2.2125	358.075	398.683	211.222	343.185	344.781	202.390	440.693	174.751	158.884	342.273	436.394	368.035	96.698	169.663	414.728	368.309	0.00030196	0.00086769	0.00028504	1135.7	2.6008e-06	5.53e-06	1228.5	242.96	4.7341e-06	2.626e-06	300.01	84.617	66.175	19.85	1.2021e-05	27.208	0.0011877	0.0011275	0.00031804	1171.1	1.3201e-05	1.2452e-05	1255.1	259.3	1.3133e-05	1.2218e-05	323.96	95.819	75.269	23.06	1.2916e-05	32.462	155.540	192.605	185.116	92.020	307.534	327.498	92.172	99.491	313.573	396.086	99.398	105.577	106.079	113.092	228.700	112.631	-8191	255	
1418.186	1	1	0	0	0.27053	0.11789	0.33264	0.096517	0.040752	0.30804	0.13359	0.14017	0.1718	0.11271	0.12083	0.078152	0.38073	0.14134	0.070242	0.26891	-1.6917	-2.4062	-2.1229	-2.3771	-2.1479	-1.8687	-2.2521	-2.0687	-2.1375	-2.3354	-2.2583	-2.2708	-2.3083	-1.8646	-2.1229	-2.2146	139.998	292.990	200.000	174.258	189.680	397.612	337.892	294.930	179.904	304.123	315.528	196.944	380.682	384.153	343.735	108.542	0.00037513	0.00059774	0.0004778	1138	3.6873e-06	4.6858e-06	1228.2	242	2.7869e-06	2.5474e-06	300.65	84.105	66.36	19.825	5.2549e-06	27.038	0.0011338	0.0010796	0.00033412	1169.9	1.235e-05	1.1874e-05	1256.3	256.86	1.23e-05	1.1658e-05	325.81	94.702	74.579	22.807	1.3515e-05	32.135	176.283	335.699	151.854	92.258	133.967	319.814	92.112	99.583	392.583	206.844	99.527	105.659	105.982	113.377	249.121	112.741	-8191	255	
1418.282	1	1	0	0	0.32012	0.27045	0.21654	0.21161	0.18162	0.255	0.099305	0.10424	0.20801	0.18971	0.17113	0.18599	0.12429	0.26049	0.16698	0.082233	-1.4979	-2.3	-2.0521	-2.325	-2.4688	-1.8438	-2.5271	-2.0854	-1.975	-2.1979	-2.1312	-2.1333	-2.2833	-2.0917	-2.3479	-2.0938	155.078	191.404	240.113	410.675	352.750	111.116	418.626	341.467	300.895	195.597	330.179	131.119	426.302	377.270	440.015	362.044	0.00020341	0.00034845	0.00030371	1135.2	5.0732e-06	1.0431e-05	1228.7	240.58	2.7031e-06	1.7166e-05	299.1	84.14	66.318	19.77	2.1964e-06	27.095	0.0011036	0.0010787	0.00035514	1166.6	1.2404e-05	1.2347e-05	1264.2	256.99	1.2618e-05	1.2366e-05	329.14	94.824	74.81	23.062	1.4547e-05	31.967	156.839	206.657	115.532	92.138	436.257	211.161	92.071	99.347	194.456	169.204	99.037	105.659	105.961	113.275	343.236	112.761	-8191	255	
1418.379	1	1	0	0	0.42906	0.16515	0.19702	0.20404	0.12539	0.36321	0.25275	0.20663	0.1364	0.20772	0.030806	0.029141	0.33657	0.36929	0.30942	0.043139	-1.5042	-2.425	-1.9396	-2.2521	-2.275	-1.8021	-2.3958	-2.2479	-1.7917	-2.4354	-2.1583	-2.1	-2.5229	-2.025	-2.2562	-2.4938	295.191	112.152	124.520	88.046	370.052	188.544	429.878	421.445	182.284	370.330	327.776	378.102	167.269	97.779	228.680	266.612	0.00023242	0.00025303	0.00029909	1134.9	3.5389e-06	1.1247e-05	1225.3	240.69	9.1625e-06	4.8923e-06	301.48	84.78	66.555	19.791	5.03e-06	27.173	0.0011014	0.0011657	0.00036827	1164.3	1.1958e-05	1.2931e-05	1262.5	254.99	1.2082e-05	1.2898e-05	328.29	94.076	74.295	23.246	1.3999e-05	31.725	158.107	168.648	124.474	92.256	270.358	179.331	92.371	99.448	277.838	219.228	99.334	105.754	106.084	113.424	231.839	112.365	-8191	255	
1418.475	1	1	0	0	0.14845	0.22549	0.15049	0.0069621	0.16901	0.078167	0.16234	0.4364	0.14229	0.23882	0.15935	0.028982	0.25678	0.12876	0.24697	0.20239	-1.6979	-2.1958	-2.0479	-2	-2.5438	-1.8583	-2.1437	-2.1646	-2.0125	-2.4646	-2.0438	-1.9271	-2.4167	-2.0521	-2.0542	-2.175	380.965	100.711	145.763	166.336	103.709	167.866	90.390	390.450	173.992	142.492	85.581	439.459	408.126	122.916	306.122	87.153	0.00022208	0.00085491	0.00034476	1135.6	1.007e-05	4.779e-06	1226.4	240.45	7.6934e-06	1.0921e-05	299.54	84.738	66.967	19.81	3.5493e-06	26.91	0.0010616	0.0012335	0.00035606	1161.6	1.1885e-05	1.3808e-05	1262.4	254.54	1.2192e-05	1.4038e-05	326.75	94.01	74.834	23.611	1.3741e-05	31.578	155.455	150.880	310.604	92.087	215.076	286.548	92.339	99.349	216.166	206.803	99.255	105.650	105.928	112.994	402.990	112.704	-8191	255	
1418.569	1	1	0	0	0.16821	0.32508	0.10114	0.49263	0.10479	0.36976	0.15838	0.18391	0.063711	0.075573	0.28895	0.16626	0.1005	0.16739	0.072733	0.038078	-1.6896	-2.3271	-2.0792	-2.1167	-2.3937	-2.2083	-2.2375	-2.1708	-2.0042	-2.2583	-2.3583	-1.9708	-2.4708	-1.9667	-2.1917	-2.3875	418.539	250.382	243.107	366.571	101.276	421.652	434.356	86.830	440.476	264.642	83.888	441.729	169.914	108.935	350.531	126.317	0.00033893	0.00036456	0.00037418	1135.2	4.2008e-06	4.3923e-06	1229.6	241.12	1.2836e-05	2.2034e-06	300.03	83.843	67.063	19.816	4.1871e-06	27.068	0.0011101	0.0013102	0.00034438	1161.2	1.2568e-05	1.466e-05	1258.1	254.71	1.2954e-05	1.4707e-05	325.57	93.727	75.357	23.714	1.3187e-05	31.527	145.036	85.110	351.931	92.282	243.275	198.446	92.125	100.015	197.780	222.421	98.885	105.627	106.352	112.589	92.560	112.501	-8191	255	
1418.667	1	1	0	0	0.092089	0.09719	0.058861	0.3312	0.2555	0.16913	0.029327	0.26828	0.30691	0.18052	0.20265	0.10788	0.18366	0.26298	0.27867	0.32703	-1.4458	-2.2042	-2.1729	-1.9937	-2.3604	-2.0479	-2.0563	-2.3896	-1.9688	-2.3937	-2.2958	-1.8729	-2.3896	-1.9208	-1.9562	-2.3458	168.814	112.218	175.118	155.181	216.335	399.492	137.997	315.523	275.427	365.565	369.007	138.885	93.271	343.652	193.696	423.326	0.00036771	0.00025478	0.00021267	1135.1	9.9823e-06	9.0309e-06	1220.4	240.9	1.0535e-05	3.5195e-06	301.44	83.946	66.75	19.771	2.5882e-06	27.28	0.0011739	0.0013171	0.0003253	1159	1.3212e-05	1.4168e-05	1254.1	253.87	1.3421e-05	1.3846e-05	322.79	92.832	75.758	23.375	1.2406e-05	31.316	152.667	351.006	200.286	92.241	217.195	269.447	92.039	99.558	196.839	194.697	99.521	105.691	106.006	113.048	325.844	112.243	-8191	255	
1418.786	1	1	0	0	0.043824	0.14324	0.11112	0.2466	0.014631	0.17669	0.11945	0.17171	0.16613	0.20799	0.26982	0.072194	0.1277	0.32984	0.077734	0.20844	-1.6417	-2.1562	-2.275	-2.025	-2.2792	-2.1146	-2.3083	-2.4188	-2.1146	-2.225	-2.4729	-2.0979	-2.1521	-1.9792	-1.9042	-2.4146	412.423	120.594	373.986	419.011	185.243	362.925	358.539	279.107	99.489	197.988	130.031	348.600	316.040	287.002	141.272	250.931	0.00033884	0.0002884	0.00029809	1131.2	1.0957e-05	5.7342e-06	1221.5	241.21	5.551e-06	2.4511e-06	300.79	83.478	66.599	19.69	4.2641e-06	26.969	0.0012041	0.0012273	0.00030713	1156.7	1.3605e-05	1.3233e-05	1251.9	253.66	1.3877e-05	1.3137e-05	321.05	93.084	76.265	23.12	1.2138e-05	31.553	159.548	322.802	336.865	92.122	202.288	382.317	92.058	99.642	214.109	354.582	99.284	106.014	106.261	113.097	389.429	112.600	-8191	255	
1418.882	1	1	0	0	0.16326	0.03351	0.1622	0.24788	0.051387	0.10409	0.37356	0.27386	0.19667	0.17001	0.080126	0.20621	0.15558	0.16376	0.18526	0.12331	-1.625	-1.9917	-2.275	-2.1458	-2.3	-2.2875	-2.1208	-2.3917	-1.9	-2.1604	-2.7104	-1.9333	-2.1375	-2.2292	-1.9792	-2.2938	196.049	421.761	142.550	119.067	250.103	238.186	328.630	402.071	150.226	105.212	177.544	423.318	369.501	410.929	384.279	437.135	0.00033108	0.00061807	0.00016578	1134.8	2.206e-06	5.171e-06	1221.8	241.82	3.8208e-06	2.8179e-06	300.46	84.377	66.189	19.679	8.1696e-06	27.161	0.0012613	0.0011897	0.00030634	1162.5	1.42e-05	1.2834e-05	1249.2	255.16	1.3995e-05	1.2718e-05	320.29	94.317	75.955	22.942	1.1787e-05	31.896	161.389	296.394	221.660	92.345	188.534	319.744	92.190	99.387	247.994	310.485	99.350	105.582	106.003	113.147	149.490	112.508	-8191	255	
1418.978	1	1	0	0	0.18925	0.088776	0.22194	0.18287	0.09621	0.27209	0.33501	0.0511	0.11525	0.026835	0.21375	0.13714	0.1914	0.32079	0.15699	0.20567	-1.7687	-1.9333	-2.3167	-2.0938	-2.2958	-2.1896	-1.95	-2.3208	-2.0792	-2.0771	-2.5729	-1.9937	-2.2458	-2.3792	-2.1854	-2.4354	195.225	278.470	151.737	414.798	353.503	193.305	402.154	422.159	293.753	256.445	389.215	84.244	362.183	346.023	109.021	303.482	0.0003072	0.00067817	0.00019742	1136.9	6.3467e-06	5.607e-06	1226.5	240.22	2.6597e-06	9.6029e-06	299.22	83.831	65.858	19.789	8.1883e-06	27.218	0.0012144	0.0011361	0.00029968	1166	1.3727e-05	1.2509e-05	1249.6	256.55	1.3644e-05	1.2537e-05	320.74	95.103	75.691	22.985	1.2322e-05	32.343	139.715	108.094	213.977	92.168	304.038	383.729	91.948	99.672	268.192	327.101	99.256	106.063	106.216	112.995	104.528	112.742	-8191	255	
1419.074	1	1	0	0	0.14376	0.22989	0.021777	0.13839	0.17089	0.19738	0.154	0.16469	0.32277	0.14953	0.21673	0.20833	0.087131	0.19524	0.10369	0.16848	-1.7437	-2.0375	-2.3521	-2.2646	-2.2438	-2.3958	-2.1458	-2.3917	-2.375	-1.9833	-2.525	-2.2313	-2.0958	-2.3604	-1.8979	-2.3833	389.417	391.158	132.814	157.470	178.934	440.836	325.023	320.576	395.730	129.672	368.470	382.557	298.730	92.856	415.782	306.049	0.00010765	0.00092741	0.00019162	1128.8	6.7143e-06	1.6702e-06	1223.1	240.4	2.9287e-06	2.4814e-06	299.58	83.609	66.028	19.5	6.5856e-06	26.815	0.0012007	0.0011352	0.0003119	1169.7	1.3323e-05	1.2221e-05	1252.1	257.46	1.2985e-05	1.2382e-05	322.33	95.041	74.991	22.786	1.2877e-05	32.311	102.122	383.938	143.182	92.150	285.858	395.193	92.028	99.557	321.753	309.669	99.324	105.842	106.240	113.254	206.291	112.525	-8191	255	
