BOXY.EXE: ISS Imagent and Oximeter Data Acquisition Program Version 0.80
Ascii Record File

#ACQ INFORMATION
2  Detector Channels 
16  External MUX Channels 
1  Auxiliary Channels 
5000  Waveform (CCF) Frequency (Hz)
1  Waveforms Skipped 
30  Waveforms Averaged 
1  Cycles Averaged 
16  Acquisitions per Waveform 
10.0806  Updata Rate (Hz) 

#FILE INFORMATION
TRUE -- External MUX Channel results are PARSED.
FALSE -- AC DC and Phase are NOT grouped.
TRUE -- Companion Program Settings File CREATED.
FALSE -- AC data not excluded
FALSE -- DC data not excluded
FALSE -- Phase data not excluded
FALSE -- Auxillary Chn. data not excluded
Tab delimiters

#CALIBRATION STATE
TRUE -- Waveform Calibration Values APPLIED.


#AUX CALIBRATION VALUES
Val Type	aux-1	

Term	1.0000e+00	
Factor	0.0000e+00	


#WF CALIBRATION VALUES
A = Detector Channel
Val Type	A-AC1	A-AC2	A-AC3	A-AC4	A-AC5	A-AC6	A-AC7	A-AC8	A-AC9	A-AC10	A-AC11	A-AC12	A-AC13	A-AC14	A-AC15	A-AC16	A-DC1	A-DC2	A-DC3	A-DC4	A-DC5	A-DC6	A-DC7	A-DC8	A-DC9	A-DC10	A-DC11	A-DC12	A-DC13	A-DC14	A-DC15	A-DC16	A-Ph1	A-Ph2	A-Ph3	A-Ph4	A-Ph5	A-Ph6	A-Ph7	A-Ph8	A-Ph9	A-Ph10	A-Ph11	A-Ph12	A-Ph13	A-Ph14	A-Ph15	A-Ph16	

Term	0.00000e+00	0.00000e+00	0.00000e+00	0.00000e+00	0.00000e+00	0.00000e+00	0.00000e+00	0.00000e+00	0.00000e+00	0.00000e+00	0.00000e+00	0.00000e+00	0.00000e+00	0.00000e+00	0.00000e+00	0.00000e+00	0.00000e+00	0.00000e+00	0.00000e+00	0.00000e+00	0.00000e+00	0.00000e+00	0.00000e+00	0.00000e+00	0.00000e+00	0.00000e+00	0.00000e+00	0.00000e+00	0.00000e+00	0.00000e+00	0.00000e+00	0.00000e+00	0.00000e+00	0.00000e+00	0.00000e+00	0.00000e+00	0.00000e+00	0.00000e+00	0.00000e+00	0.00000e+00	0.00000e+00	0.00000e+00	0.00000e+00	0.00000e+00	0.00000e+00	0.00000e+00	0.00000e+00	0.00000e+00	
Factor	1.00000e+00	1.00000e+00	1.00000e+00	1.00000e+00	1.00000e+00	1.00000e+00	1.00000e+00	1.00000e+00	1.00000e+00	1.00000e+00	1.00000e+00	1.00000e+00	1.00000e+00	1.00000e+00	1.00000e+00	1.00000e+00	1.00000e+00	1.00000e+00	1.00000e+00	1.00000e+00	1.00000e+00	1.00000e+00	1.00000e+00	1.00000e+00	1.00000e+00	1.00000e+00	1.00000e+00	1.00000e+00	1.00000e+00	1.00000e+00	1.00000e+00	1.00000e+00	X	X	X	X	X	X	X	X	X	X	X	X	X	X	X	X	

B = Detector Channel
Val Type	B-AC1	B-AC2	B-AC3	B-AC4	B-AC5	B-AC6	B-AC7	B-AC8	B-AC9	B-AC10	B-AC11	B-AC12	B-AC13	B-AC14	B-AC15	B-AC16	B-DC1	B-DC2	B-DC3	B-DC4	B-DC5	B-DC6	B-DC7	B-DC8	B-DC9	B-DC10	B-DC11	B-DC12	B-DC13	B-DC14	B-DC15	B-DC16	B-Ph1	B-Ph2	B-Ph3	B-Ph4	B-Ph5	B-Ph6	B-Ph7	B-Ph8	B-Ph9	B-Ph10	B-Ph11	B-Ph12	B-Ph13	B-Ph14	B-Ph15	B-Ph16	

Term	0.00000e+00	0.00000e+00	0.00000e+00	0.00000e+00	0.00000e+00	0.00000e+00	0.00000e+00	0.00000e+00	0.00000e+00	0.00000e+00	0.00000e+00	0.00000e+00	0.00000e+00	0.00000e+00	0.00000e+00	0.00000e+00	0.00000e+00	0.00000e+00	0.00000e+00	0.00000e+00	0.00000e+00	0.00000e+00	0.00000e+00	0.00000e+00	0.00000e+00	0.00000e+00	0.00000e+00	0.00000e+00	0.00000e+00	0.00000e+00	0.00000e+00	0.00000e+00	-1.60165e+02	-1.56046e+02	-1.61601e+02	-1.84043e+02	-1.15639e+02	-8.35182e+01	-1.55479e+02	-1.62015e+02	-1.02200e+02	-1.19732e+02	-1.85372e+02	-1.70396e+02	-1.86982e+02	-1.76531e+02	-6.46452e+01	-1.49226e+02	
Factor	2.80052e-05	7.83278e-05	3.39611e-05	2.47397e-01	8.53685e-07	8.94540e-07	1.74294e-01	5.63954e-02	8.49358e-07	1.01448e-06	2.25253e-01	3.31667e-02	6.79303e-02	9.94483e-03	1.03214e-06	1.41766e-02	3.98363e-07	4.02558e-07	1.11943e-07	1.12903e-01	4.40606e-09	4.40072e-09	7.81490e-02	2.63565e-02	4.40888e-09	4.39813e-09	8.24592e-02	1.43961e-02	2.55369e-02	4.44917e-03	4.40686e-09	6.06539e-03	X	X	X	X	X	X	X	X	X	X	X	X	X	X	X	X	



#DISTANCE SETTINGS
A = Detector Channel
A-1	A-2	A-3	A-4	A-5	A-6	A-7	A-8	A-9	A-10	A-11	A-12	A-13	A-14	A-15	A-16	

2.5000e+00	3.0000e+00	2.5000e+00	3.0000e+00	2.0000e+00	3.0000e+00	1.5000e+00	3.0000e+00	3.0000e+00	3.0000e+00	3.0000e+00	3.0000e+00	3.0000e+00	3.0000e+00	1.5000e+00	3.0000e+00	

B = Detector Channel
B-1	B-2	B-3	B-4	B-5	B-6	B-7	B-8	B-9	B-10	B-11	B-12	B-13	B-14	B-15	B-16	

1.0000e+01	1.0000e+01	1.0000e+01	1.4400e+00	1.0000e+01	1.0000e+01	1.5100e+00	1.9400e+00	1.0000e+01	1.0000e+01	1.9900e+00	2.4900e+00	2.4100e+00	2.9000e+00	1.0000e+01	2.9800e+00	




#DATA BEGINS
time	group	step	mark	flag	A-AC1	A-AC2	A-AC3	A-AC4	A-AC5	A-AC6	A-AC7	A-AC8	A-AC9	A-AC10	A-AC11	A-AC12	A-AC13	A-AC14	A-AC15	A-AC16	A-DC1	A-DC2	A-DC3	A-DC4	A-DC5	A-DC6	A-DC7	A-DC8	A-DC9	A-DC10	A-DC11	A-DC12	A-DC13	A-DC14	A-DC15	A-DC16	A-Ph1	A-Ph2	A-Ph3	A-Ph4	A-Ph5	A-Ph6	A-Ph7	A-Ph8	A-Ph9	A-Ph10	A-Ph11	A-Ph12	A-Ph13	A-Ph14	A-Ph15	A-Ph16	B-AC1	B-AC2	B-AC3	B-AC4	B-AC5	B-AC6	B-AC7	B-AC8	B-AC9	B-AC10	B-AC11	B-AC12	B-AC13	B-AC14	B-AC15	B-AC16	B-DC1	B-DC2	B-DC3	B-DC4	B-DC5	B-DC6	B-DC7	B-DC8	B-DC9	B-DC10	B-DC11	B-DC12	B-DC13	B-DC14	B-DC15	B-DC16	B-Ph1	B-Ph2	B-Ph3	B-Ph4	B-Ph5	B-Ph6	B-Ph7	B-Ph8	B-Ph9	B-Ph10	B-Ph11	B-Ph12	B-Ph13	B-Ph14	B-Ph15	B-Ph16	aux-1	digaux	

18976.400	1	1	0	256	0.19798	0.27165	0.10767	0.24311	0.18709	0.081795	0.056536	0.085639	0.22933	0.15522	0.22383	0.13451	0.13809	0.17952	0.093822	0.084519	-1.0146	-1.9229	-1.5875	-1.6187	-1.7896	-1.6083	-1.9312	-1.8896	-1.4979	-1.9458	-1.5708	-1.5875	-1.9521	-1.5542	-1.7792	-1.8917	286.314	154.259	381.682	372.801	178.747	243.530	179.577	443.915	121.623	243.732	98.158	99.185	440.476	417.030	116.436	126.582	0.00040879	0.00027401	8.2585e-05	1101.8	1.9782e-06	3.6851e-06	1199.8	224.91	3.2587e-06	3.2503e-06	287.33	80.439	63.269	18.112	4.3262e-06	25.05	7.7656e-05	7.3947e-05	2.0635e-05	987.56	8.2111e-07	8.1191e-07	1110.6	207.5	8.2161e-07	8.1868e-07	226.13	71.929	50.108	16.585	8.2165e-07	22.621	146.261	199.724	99.765	101.902	194.226	240.324	101.846	109.329	221.903	103.151	108.809	115.547	115.401	122.791	290.365	122.748	-8191	255	
18976.473	1	1	0	0	0.30397	0.12705	0.34764	0.020226	0.06336	0.12682	0.25531	0.17887	0.032528	0.3026	0.011043	0.036184	0.15793	0.23908	0.25566	0.2777	-1.0979	-1.7979	-1.7458	-1.6958	-1.9625	-1.3333	-1.8937	-1.8146	-1.2979	-1.6771	-1.9521	-1.35	-2.0229	-1.6021	-1.6479	-1.9729	162.439	333.314	244.726	241.308	378.415	361.129	349.945	135.791	198.053	340.747	397.294	123.742	319.985	412.170	281.824	408.571	0.00036961	0.00010926	0.0001077	1114.2	1.4449e-06	1.1437e-06	1206.4	226.67	2.3831e-06	3.1805e-06	288.11	80.099	63.453	18.3	9.3562e-07	25.046	7.8572e-05	7.5937e-05	2.1099e-05	992.81	8.3825e-07	8.3788e-07	1115.8	208.37	8.3767e-07	8.3373e-07	226.82	71.915	50.223	16.634	8.3985e-07	22.706	140.171	189.093	140.875	101.798	255.943	275.036	101.749	109.444	171.888	147.424	109.212	115.490	115.648	123.305	297.849	122.513	-8191	255	
18976.594	1	1	0	0	0.035501	0.26994	0.083974	0.082026	0.33377	0.085698	0.14797	0.24242	0.27555	0.22746	0.13753	0.2111	0.21473	0.20842	0.062327	0.16329	-0.94167	-1.9104	-2.0021	-1.5312	-2.0458	-1.6771	-1.7646	-1.8958	-1.3896	-1.7021	-1.8563	-1.5125	-1.9396	-1.7354	-1.5979	-2.0938	404.759	243.683	259.334	120.524	417.110	170.178	447.891	398.753	422.633	231.321	100.843	381.244	345.407	98.153	263.784	334.968	0.00030115	0.00016455	0.00010843	1118.5	2.1013e-06	2.1476e-06	1215.1	227.42	1.9588e-06	1.4073e-06	289.86	80.634	63.901	18.082	2.6958e-06	25.226	8.1146e-05	7.8348e-05	2.2281e-05	998.7	8.8925e-07	8.9024e-07	1122.1	209.64	9.0511e-07	8.9016e-07	228.53	72.569	50.947	16.704	9.2181e-07	22.874	131.322	309.623	240.717	101.841	182.679	271.286	101.855	109.422	179.207	441.028	108.806	115.924	115.089	123.198	190.372	122.818	-8191	255	
18976.689	1	1	0	0	0.28215	0.21728	0.21239	0.20228	0.10212	0.15413	0.05549	0.13715	0.091213	0.1314	0.19153	0.37405	0.086624	0.19812	0.21731	0.13214	-1.1354	-1.7896	-1.5896	-1.5688	-1.7938	-1.6938	-1.7	-1.9271	-1.5562	-1.6208	-1.6771	-1.3917	-1.7083	-1.7563	-1.5812	-1.8667	114.909	250.565	358.976	422.467	396.523	197.612	340.337	287.334	440.426	186.896	377.491	130.851	201.156	187.999	443.486	319.157	0.00027189	0.00013588	5.9433e-05	1117.6	2.4436e-06	3.1605e-06	1213.5	227.37	2.4446e-06	4.1127e-06	288.2	80.775	64.095	18.179	3.3218e-06	25.054	8.6854e-05	8.4303e-05	2.3576e-05	1003.7	9.257e-07	9.2667e-07	1122.3	209.75	9.3608e-07	9.3228e-07	228.74	72.781	51.162	16.739	9.5427e-07	22.95	151.505	247.960	132.293	101.762	91.571	250.905	101.771	109.482	293.657	222.714	109.283	115.475	115.242	122.927	146.721	122.313	-8191	255	
18976.785	1	1	0	0	0.10756	0.15132	0.29461	0.31656	0.14915	0.11384	0.18159	0.25175	0.23783	0.44018	0.099902	0.22579	0.014397	0.10404	0.10143	0.25407	-1.2917	-1.65	-2.0167	-1.5521	-1.9167	-1.675	-1.4979	-2.0104	-1.6437	-1.7458	-1.9354	-1.5583	-1.8813	-1.7854	-1.4708	-1.8875	300.324	336.885	147.568	382.681	107.784	332.236	351.846	405.782	263.207	254.099	380.527	367.402	344.252	359.504	341.187	291.133	0.00038061	4.113e-05	5.8709e-05	1114.7	2.9433e-06	1.1428e-06	1213.8	228.57	1.8298e-06	2.1855e-06	286.09	81.163	63.94	18.317	1.702e-06	25.138	9.0613e-05	8.5637e-05	2.4377e-05	1002.2	9.5932e-07	9.5535e-07	1124	210.6	9.7042e-07	9.5773e-07	229.9	72.83	51.001	16.815	9.7419e-07	22.937	149.381	115.316	137.117	101.953	246.550	184.588	101.829	109.215	263.565	202.347	109.557	115.346	116.029	123.260	195.495	122.621	-8191	255	
18976.904	1	1	0	0	0.19291	0.033107	0.23686	0.2037	0.14553	0.017612	0.086072	0.30366	0.11558	0.10745	0.10863	0.21696	0.039125	0.25437	0.02856	0.20844	-1.1292	-1.275	-1.9521	-1.5708	-1.8375	-1.9271	-1.5146	-1.9271	-1.5542	-1.3479	-1.8875	-1.2896	-1.8375	-1.8	-1.4292	-2.0354	231.542	390.409	176.225	340.077	163.091	155.769	350.400	378.960	200.532	204.235	228.710	381.545	284.401	340.819	433.112	127.972	0.00036144	0.00020363	7.5397e-05	1126.9	4.1597e-06	2.1415e-06	1215.3	228.47	1.584e-06	1.7608e-06	291.73	80.597	63.937	18.3	4.9842e-07	25.213	9.1707e-05	8.9528e-05	2.4723e-05	1005	9.9051e-07	9.7799e-07	1125.3	210.86	9.9187e-07	9.8162e-07	230.96	72.803	51.649	16.849	1.0299e-06	23.075	145.660	178.739	177.448	101.741	187.898	424.296	101.746	109.202	156.497	240.020	108.763	115.361	115.476	122.801	250.150	122.862	-8191	255	
18977.002	1	1	0	0	0.12707	0.12853	0.41697	0.12879	0.10054	0.24327	0.37744	0.19073	0.13022	0.063519	0.082742	0.039986	0.28093	0.27142	0.23252	0.023437	-1.3667	-1.4833	-1.9833	-1.5875	-1.625	-1.9625	-1.4292	-1.9333	-2.0333	-1.5229	-2.1125	-1.6771	-1.7021	-1.9396	-1.5667	-1.8104	437.498	316.806	131.891	355.223	306.868	267.595	341.422	336.085	215.248	120.994	343.701	439.693	445.148	421.399	299.292	319.934	0.00042518	0.00026957	0.00011783	1114.3	1.7824e-06	1.2015e-06	1217.1	228.9	2.6615e-06	2.0667e-06	290.9	80.434	64.193	18.472	2.792e-06	25.438	9.7141e-05	9.5775e-05	2.6812e-05	1005.1	1.065e-06	1.0832e-06	1127.7	211.88	1.0885e-06	1.0666e-06	232.75	73.35	52.054	16.997	1.0574e-06	23.137	152.047	409.414	163.120	101.963	204.902	159.054	101.655	109.029	245.980	235.201	109.903	115.381	115.773	122.796	239.223	122.784	-8191	255	
18977.098	1	1	0	0	0.24007	0.24805	0.24887	0.13957	0.26014	0.32152	0.048042	0.11972	0.076625	0.33394	0.16182	0.090896	0.21228	0.35871	0.216	0.17858	-1.3813	-1.4062	-1.9854	-1.5417	-1.7292	-1.8604	-1.7146	-1.9979	-1.7583	-1.5271	-2.0521	-1.8438	-1.5167	-2.0146	-1.5521	-1.7958	141.252	365.088	383.348	128.405	336.913	105.541	316.966	397.229	208.037	159.194	147.793	331.450	94.363	438.847	360.692	364.633	0.00045417	0.00012787	0.00012291	1123.2	1.4347e-06	1.983e-06	1218	229.62	1.8544e-06	3.5842e-06	291.64	80.718	64.792	18.334	1.3434e-06	25.48	9.8239e-05	9.5428e-05	2.6365e-05	1007.7	1.0583e-06	1.0602e-06	1129.1	212.74	1.0765e-06	1.0731e-06	233.16	73.409	52.19	17.028	1.1022e-06	23.227	145.553	129.986	421.810	101.470	403.903	395.228	101.898	109.183	216.775	305.010	108.927	115.635	116.282	122.928	177.254	122.599	-8191	255	
18977.168	1	1	0	0	0.15085	0.26405	0.16023	0.20146	0.15612	0.12507	0.63975	0.085686	0.18283	0.30344	0.18291	0.20879	0.14379	0.17245	0.22771	0.33691	-1.4979	-1.4771	-1.775	-1.5938	-1.5688	-1.8917	-1.6083	-1.7042	-1.7917	-1.4292	-1.8417	-1.7083	-1.4542	-2.0667	-1.6	-1.6792	204.498	153.033	110.001	415.764	285.792	220.921	411.329	282.392	232.804	168.005	345.859	417.329	294.818	367.444	335.643	416.489	0.00038875	0.00013833	0.0001556	1123	1.1194e-06	4.3552e-06	1222.1	231.48	1.2744e-06	2.4589e-06	292.16	80.745	64.562	18.284	4.3019e-06	25.263	0.0001034	0.00010043	2.7843e-05	1013.6	1.089e-06	1.0781e-06	1136.5	214.46	1.0527e-06	1.0267e-06	233.14	73.402	51.944	16.953	1.019e-06	23.135	139.924	447.378	236.238	101.904	185.615	214.574	101.796	109.275	314.396	131.294	108.285	115.587	115.781	122.885	205.689	122.157	-8191	255	
18977.289	1	1	0	0	0.19911	0.2075	0.096877	0.16086	0.12193	0.10511	0.16005	0.11399	0.052039	0.070276	0.20049	0.31263	0.23659	0.12245	0.32849	0.22654	-1.5187	-1.3896	-1.8208	-1.8563	-1.5646	-1.925	-1.7104	-1.6667	-1.9375	-1.3458	-1.9583	-1.8021	-1.4917	-2.0938	-1.5938	-1.6958	278.650	294.141	237.250	446.512	216.383	188.828	358.711	343.492	147.378	116.630	107.944	388.083	147.726	108.772	397.646	409.757	0.00038252	0.00016816	0.00016329	1122	9.7485e-07	2.5285e-06	1223.4	229.69	2.8066e-06	1.1047e-06	293.68	80.924	64.684	18.103	1.7817e-06	25.05	9.3539e-05	9.0538e-05	2.5197e-05	1009.5	9.7606e-07	9.5481e-07	1132	212.22	9.165e-07	8.8607e-07	230.62	72.754	50.919	16.629	8.3505e-07	22.623	151.018	300.076	427.450	102.002	214.910	217.082	101.823	109.246	208.317	265.702	108.491	115.294	115.375	122.921	191.861	122.501	-8191	255	
18977.385	1	1	0	0	0.25765	0.25051	0.025341	0.1573	0.15495	0.053547	0.1409	0.22186	0.13783	0.20748	0.06367	0.086887	0.060628	0.26559	0.28551	0.042835	-1.6562	-1.3813	-1.8188	-1.8646	-1.5125	-2.0375	-1.8042	-1.7042	-2.0208	-1.6063	-1.5938	-1.7	-1.5063	-1.9312	-1.6812	-1.7604	382.050	106.016	384.920	375.180	417.408	294.089	281.117	93.140	410.613	394.310	406.299	445.059	236.385	412.006	394.394	284.142	0.00035916	0.00021065	0.000173	1115	3.1158e-06	3.9488e-06	1220	228.3	1.8083e-06	1.6172e-06	289.79	80.601	63.638	18.172	1.3473e-06	25.12	7.7465e-05	7.2069e-05	1.9936e-05	997.26	7.9568e-07	7.6701e-07	1121.8	209.71	7.5729e-07	7.5533e-07	226.08	71.791	49.821	16.427	7.5816e-07	22.471	135.687	119.489	157.410	101.582	186.789	258.387	101.730	109.242	204.963	229.947	109.221	115.693	115.373	123.496	332.453	122.830	-8191	255	
18977.480	1	1	0	0	0.22506	0.050318	0.29541	0.33562	0.23796	0.2271	0.13511	0.19647	0.32135	0.245	0.15962	0.17594	0.048774	0.18295	0.12897	0.20885	-1.6292	-1.5104	-1.7229	-1.7396	-1.3937	-2.1375	-1.9792	-1.5187	-1.9167	-1.5229	-1.6833	-1.975	-1.3917	-2.0021	-1.8458	-1.5729	135.817	432.464	388.493	447.859	261.200	437.025	286.899	450.180	440.798	113.196	131.411	419.245	111.279	385.215	402.539	150.679	0.00034716	9.2184e-05	2.9412e-05	1112.8	1.8729e-06	2.2959e-06	1212	227.94	2.4231e-06	2.7294e-06	290.61	80.605	63.968	18.112	3.1995e-06	24.86	7.1121e-05	6.8696e-05	1.9194e-05	994.76	7.844e-07	7.8509e-07	1119.5	209.68	8.4178e-07	8.4517e-07	228.32	72.193	50.678	16.643	8.7772e-07	22.74	139.320	274.983	344.521	101.663	240.703	203.854	101.890	109.003	251.824	186.795	108.370	115.691	115.660	122.772	145.865	122.177	-8191	255	
18977.576	1	1	0	0	0.095449	0.16876	0.14003	0.077812	0.092637	0.17431	0.33552	0.12095	0.081957	0.19489	0.22247	0.14768	0.10285	0.2263	0.18006	0.041324	-1.6625	-1.575	-1.7771	-1.9813	-1.7104	-1.8937	-1.8667	-1.4833	-1.9125	-1.675	-1.775	-1.8937	-1.6542	-1.8583	-1.7042	-1.4937	109.511	100.716	254.892	376.071	439.947	218.395	412.598	364.648	313.584	270.419	363.597	406.823	334.333	147.743	158.598	119.121	0.00033904	0.00033384	0.00019117	1123.8	7.7166e-07	2.7466e-06	1217.4	230.52	4.4661e-06	7.9199e-07	289.31	80.29	63.88	18.126	1.436e-06	25.112	8.5114e-05	8.371e-05	2.3142e-05	1004.4	9.3841e-07	9.116e-07	1128.6	212.23	9.3148e-07	9.2314e-07	230.58	72.543	50.787	16.659	8.8536e-07	22.764	137.488	107.556	152.105	102.010	105.204	221.785	101.925	109.254	181.525	261.912	108.688	115.857	115.914	122.571	187.717	122.622	-8191	255	
18977.695	1	1	0	0	0.068018	0.29306	0.056733	0.12442	0.34819	0.079259	0.23859	0.20704	0.24113	0.22875	0.067836	0.16713	0.085306	0.28907	0.11602	0.20828	-1.4667	-1.4062	-1.3813	-1.9354	-1.5646	-1.6792	-2.0958	-1.4083	-1.9146	-1.6979	-1.475	-1.8521	-1.5354	-1.9354	-1.9958	-1.4583	355.703	352.512	401.757	396.836	385.473	262.235	434.342	129.804	390.456	227.414	152.760	382.686	299.257	450.948	315.712	405.714	0.00029991	0.00010855	4.7486e-05	1122.2	3.2314e-06	1.8005e-06	1221.8	230.07	1.7851e-06	4.3471e-06	289.94	79.998	64.172	17.878	3.3972e-06	25.009	8.2108e-05	7.877e-05	2.1707e-05	1002.3	8.3887e-07	8.2972e-07	1125.7	210.98	8.2671e-07	8.2439e-07	227.95	71.991	50.535	16.477	8.3375e-07	22.584	134.766	438.552	392.973	101.612	198.535	208.272	101.813	109.092	276.356	157.258	109.377	115.833	115.394	122.976	264.224	122.503	-8191	255	
18977.770	1	1	0	0	0.21438	0.17308	0.094773	0.28177	0.15353	0.18994	0.25381	0.20416	0.12692	0.10889	0.04183	0.11822	0.21111	0.083024	0.077232	0.15925	-1.4312	-1.7	-1.6542	-1.9417	-1.6354	-1.975	-2.1729	-1.4354	-1.9708	-1.7229	-1.6542	-1.9417	-1.4479	-1.625	-1.9562	-1.3833	392.962	216.731	283.630	126.355	423.973	266.100	101.618	311.802	398.266	421.291	294.332	366.457	128.796	243.531	157.612	201.551	0.00038149	2.8843e-05	0.00010633	1113.3	9.1262e-07	1.9821e-06	1217.9	228.76	8.1583e-07	3.7832e-06	291.84	81.14	64.179	17.989	2.2582e-06	25.344	7.9919e-05	7.6442e-05	2.1624e-05	1000	8.6109e-07	8.5073e-07	1123.6	210.7	8.7714e-07	8.6986e-07	229.26	72.541	50.775	16.517	8.7637e-07	22.785	138.351	119.019	215.392	101.873	181.525	186.246	101.784	109.589	445.088	131.798	109.282	115.827	115.510	122.888	255.916	122.472	-8191	255	
18977.865	1	1	0	0	0.13173	0.28306	0.096061	0.21986	0.12768	0.13345	0.28056	0.087879	0.2902	0.19939	0.20087	0.051098	0.084517	0.31955	0.047624	0.072175	-1.4354	-1.6625	-1.5667	-1.9458	-1.5396	-1.7396	-2.0438	-1.5229	-1.8958	-1.5938	-1.475	-1.9646	-1.5542	-1.7208	-1.9146	-1.5083	410.550	255.612	288.032	103.761	99.076	131.786	356.255	376.951	165.340	149.060	423.172	398.322	368.319	324.605	213.232	158.316	0.0003478	0.0001822	9.1453e-05	1119.8	3.1496e-06	1.8761e-06	1216.9	229.51	2.912e-06	6.9497e-07	292.97	80.133	63.684	17.919	2.5148e-06	24.875	8.3202e-05	7.9383e-05	2.2146e-05	1001.9	8.599e-07	8.4233e-07	1124.9	210.62	8.288e-07	8.1667e-07	227.71	71.846	50.069	16.372	8.0117e-07	22.486	146.542	272.110	155.494	101.955	194.640	270.598	101.944	109.429	266.328	345.653	109.059	115.903	115.677	123.233	135.100	122.793	-8191	255	
18977.984	1	1	0	0	0.37052	0.10592	0.089052	0.17247	0.18034	0.06874	0.25546	0.19291	0.12409	0.1619	0.12905	0.24401	0.21041	0.066871	0.13198	0.12501	-1.4729	-1.7958	-1.3625	-1.8271	-1.8417	-1.5979	-2.0979	-1.6125	-1.7687	-1.9208	-1.3854	-1.9438	-1.7125	-1.525	-1.8208	-1.5292	242.098	444.430	297.357	113.335	432.379	206.787	329.114	165.067	424.025	413.030	102.472	282.632	123.930	274.355	237.555	431.599	0.00035694	0.00027744	6.7191e-05	1118.1	3.9098e-06	2.6697e-06	1213.2	228.02	2.7387e-06	2.3608e-06	289.04	79.929	63.585	17.893	3.8047e-06	24.817	7.4276e-05	7.3189e-05	2.0246e-05	995.18	8.0353e-07	7.9628e-07	1121.1	209.43	8.1206e-07	8.0687e-07	227.07	71.686	49.941	16.366	8.008e-07	22.438	142.654	169.105	142.012	101.878	206.213	424.480	101.652	109.180	175.515	160.962	109.313	115.416	116.072	123.216	285.840	122.727	-8191	255	
18978.080	1	1	0	0	0.028786	0.19325	0.12589	0.30755	0.091382	0.18406	0.2892	0.15887	0.10631	0.2005	0.31301	0.13025	0.0087682	0.092288	0.17102	0.066254	-1.3021	-1.9396	-1.4896	-1.9479	-1.6063	-1.5208	-2.2021	-1.6354	-1.6854	-1.8792	-1.3563	-1.9646	-1.75	-1.3375	-1.9771	-1.6542	312.868	327.860	387.042	346.013	427.668	410.353	313.044	146.826	165.230	206.042	394.754	405.851	343.521	126.403	353.458	321.950	0.00040864	0.0002517	0.00015565	1113.1	1.4878e-06	2.4159e-06	1213.2	228.46	6.8988e-07	1.2207e-06	290.64	79.687	62.952	17.838	2.4766e-06	24.729	7.5184e-05	7.2908e-05	1.9618e-05	995.73	7.8758e-07	7.6156e-07	1118.8	208.58	7.4444e-07	7.3545e-07	225.1	71.226	49.428	16.189	7.2829e-07	22.218	144.891	95.820	116.664	101.883	99.899	374.212	101.643	109.429	222.422	170.997	108.885	115.575	115.563	123.291	279.551	122.298	-8191	255	
