BOXY.EXE: ISS Imagent and Oximeter Data Acquisition Program Version 0.80
Ascii Record File

#ACQ INFORMATION
2  Detector Channels 
16  External MUX Channels 
1  Auxiliary Channels 
5000  Waveform (CCF) Frequency (Hz)
1  Waveforms Skipped 
30  Waveforms Averaged 
1  Cycles Averaged 
16  Acquisitions per Waveform 
10.0806  Updata Rate (Hz) 

#FILE INFORMATION
TRUE -- External MUX Channel results are PARSED.
FALSE -- AC DC and Phase are NOT grouped.
TRUE -- Companion Program Settings File CREATED.
FALSE -- AC data not excluded
FALSE -- DC data not excluded
FALSE -- Phase data not excluded
FALSE -- Auxillary Chn. data not excluded
Tab delimiters

#CALIBRATION STATE
TRUE -- Waveform Calibration Values APPLIED.


#AUX CALIBRATION VALUES
Val Type	aux-1	

Term	1.0000e+00	
Factor	0.0000e+00	


#WF CALIBRATION VALUES
A = Detector Channel
Val Type	A-AC1	A-AC2	A-AC3	A-AC4	A-AC5	A-AC6	A-AC7	A-AC8	A-AC9	A-AC10	A-AC11	A-AC12	A-AC13	A-AC14	A-AC15	A-AC16	A-DC1	A-DC2	A-DC3	A-DC4	A-DC5	A-DC6	A-DC7	A-DC8	A-DC9	A-DC10	A-DC11	A-DC12	A-DC13	A-DC14	A-DC15	A-DC16	A-Ph1	A-Ph2	A-Ph3	A-Ph4	A-Ph5	A-Ph6	A-Ph7	A-Ph8	A-Ph9	A-Ph10	A-Ph11	A-Ph12	A-Ph13	A-Ph14	A-Ph15	A-Ph16	

Term	0.00000e+00	0.00000e+00	0.00000e+00	0.00000e+00	0.00000e+00	0.00000e+00	0.00000e+00	0.00000e+00	0.00000e+00	0.00000e+00	0.00000e+00	0.00000e+00	0.00000e+00	0.00000e+00	0.00000e+00	0.00000e+00	0.00000e+00	0.00000e+00	0.00000e+00	0.00000e+00	0.00000e+00	0.00000e+00	0.00000e+00	0.00000e+00	0.00000e+00	0.00000e+00	0.00000e+00	0.00000e+00	0.00000e+00	0.00000e+00	0.00000e+00	0.00000e+00	0.00000e+00	0.00000e+00	0.00000e+00	0.00000e+00	0.00000e+00	0.00000e+00	0.00000e+00	0.00000e+00	0.00000e+00	0.00000e+00	0.00000e+00	0.00000e+00	0.00000e+00	0.00000e+00	0.00000e+00	0.00000e+00	
Factor	1.00000e+00	1.00000e+00	1.00000e+00	1.00000e+00	1.00000e+00	1.00000e+00	1.00000e+00	1.00000e+00	1.00000e+00	1.00000e+00	1.00000e+00	1.00000e+00	1.00000e+00	1.00000e+00	1.00000e+00	1.00000e+00	1.00000e+00	1.00000e+00	1.00000e+00	1.00000e+00	1.00000e+00	1.00000e+00	1.00000e+00	1.00000e+00	1.00000e+00	1.00000e+00	1.00000e+00	1.00000e+00	1.00000e+00	1.00000e+00	1.00000e+00	1.00000e+00	X	X	X	X	X	X	X	X	X	X	X	X	X	X	X	X	

B = Detector Channel
Val Type	B-AC1	B-AC2	B-AC3	B-AC4	B-AC5	B-AC6	B-AC7	B-AC8	B-AC9	B-AC10	B-AC11	B-AC12	B-AC13	B-AC14	B-AC15	B-AC16	B-DC1	B-DC2	B-DC3	B-DC4	B-DC5	B-DC6	B-DC7	B-DC8	B-DC9	B-DC10	B-DC11	B-DC12	B-DC13	B-DC14	B-DC15	B-DC16	B-Ph1	B-Ph2	B-Ph3	B-Ph4	B-Ph5	B-Ph6	B-Ph7	B-Ph8	B-Ph9	B-Ph10	B-Ph11	B-Ph12	B-Ph13	B-Ph14	B-Ph15	B-Ph16	

Term	0.00000e+00	0.00000e+00	0.00000e+00	0.00000e+00	0.00000e+00	0.00000e+00	0.00000e+00	0.00000e+00	0.00000e+00	0.00000e+00	0.00000e+00	0.00000e+00	0.00000e+00	0.00000e+00	0.00000e+00	0.00000e+00	0.00000e+00	0.00000e+00	0.00000e+00	0.00000e+00	0.00000e+00	0.00000e+00	0.00000e+00	0.00000e+00	0.00000e+00	0.00000e+00	0.00000e+00	0.00000e+00	0.00000e+00	0.00000e+00	0.00000e+00	0.00000e+00	-4.82867e+01	-1.31521e+02	-1.29090e+02	-1.82778e+02	-5.00932e+01	-6.85385e+01	-1.59964e+02	-1.62015e+02	-3.45550e+01	-6.98819e+01	-1.78192e+02	-1.73211e+02	-1.80356e+02	-1.77624e+02	-4.73150e+01	-1.50550e+02	
Factor	2.03344e-05	1.89891e-04	5.74514e-05	1.58307e-01	1.90108e-06	2.09202e-06	1.94733e-01	5.79786e-02	1.52646e-06	2.11415e-06	3.21294e-01	3.10011e-02	3.06678e-02	9.11195e-03	1.92150e-06	1.28799e-02	1.37867e-05	2.61164e-05	7.30315e-06	8.26885e-02	2.52523e-07	2.92360e-07	9.52919e-02	3.04267e-02	2.52502e-07	2.89608e-07	1.62620e-01	1.57850e-02	1.63068e-02	4.82875e-03	2.67683e-07	6.59689e-03	X	X	X	X	X	X	X	X	X	X	X	X	X	X	X	X	



#DISTANCE SETTINGS
A = Detector Channel
A-1	A-2	A-3	A-4	A-5	A-6	A-7	A-8	A-9	A-10	A-11	A-12	A-13	A-14	A-15	A-16	

2.5000e+00	3.0000e+00	2.5000e+00	3.0000e+00	2.0000e+00	3.0000e+00	1.5000e+00	3.0000e+00	3.0000e+00	3.0000e+00	3.0000e+00	3.0000e+00	3.0000e+00	3.0000e+00	1.5000e+00	3.0000e+00	

B = Detector Channel
B-1	B-2	B-3	B-4	B-5	B-6	B-7	B-8	B-9	B-10	B-11	B-12	B-13	B-14	B-15	B-16	

1.0000e+01	1.0000e+01	1.0000e+01	1.4400e+00	1.0000e+01	1.0000e+01	1.5100e+00	1.9400e+00	1.0000e+01	1.0000e+01	1.9900e+00	2.4900e+00	2.4100e+00	2.9000e+00	1.0000e+01	2.9800e+00	




#DATA BEGINS
time	group	step	mark	flag	A-AC1	A-AC2	A-AC3	A-AC4	A-AC5	A-AC6	A-AC7	A-AC8	A-AC9	A-AC10	A-AC11	A-AC12	A-AC13	A-AC14	A-AC15	A-AC16	A-DC1	A-DC2	A-DC3	A-DC4	A-DC5	A-DC6	A-DC7	A-DC8	A-DC9	A-DC10	A-DC11	A-DC12	A-DC13	A-DC14	A-DC15	A-DC16	A-Ph1	A-Ph2	A-Ph3	A-Ph4	A-Ph5	A-Ph6	A-Ph7	A-Ph8	A-Ph9	A-Ph10	A-Ph11	A-Ph12	A-Ph13	A-Ph14	A-Ph15	A-Ph16	B-AC1	B-AC2	B-AC3	B-AC4	B-AC5	B-AC6	B-AC7	B-AC8	B-AC9	B-AC10	B-AC11	B-AC12	B-AC13	B-AC14	B-AC15	B-AC16	B-DC1	B-DC2	B-DC3	B-DC4	B-DC5	B-DC6	B-DC7	B-DC8	B-DC9	B-DC10	B-DC11	B-DC12	B-DC13	B-DC14	B-DC15	B-DC16	B-Ph1	B-Ph2	B-Ph3	B-Ph4	B-Ph5	B-Ph6	B-Ph7	B-Ph8	B-Ph9	B-Ph10	B-Ph11	B-Ph12	B-Ph13	B-Ph14	B-Ph15	B-Ph16	aux-1	digaux	

1187.296	1	1	0	256	0.16946	0.16924	0.096169	0.19774	0.14633	0.020744	0.11351	0.1523	0.22176	0.054144	0.19783	0.19051	0.19923	0.41233	0.15272	0.18191	-1.4146	-2.6875	-2.1458	-1.9792	-2.4646	-1.7354	-2.2583	-2.5271	-1.7792	-2.5708	-2.1042	-1.9521	-2.5812	-1.8396	-2.2938	-2.6667	111.319	168.598	188.793	307.552	377.056	296.942	261.124	231.097	190.948	250.292	125.518	223.821	310.290	147.882	129.544	97.959	0.00030282	0.0010164	0.000155	447.86	2.5286e-05	1.8192e-05	486.08	159.62	4.3084e-06	7.8301e-06	188.61	69.2	53.879	22.846	1.5721e-05	29.213	0.018083	0.033583	0.0092493	550.77	0.00032867	0.00037883	606.77	199.49	0.00033217	0.00037904	400.23	90.006	76.175	29.679	0.00034998	38.156	237.330	432.266	319.621	92.671	172.506	97.129	91.172	98.534	116.636	148.308	95.751	100.937	104.648	108.173	287.427	104.596	-8191	255	
1187.368	1	1	0	0	0.13106	0.25986	0.18961	0.13382	0.10146	0.11063	0.15243	0.29826	0.2137	0.042969	0.14331	0.18471	0.16307	0.15502	0.29966	0.20089	-1.2437	-2.3979	-2.2479	-1.9333	-2.5125	-1.8292	-2.1521	-2.4792	-1.8854	-2.5333	-2.3708	-1.9979	-2.5125	-2.0979	-2.1271	-2.575	316.695	164.104	439.443	419.271	171.827	152.481	412.721	390.359	195.036	413.212	383.842	426.206	392.565	122.578	141.464	429.769	0.00033666	0.00069724	0.00066717	442.96	6.6945e-06	7.3123e-06	482.71	158.24	4.9799e-06	1.6399e-05	190.28	67.906	53.76	22.897	4.5641e-06	28.963	0.018545	0.034685	0.0096639	553.94	0.00034014	0.00038561	606.04	199.52	0.00034119	0.00038443	402.23	89.912	76.426	29.764	0.00036191	38.239	248.233	416.926	234.703	92.477	320.496	318.966	91.210	98.960	329.406	353.313	95.605	100.770	104.345	108.559	362.669	104.502	-8191	255	
1187.464	1	1	0	0	0.21558	0.076352	0.21147	0.13255	0.16008	0.22129	0.17516	0.23366	0.23696	0.0954	0.043304	0.1595	0.093321	0.19118	0.1214	0.1708	-1.4771	-2.4562	-2.5187	-1.8125	-2.4562	-1.8438	-2.0812	-2.7354	-1.8438	-2.2021	-2.3542	-1.8333	-2.5521	-2.1542	-2.1063	-2.7271	131.179	246.779	436.643	428.229	274.210	99.717	203.281	408.575	143.136	376.329	376.755	440.727	127.077	439.561	265.927	379.334	0.00033513	0.00047251	0.00054442	445.15	1.2944e-05	1.6194e-05	485.95	157.17	3.6594e-06	1.0963e-05	188.15	68.296	54.32	22.844	3.4511e-06	28.52	0.019073	0.035489	0.010011	559.21	0.00035377	0.00040495	615.18	202.48	0.00036565	0.0004181	425.07	92.053	78.342	30.22	0.00040229	38.921	257.898	140.192	298.417	92.740	195.593	250.616	91.021	99.033	405.310	357.197	95.866	100.878	103.985	108.494	123.865	104.818	-8191	255	
1187.585	1	1	0	0	0.22829	0.11069	0.26054	0.17259	0.30557	0.14488	0.084285	0.19378	0.17702	0.17854	0.21474	0.20025	0.10853	0.14863	0.046795	0.12958	-1.2958	-2.2104	-2.4354	-1.7583	-2.5479	-2.3104	-2.1583	-2.7604	-1.8083	-2.1771	-2.4437	-1.6396	-2.4208	-2.2771	-1.8042	-2.8229	300.468	375.701	367.973	406.536	236.958	336.893	430.336	407.058	312.692	246.309	126.612	135.089	103.952	113.031	339.659	387.927	0.00049113	0.0018693	0.0001923	445.07	1.0593e-05	2.3188e-05	482.49	158.18	4.8559e-06	2.185e-06	186.13	68.746	54.013	23.066	3.0741e-05	29.268	0.020943	0.039334	0.011211	575.51	0.00039205	0.00045393	633.43	208.51	0.00040523	0.00046955	457.58	95.105	81.286	31.468	0.00045535	40.839	258.388	137.013	253.950	92.960	219.341	440.190	91.399	98.647	343.713	347.597	95.725	100.629	103.682	108.394	277.671	104.287	-8191	255	
1187.681	1	1	0	0	0.19233	0.059381	0.24994	0.23182	0.16914	0.16278	0.23103	0.24638	0.3008	0.064575	0.33598	0.13349	0.1534	0.22532	0.43561	0.27207	-1.4562	-2.0854	-2.5396	-1.8792	-2.4562	-2.3	-1.8188	-2.6375	-1.9729	-2.225	-2.6562	-1.8438	-2.4062	-2.4479	-1.8521	-2.6917	91.474	343.404	256.134	370.893	353.745	135.054	95.478	409.877	205.252	166.599	178.800	396.311	86.171	440.159	237.209	179.665	0.0002569	0.00046192	0.00014823	442.62	8.3936e-06	1.6857e-05	476.88	156.78	9.1804e-06	3.6093e-05	185.75	67.675	54.002	22.734	2.2223e-05	28.722	0.023419	0.044371	0.01268	588.48	0.00043221	0.00050331	645.86	211.59	0.00043404	0.0005097	478.16	96.643	83.448	32.04	0.00049785	41.28	238.315	260.635	88.068	92.595	279.235	92.814	91.310	99.207	363.361	183.194	94.990	100.726	104.109	108.312	357.405	104.691	-8191	255	
1187.777	1	1	0	0	0.25529	0.024168	0.10838	0.24509	0.1488	0.10307	0.11949	0.076076	0.081756	0.12345	0.056326	0.024196	0.2076	0.14237	0.15795	0.34458	-1.6104	-1.9125	-2.6958	-1.7313	-2.4938	-2.2562	-1.9562	-2.5875	-2.2125	-1.9729	-2.6312	-2.1375	-2.2896	-2.5563	-1.7583	-2.5875	131.072	355.836	304.967	353.975	255.251	297.068	117.339	426.077	433.359	300.959	114.828	211.763	169.117	341.830	340.527	363.549	0.00032735	0.0013016	0.0006135	446.85	2.5719e-06	1.4692e-05	476.18	156.37	1.094e-05	1.2441e-05	186.92	66.247	53.091	22.281	2.1518e-05	27.892	0.025787	0.049039	0.01388	598.94	0.00046809	0.0005489	651.13	214.09	0.00045965	0.00053653	485	95.798	83.405	31.752	0.00051076	40.711	258.892	370.248	408.108	92.751	226.634	133.321	90.942	98.937	104.656	133.963	93.887	100.466	104.100	108.268	244.084	104.721	-8191	255	
1187.873	1	1	0	0	0.11245	0.25214	0.08561	0.13959	0.20545	0.19599	0.15579	0.24104	0.1703	0.13049	0.26646	0.31036	0.027052	0.37022	0.15211	0.18299	-1.9521	-1.7208	-2.5479	-1.9375	-2.1917	-2.6417	-1.8	-2.5271	-2.0979	-1.9188	-2.6771	-2.0146	-2.125	-2.5125	-1.85	-2.5271	416.314	172.698	177.407	342.603	268.903	323.541	349.065	433.346	322.014	213.598	135.574	103.147	351.396	408.493	135.442	102.814	0.00013834	0.0010438	0.00023645	442.8	5.1654e-06	2.6764e-05	472.28	155.16	1.5779e-05	2.3529e-05	186.32	65.928	52.56	22.253	1.9275e-05	28.468	0.026402	0.051733	0.014626	609	0.00050831	0.00060645	670.42	219.53	0.00052475	0.00061651	526.21	99.07	86.982	32.876	0.00055583	42.029	254.559	440.316	213.110	92.621	295.566	150.039	91.184	98.768	221.624	200.934	96.883	100.992	104.271	108.284	212.389	104.555	-8191	255	
1187.945	1	1	0	0	0.2351	0.1293	0.20251	0.013027	0.25493	0.36217	0.37183	0.14343	0.16439	0.093276	0.13696	0.050362	0.027359	0.2662	0.098674	0.2512	-1.9583	-1.9312	-2.6417	-1.8583	-2.0667	-2.5792	-1.7938	-2.3479	-2.3604	-1.9479	-2.6625	-2.1	-1.8604	-2.6937	-1.7062	-2.4167	324.520	246.784	150.368	103.979	217.916	395.418	415.181	369.861	297.410	210.226	371.334	430.310	282.871	415.548	246.362	419.402	0.00023714	0.001882	0.00017447	444.9	1.5306e-05	2.1867e-05	473.82	156.58	3.1006e-06	9.8987e-06	183.33	67.203	53.477	22.25	1.3987e-05	28.207	0.028515	0.054061	0.014966	612.37	0.00052004	0.00060869	669.94	219.7	0.0005228	0.00060402	520.1	99.406	87.114	32.778	0.00054642	41.92	242.505	210.216	364.726	92.599	309.438	130.037	91.455	98.930	311.368	377.584	96.401	100.782	103.778	108.121	144.248	104.551	-8191	255	
1188.066	1	1	0	0	0.18112	0.2676	0.19589	0.033194	0.14091	0.14041	0.27252	0.069076	0.12276	0.1158	0.11617	0.024707	0.018952	0.21246	0.067943	0.047601	-2.0583	-1.7979	-2.4708	-2.1437	-1.9188	-2.7167	-1.8833	-2.4521	-2.3771	-1.8833	-2.7146	-2.3312	-1.7479	-2.7125	-1.9312	-2.2667	132.842	96.130	90.413	293.487	241.305	370.574	373.555	111.114	192.364	207.647	207.621	380.810	421.372	413.581	430.577	185.376	9.6485e-05	0.0017161	0.00028029	445.08	8.9325e-06	1.9547e-05	472.62	157.13	4.6893e-06	2.2992e-05	181.17	66.276	52.706	22.091	1.9006e-05	27.837	0.028635	0.05421	0.014901	613.34	0.00052144	0.00059919	662.67	218.15	0.00051479	0.00058476	505.91	97.845	86.389	32.365	0.00053939	41.489	194.954	135.883	130.585	92.687	306.991	190.928	91.171	98.547	155.631	373.168	96.552	100.638	103.939	108.446	333.459	104.953	-8191	255	
1188.160	1	1	0	0	0.33101	0.23103	0.20979	0.3039	0.22807	0.13213	0.21312	0.12332	0.15182	0.27141	0.22306	0.29644	0.080409	0.09074	0.27464	0.14636	-1.9646	-1.8917	-2.5625	-2.3125	-1.7333	-2.5146	-1.7875	-2.025	-2.6063	-1.9042	-2.5312	-2.3146	-1.9688	-2.6354	-2.0104	-1.9208	189.735	112.485	371.344	307.265	298.693	129.734	296.232	190.001	120.477	195.152	227.050	422.433	412.894	348.669	195.056	252.790	0.00029272	0.00068489	0.00035516	447.74	1.3408e-05	6.4042e-06	467.52	155.93	2.0247e-05	2.3469e-05	179.97	64.432	51.783	21.392	1.8773e-05	27.049	0.029019	0.054724	0.0151	617.58	0.00053276	0.00060926	663.16	218.64	0.00052402	0.00059371	507.99	96.894	85.792	31.744	0.00053877	40.779	236.332	371.262	274.872	92.748	215.147	157.387	91.476	98.678	302.901	214.750	96.188	100.372	104.519	108.274	226.790	104.997	-8191	255	
1188.258	1	1	0	0	0.038564	0.19561	0.38594	0.043587	0.078735	0.22719	0.21923	0.03231	0.14258	0.21441	0.25941	0.24045	0.18241	0.17882	0.049486	0.18849	-2.2667	-1.7375	-2.0979	-2.3917	-1.7125	-2.4188	-1.9479	-2.1979	-2.6	-1.9604	-2.3563	-2.4917	-1.8542	-2.5771	-2.2062	-1.9417	332.615	388.977	287.207	329.097	390.489	138.759	237.251	325.495	425.345	349.754	342.274	107.013	389.183	398.677	100.013	121.578	0.00032524	0.0021777	0.00093452	446.49	1.892e-05	3.213e-05	470.86	153.62	6.2588e-06	1.8937e-05	175.8	63.719	51.29	21.226	7.2172e-06	27.262	0.028484	0.05274	0.014685	613.87	0.00051746	0.00058752	659.9	216.98	0.00051736	0.00058446	507	96.604	85.275	31.462	0.00053882	40.93	263.094	210.151	379.116	92.273	103.764	202.261	91.056	97.940	336.590	372.467	95.345	100.759	103.254	108.228	230.919	104.442	-8191	255	
1188.377	1	1	0	0	0.14738	0.13188	0.114	0.10426	0.24089	0.059719	0.1046	0.15606	0.077495	0.22191	0.080995	0.41319	0.19926	0.059176	0.058961	0.12592	-2.1458	-1.8229	-2.1583	-2.4208	-1.5896	-2.4646	-2.2667	-1.7729	-2.7562	-1.8896	-1.9458	-2.5146	-1.8646	-2.4833	-2.2083	-1.9562	215.092	253.580	129.791	277.657	302.209	118.275	134.754	365.070	213.441	257.522	167.304	405.444	369.583	84.622	388.078	312.059	0.00023991	0.002479	0.00034653	443.72	1.848e-05	9.2825e-06	470.5	153.76	5.4934e-06	1.4675e-05	180.46	64.416	51.734	21.262	5.8172e-06	26.877	0.028222	0.051983	0.014487	610.04	0.00049461	0.00056054	650.55	213.63	0.00047809	0.00053295	481.12	94.324	81.778	30.556	0.00048862	39.43	226.441	421.880	137.772	92.458	222.793	381.603	91.312	99.091	374.991	340.767	96.120	101.377	103.737	109.046	340.153	104.783	-8191	255	
1188.473	1	1	0	0	0.28039	0.21615	0.15048	0.12435	0.16366	0.27669	0.10435	0.3455	0.15582	0.065784	0.22765	0.10929	0.14353	0.12653	0.090644	0.31569	-2.1312	-1.8417	-2.1813	-2.5417	-1.7771	-2.4188	-2.3896	-1.8563	-2.6667	-1.9854	-2.0083	-2.5896	-1.8333	-2.3563	-2.4604	-2.0312	378.554	429.690	232.320	160.593	255.911	310.166	257.306	379.104	171.199	409.038	139.198	114.726	406.090	366.374	231.467	409.241	0.00020779	0.0011601	0.00080781	440.69	1.0586e-05	3.5275e-05	467.01	152.96	1.1119e-05	2.2936e-05	175.13	63.947	52.034	21.415	1.0865e-05	27.106	0.025309	0.046885	0.013312	592.6	0.00045243	0.00051967	635.28	209.04	0.00044376	0.00050013	461.37	92.006	79.636	30.127	0.00045935	38.726	239.964	360.738	208.337	92.776	280.574	377.070	91.839	98.761	240.995	179.120	96.760	101.058	104.331	108.846	402.940	105.442	-8191	255	
1188.569	1	1	0	0	0.20793	0.013917	0.045332	0.27643	0.13612	0.22339	0.34667	0.10043	0.31347	0.10049	0.095657	0.23053	0.21693	0.23325	0.15313	0.29398	-2.2771	-2.0896	-2.0812	-2.6833	-1.7917	-2.275	-2.5396	-1.8333	-2.6583	-2.075	-2.0229	-2.5833	-1.8729	-2.1542	-2.5729	-1.875	291.915	174.741	328.661	302.913	409.191	374.974	374.699	281.387	198.253	100.467	318.377	180.750	312.855	87.303	388.067	326.708	0.00030179	0.00064157	0.00062197	440.26	1.5848e-05	4.0901e-06	469.96	153.41	1.3584e-05	3.0731e-05	179.08	64.851	51.995	21.936	1.6841e-05	27.852	0.023337	0.044199	0.012631	584.12	0.00043088	0.00050975	636.15	209.09	0.00044673	0.00051728	476.66	94.129	81.514	31.111	0.00049328	40.333	235.452	345.903	123.532	92.844	273.804	172.281	91.779	98.540	156.570	202.013	95.931	100.568	104.540	108.332	256.852	104.979	-8191	255	
1188.665	1	1	0	0	0.090254	0.27623	0.25715	0.19544	0.29072	0.23893	0.094358	0.21083	0.061224	0.095167	0.088943	0.091012	0.19706	0.21506	0.29965	0.42831	-2.2438	-2.2958	-1.7812	-2.5479	-1.9375	-2.3688	-2.4708	-1.8438	-2.6771	-2.0667	-1.775	-2.7562	-1.8813	-2.1188	-2.6	-1.9188	239.643	148.730	196.105	295.026	230.716	282.352	181.459	328.814	263.886	140.883	301.494	196.516	408.575	332.221	345.634	326.551	0.00035111	0.001556	0.00045987	439.95	2.0965e-05	1.169e-05	471.98	155.54	2.6184e-06	1.7031e-05	186.49	66.305	52.586	22.46	1.3299e-05	28.222	0.025245	0.048216	0.013739	594.35	0.00046017	0.00054351	646.44	212.07	0.00046132	0.0005386	486.49	96.02	83.061	32.011	0.00051033	41.067	248.678	434.600	235.261	92.321	132.547	434.466	91.617	99.145	126.937	270.577	95.914	101.002	104.178	108.179	217.316	104.721	-8191	255	
1188.761	1	1	0	0	0.25579	0.061891	0.18897	0.082404	0.23627	0.20729	0.054878	0.042377	0.11282	0.24825	0.2369	0.26122	0.37821	0.081868	0.057171	0.2556	-2.175	-2.4354	-1.9104	-2.5125	-2.0604	-2.2396	-2.8187	-1.6104	-2.3125	-2.4938	-1.9	-2.7625	-2.0687	-2	-2.5979	-2.0417	437.586	184.849	349.327	424.990	134.600	259.167	92.296	92.209	175.215	262.002	344.319	240.484	415.116	144.176	140.127	440.269	0.00038329	0.00062488	0.0002985	439.18	1.4265e-05	1.5292e-05	469.78	155.83	1.4356e-05	7.5739e-06	183.86	65.717	52.723	22.311	1.8026e-05	27.988	0.026175	0.050059	0.014094	597.06	0.00047755	0.00056039	650.05	212.23	0.00046813	0.00054522	482.77	95.185	82.478	31.486	0.00049302	40.099	255.735	194.709	242.019	92.986	241.084	213.406	91.688	99.019	258.287	238.592	96.380	100.719	103.112	107.891	397.506	104.546	-8191	255	
1188.857	1	1	0	0	0.15736	0.11801	0.15931	0.066094	0.29216	0.19836	0.073123	0.11288	0.19783	0.080871	0.071917	0.24355	0.1876	0.33765	0.31366	0.062201	-1.8042	-2.4125	-1.7812	-2.7021	-2.0563	-1.8563	-2.7396	-1.8375	-2.1917	-2.6021	-1.8229	-2.6667	-2.3271	-1.8958	-2.5021	-1.9667	376.677	179.828	427.147	260.469	417.807	437.299	387.995	330.822	379.646	372.210	419.992	130.475	398.810	161.369	378.114	319.381	0.00022871	0.0013333	0.00013567	436.1	2.1996e-05	1.032e-05	465.07	154.05	1.3229e-05	1.605e-05	185.11	66.278	52.713	22.285	8.3855e-06	28.225	0.025143	0.047689	0.013145	584.88	0.00045438	0.00052959	635.46	209.35	0.00045274	0.00052348	470.93	94.367	82.139	31.464	0.00047563	40.069	251.377	226.557	236.262	92.319	277.353	180.633	91.094	98.487	337.890	389.347	95.098	100.247	103.831	107.778	263.330	104.439	-8191	255	
1188.978	1	1	0	0	0.20553	0.042289	0.10906	0.26776	0.14309	0.19675	0.2043	0.27521	0.27275	0.13307	0.14759	0.096821	0.090872	0.14193	0.16806	0.20889	-1.8833	-2.5062	-1.6479	-2.625	-2.425	-2.05	-2.6708	-2.1625	-2.2	-2.5875	-1.9	-2.525	-2.325	-1.9375	-2.5729	-2.0438	297.032	378.327	319.756	352.078	394.649	228.516	278.143	193.118	252.326	148.048	218.105	323.253	356.261	275.476	411.920	393.061	0.00025267	0.0005488	0.00064642	438.48	9.463e-06	1.5595e-05	467.42	154.21	9.1948e-06	7.6199e-06	182.69	66.732	52.838	22.323	5.6721e-06	28.63	0.024828	0.046544	0.012757	582.36	0.0004463	0.00051961	633.38	208.09	0.00044626	0.00050931	462.78	94.467	81.77	31.163	0.00046142	40.197	246.009	330.569	160.916	92.128	212.501	337.762	90.669	98.413	230.752	383.505	95.729	100.708	103.409	107.831	397.024	104.134	-8191	255	
