BOXY.EXE: ISS Imagent and Oximeter Data Acquisition Program Version 0.80
Ascii Record File

#ACQ INFORMATION
2  Detector Channels 
16  External MUX Channels 
1  Auxiliary Channels 
5000  Waveform (CCF) Frequency (Hz)
1  Waveforms Skipped 
30  Waveforms Averaged 
1  Cycles Averaged 
16  Acquisitions per Waveform 
10.0806  Updata Rate (Hz) 

#FILE INFORMATION
TRUE -- External MUX Channel results are PARSED.
FALSE -- AC DC and Phase are NOT grouped.
TRUE -- Companion Program Settings File CREATED.
FALSE -- AC data not excluded
FALSE -- DC data not excluded
FALSE -- Phase data not excluded
FALSE -- Auxillary Chn. data not excluded
Tab delimiters

#CALIBRATION STATE
TRUE -- Waveform Calibration Values APPLIED.


#AUX CALIBRATION VALUES
Val Type	aux-1	

Term	1.0000e+00	
Factor	0.0000e+00	


#WF CALIBRATION VALUES
A = Detector Channel
Val Type	A-AC1	A-AC2	A-AC3	A-AC4	A-AC5	A-AC6	A-AC7	A-AC8	A-AC9	A-AC10	A-AC11	A-AC12	A-AC13	A-AC14	A-AC15	A-AC16	A-DC1	A-DC2	A-DC3	A-DC4	A-DC5	A-DC6	A-DC7	A-DC8	A-DC9	A-DC10	A-DC11	A-DC12	A-DC13	A-DC14	A-DC15	A-DC16	A-Ph1	A-Ph2	A-Ph3	A-Ph4	A-Ph5	A-Ph6	A-Ph7	A-Ph8	A-Ph9	A-Ph10	A-Ph11	A-Ph12	A-Ph13	A-Ph14	A-Ph15	A-Ph16	

Term	0.00000e+00	0.00000e+00	0.00000e+00	0.00000e+00	0.00000e+00	0.00000e+00	0.00000e+00	0.00000e+00	0.00000e+00	0.00000e+00	0.00000e+00	0.00000e+00	0.00000e+00	0.00000e+00	0.00000e+00	0.00000e+00	0.00000e+00	0.00000e+00	0.00000e+00	0.00000e+00	0.00000e+00	0.00000e+00	0.00000e+00	0.00000e+00	0.00000e+00	0.00000e+00	0.00000e+00	0.00000e+00	0.00000e+00	0.00000e+00	0.00000e+00	0.00000e+00	0.00000e+00	0.00000e+00	0.00000e+00	0.00000e+00	0.00000e+00	0.00000e+00	0.00000e+00	0.00000e+00	0.00000e+00	0.00000e+00	0.00000e+00	0.00000e+00	0.00000e+00	0.00000e+00	0.00000e+00	0.00000e+00	
Factor	1.00000e+00	1.00000e+00	1.00000e+00	1.00000e+00	1.00000e+00	1.00000e+00	1.00000e+00	1.00000e+00	1.00000e+00	1.00000e+00	1.00000e+00	1.00000e+00	1.00000e+00	1.00000e+00	1.00000e+00	1.00000e+00	1.00000e+00	1.00000e+00	1.00000e+00	1.00000e+00	1.00000e+00	1.00000e+00	1.00000e+00	1.00000e+00	1.00000e+00	1.00000e+00	1.00000e+00	1.00000e+00	1.00000e+00	1.00000e+00	1.00000e+00	1.00000e+00	X	X	X	X	X	X	X	X	X	X	X	X	X	X	X	X	

B = Detector Channel
Val Type	B-AC1	B-AC2	B-AC3	B-AC4	B-AC5	B-AC6	B-AC7	B-AC8	B-AC9	B-AC10	B-AC11	B-AC12	B-AC13	B-AC14	B-AC15	B-AC16	B-DC1	B-DC2	B-DC3	B-DC4	B-DC5	B-DC6	B-DC7	B-DC8	B-DC9	B-DC10	B-DC11	B-DC12	B-DC13	B-DC14	B-DC15	B-DC16	B-Ph1	B-Ph2	B-Ph3	B-Ph4	B-Ph5	B-Ph6	B-Ph7	B-Ph8	B-Ph9	B-Ph10	B-Ph11	B-Ph12	B-Ph13	B-Ph14	B-Ph15	B-Ph16	

Term	0.00000e+00	0.00000e+00	0.00000e+00	0.00000e+00	0.00000e+00	0.00000e+00	0.00000e+00	0.00000e+00	0.00000e+00	0.00000e+00	0.00000e+00	0.00000e+00	0.00000e+00	0.00000e+00	0.00000e+00	0.00000e+00	0.00000e+00	0.00000e+00	0.00000e+00	0.00000e+00	0.00000e+00	0.00000e+00	0.00000e+00	0.00000e+00	0.00000e+00	0.00000e+00	0.00000e+00	0.00000e+00	0.00000e+00	0.00000e+00	0.00000e+00	0.00000e+00	-4.82867e+01	-1.31521e+02	-1.29090e+02	-1.82778e+02	-5.00932e+01	-6.85385e+01	-1.59964e+02	-1.62015e+02	-3.45550e+01	-6.98819e+01	-1.78192e+02	-1.73211e+02	-1.80356e+02	-1.77624e+02	-4.73150e+01	-1.50550e+02	
Factor	2.03344e-05	1.89891e-04	5.74514e-05	1.58307e-01	1.90108e-06	2.09202e-06	1.94733e-01	5.79786e-02	1.52646e-06	2.11415e-06	3.21294e-01	3.10011e-02	3.06678e-02	9.11195e-03	1.92150e-06	1.28799e-02	1.37867e-05	2.61164e-05	7.30315e-06	8.26885e-02	2.52523e-07	2.92360e-07	9.52919e-02	3.04267e-02	2.52502e-07	2.89608e-07	1.62620e-01	1.57850e-02	1.63068e-02	4.82875e-03	2.67683e-07	6.59689e-03	X	X	X	X	X	X	X	X	X	X	X	X	X	X	X	X	



#DISTANCE SETTINGS
A = Detector Channel
A-1	A-2	A-3	A-4	A-5	A-6	A-7	A-8	A-9	A-10	A-11	A-12	A-13	A-14	A-15	A-16	

2.5000e+00	3.0000e+00	2.5000e+00	3.0000e+00	2.0000e+00	3.0000e+00	1.5000e+00	3.0000e+00	3.0000e+00	3.0000e+00	3.0000e+00	3.0000e+00	3.0000e+00	3.0000e+00	1.5000e+00	3.0000e+00	

B = Detector Channel
B-1	B-2	B-3	B-4	B-5	B-6	B-7	B-8	B-9	B-10	B-11	B-12	B-13	B-14	B-15	B-16	

1.0000e+01	1.0000e+01	1.0000e+01	1.4400e+00	1.0000e+01	1.0000e+01	1.5100e+00	1.9400e+00	1.0000e+01	1.0000e+01	1.9900e+00	2.4900e+00	2.4100e+00	2.9000e+00	1.0000e+01	2.9800e+00	




#DATA BEGINS
time	group	step	mark	flag	A-AC1	A-AC2	A-AC3	A-AC4	A-AC5	A-AC6	A-AC7	A-AC8	A-AC9	A-AC10	A-AC11	A-AC12	A-AC13	A-AC14	A-AC15	A-AC16	A-DC1	A-DC2	A-DC3	A-DC4	A-DC5	A-DC6	A-DC7	A-DC8	A-DC9	A-DC10	A-DC11	A-DC12	A-DC13	A-DC14	A-DC15	A-DC16	A-Ph1	A-Ph2	A-Ph3	A-Ph4	A-Ph5	A-Ph6	A-Ph7	A-Ph8	A-Ph9	A-Ph10	A-Ph11	A-Ph12	A-Ph13	A-Ph14	A-Ph15	A-Ph16	B-AC1	B-AC2	B-AC3	B-AC4	B-AC5	B-AC6	B-AC7	B-AC8	B-AC9	B-AC10	B-AC11	B-AC12	B-AC13	B-AC14	B-AC15	B-AC16	B-DC1	B-DC2	B-DC3	B-DC4	B-DC5	B-DC6	B-DC7	B-DC8	B-DC9	B-DC10	B-DC11	B-DC12	B-DC13	B-DC14	B-DC15	B-DC16	B-Ph1	B-Ph2	B-Ph3	B-Ph4	B-Ph5	B-Ph6	B-Ph7	B-Ph8	B-Ph9	B-Ph10	B-Ph11	B-Ph12	B-Ph13	B-Ph14	B-Ph15	B-Ph16	aux-1	digaux	

1113.949	1	1	0	256	0.13612	0.10055	0.10512	0.14567	0.068816	0.41295	0.27864	0.17224	0.074593	0.15061	0.11707	0.18068	0.098835	0.14915	0.16524	0.1469	-1.6229	-2.7729	-2.1583	-2.3854	-2.8312	-1.9083	-2.5792	-2.5125	-1.8729	-2.6708	-2.2417	-2.2646	-2.6896	-1.7708	-2.5729	-2.5833	342.996	382.538	259.512	155.513	240.833	298.355	421.392	376.436	213.986	377.831	339.877	367.306	273.190	412.546	202.522	131.198	0.00033648	0.001924	0.00020616	397.02	3.9657e-05	2.1021e-05	388.94	111.62	1.8014e-06	3.4217e-05	112.46	44.718	40.412	13.198	6.8536e-06	14.232	0.070847	0.13737	0.037697	809.72	0.0012807	0.0015065	873.63	262.61	0.0012627	0.0014681	923.58	121.28	122.76	37.91	0.0013268	46.839	218.292	250.027	370.293	91.799	242.128	148.711	90.192	98.875	111.830	329.217	96.469	99.878	104.521	108.682	407.322	105.293	-8191	255	
1114.046	1	1	0	0	0.02463	0.28881	0.085416	0.22637	0.17084	0.096783	0.12903	0.16032	0.044988	0.20264	0.15437	0.073086	0.029062	0.3513	0.10092	0.17303	-1.7167	-2.7646	-2.2625	-2.2417	-2.7646	-2.0854	-2.5542	-2.7938	-2.0625	-2.7458	-2.4875	-2.1542	-2.9021	-2.2604	-2.3979	-2.7646	241.491	154.370	328.344	338.402	300.879	373.743	274.058	440.680	391.008	361.892	81.489	353.706	171.840	378.467	349.186	382.459	0.00049226	0.00043943	0.00018789	395.57	3.4776e-05	1.9178e-05	386.43	113.05	2.9643e-05	9.1555e-06	119.14	44.263	42.042	13.8	3.5792e-06	15.217	0.069768	0.13352	0.03646	808.22	0.0013004	0.0015134	871.65	268.47	0.0013229	0.0015313	953.37	127.22	130.38	40.085	0.0014019	50.303	221.856	306.953	147.016	91.695	204.169	432.231	90.520	99.112	226.105	145.766	94.281	100.729	103.984	108.304	283.331	104.105	-8191	255	
1114.142	1	1	0	0	0.040056	0.20461	0.1485	0.088708	0.13403	0.20745	0.11907	0.15316	0.093254	0.33224	0.14683	0.15709	0.21851	0.27193	0.13821	0.19535	-1.6625	-2.625	-2.4979	-2.3458	-2.825	-2.2687	-2.3312	-2.7438	-1.975	-2.6958	-2.3979	-2.1	-2.8083	-2.1896	-2.1188	-2.7562	152.256	335.132	225.514	183.428	302.044	161.601	153.842	225.669	392.759	370.201	239.179	421.254	263.705	419.894	233.658	343.227	0.00014672	0.0037022	0.0006949	389.77	2.6067e-05	1.3191e-05	382.45	113.85	1.5869e-05	4.1716e-05	118.32	47.56	43.911	14.798	2.4808e-05	16.627	0.076091	0.14377	0.039008	841.27	0.0014191	0.0016323	902.86	284.5	0.0014404	0.0016433	1015.9	137.9	139.49	42.806	0.0014936	54.455	127.336	378.457	149.805	92.247	287.174	417.235	90.506	99.732	437.930	371.485	95.424	101.529	104.549	109.287	305.092	105.032	-8191	255	
1114.238	1	1	0	0	0.20267	0.04112	0.046424	0.15623	0.22365	0.30296	0.18367	0.07437	0.3107	0.18184	0.042435	0.052277	0.10205	0.046549	0.30202	0.17367	-1.5729	-2.6333	-2.5333	-1.9604	-2.9625	-2.1583	-2.1562	-2.8083	-1.9271	-2.5563	-2.6292	-1.9104	-2.775	-2.1813	-2.2021	-2.8021	184.076	207.970	233.689	325.897	125.509	419.838	314.481	162.972	386.892	335.681	130.239	354.013	403.641	120.992	194.138	163.539	0.00014211	0.0041725	0.00094441	391.81	2.1179e-05	1.1896e-05	388.71	114.62	3.5469e-06	1.9982e-05	115.58	46.057	41.836	13.945	2.8443e-05	14.633	0.080112	0.14861	0.040717	869.43	0.0014587	0.0016417	915.85	287.07	0.0014089	0.001551	972.8	131.25	128.46	38.57	0.0013262	48.255	226.661	319.975	127.988	92.176	359.816	221.462	91.192	99.582	215.215	371.790	94.932	100.271	104.912	109.536	127.338	104.021	-8191	255	
1114.334	1	1	0	0	0.096463	0.1528	0.05461	0.20839	0.25673	0.24785	0.24198	0.06954	0.066518	0.065729	0.23086	0.06251	0.059062	0.32441	0.086662	0.21693	-1.5875	-2.3542	-2.6229	-2.1729	-2.5771	-2.2167	-2.0375	-2.8042	-2.0021	-2.3646	-2.6521	-1.7437	-2.8104	-2.3937	-1.9583	-2.8896	300.608	397.197	435.910	367.219	180.301	390.325	166.605	281.335	309.530	106.558	366.214	96.287	342.944	171.265	397.911	323.796	0.00018319	0.0049795	0.0014555	385.45	1.1839e-05	2.3018e-05	381.62	108.42	1.8591e-05	6.453e-06	106.59	41.603	38.567	12.29	4.6734e-05	13.284	0.069022	0.12613	0.035392	799.75	0.0012372	0.00139	838.7	258.24	0.0012184	0.0013645	888.11	118.57	117.29	35.169	0.0012734	45.216	107.721	286.368	382.679	92.517	313.474	298.060	91.307	99.139	409.789	242.707	97.101	101.078	104.327	109.302	209.919	105.055	-8191	255	
1114.430	1	1	0	0	0.083873	0.13224	0.21675	0.18145	0.1276	0.10776	0.26439	0.10216	0.14144	0.17099	0.071252	0.094759	0.25444	0.14201	0.075074	0.21754	-1.725	-2.2542	-2.5417	-1.9479	-2.6312	-2.3542	-1.9562	-3	-1.9062	-2.225	-2.6958	-1.9667	-2.575	-2.3854	-1.8479	-2.7188	359.323	129.698	201.441	428.291	233.058	183.079	114.699	328.875	265.981	128.291	386.171	146.712	133.828	313.040	185.122	375.767	4.4381e-05	0.0013336	0.00080687	387.79	8.0048e-06	2.3021e-05	373.01	103.09	1.566e-05	1.6264e-05	104.65	38.871	36.774	11.902	1.1074e-05	12.898	0.065646	0.1221	0.034938	788.62	0.0012034	0.0013723	828.77	252.71	0.001207	0.0013736	898.17	116.65	115.21	35.018	0.0013107	45.462	346.779	358.521	152.364	92.018	287.233	253.290	91.136	99.516	90.718	191.971	97.032	101.178	105.195	109.483	300.787	104.440	-8191	255	
1114.526	1	1	0	0	0.095369	0.21318	0.21818	0.22942	0.31611	0.1063	0.098948	0.22297	0.22901	0.064349	0.079378	0.3505	0.18481	0.12431	0.043938	0.12019	-1.8542	-2.1833	-2.5583	-2.0062	-2.5062	-2.6958	-2.0729	-2.7104	-2.2375	-2.2229	-2.7313	-1.75	-2.6063	-2.6333	-2.1792	-2.7292	398.181	335.335	210.668	347.601	402.501	115.408	257.876	435.398	337.640	234.081	416.630	158.761	132.871	424.817	257.750	396.893	0.00014995	0.00093335	0.00011909	379.32	2.2877e-06	2.1909e-05	374.48	102.82	1.9123e-05	3.8363e-05	104.98	39.379	37.288	12.148	1.1351e-05	12.977	0.066343	0.12595	0.036336	795.09	0.0012243	0.0014253	850.8	257.29	0.0012329	0.0014293	929.61	119.19	117.41	36.368	0.001356	46.709	100.492	206.625	197.416	92.198	221.572	201.416	90.621	99.535	370.764	294.026	95.008	102.076	105.449	109.312	193.903	104.379	-8191	255	
1114.647	1	1	0	0	0.16581	0.12102	0.47232	0.21533	0.090639	0.18996	0.29764	0.19097	0.098659	0.13686	0.087045	0.075875	0.060221	0.1338	0.24948	0.22187	-2.05	-2.1646	-2.75	-2.0854	-2.2354	-2.675	-2.0687	-2.7396	-2.4771	-2.1646	-2.9625	-1.9646	-2.0792	-2.6146	-1.8104	-2.7417	250.633	310.356	157.701	324.917	225.754	425.353	344.330	124.916	351.616	330.220	159.397	242.457	385.373	406.014	141.233	375.784	0.00033926	0.003052	0.00034249	379.69	9.9889e-06	2.9033e-05	379.27	103.79	1.1609e-05	1.3977e-05	107.04	41.317	38.67	12.975	3.8282e-05	14.085	0.067546	0.13034	0.03709	799.28	0.0012388	0.0014617	859.09	256.87	0.0012303	0.0014441	919.97	118.66	116.88	36.673	0.0013031	45.57	178.770	146.532	146.545	92.566	336.727	129.736	91.407	99.829	362.400	278.164	98.992	101.685	105.028	109.097	182.786	105.791	-8191	255	
1114.743	1	1	0	0	0.23148	0.22953	0.21976	0.062171	0.23661	0.27544	0.13173	0.14625	0.15495	0.26427	0.13336	0.24031	0.12115	0.17047	0.16857	0.12268	-2.3	-2.1063	-2.7125	-2.2292	-2.1063	-2.8438	-1.8917	-2.4792	-2.3187	-1.9333	-2.6354	-2.1958	-2.0958	-2.7521	-2.0292	-2.6792	376.216	231.671	308.307	371.379	404.400	371.291	394.203	385.394	390.237	277.150	302.333	99.796	293.756	274.821	164.854	400.118	0.00021305	0.002686	0.00065342	384.21	4.3416e-05	3.0568e-05	370.6	103.29	3.2896e-06	2.5757e-05	101.76	39.276	36.531	12.214	2.3184e-05	13.221	0.063916	0.12372	0.034448	767.16	0.001146	0.0013568	809.19	240.93	0.0011302	0.0013275	845.5	109.97	110.29	34.661	0.0012104	42.413	231.988	255.082	174.388	93.038	269.731	134.934	91.154	99.495	362.956	281.943	96.916	100.254	105.997	110.233	84.124	104.439	-8191	255	
1114.839	1	1	0	0	0.12634	0.28597	0.17176	0.26441	0.10005	0.43141	0.027319	0.1827	0.21864	0.068484	0.25214	0.13196	0.11266	0.063096	0.1115	0.21766	-2.3875	-1.9125	-2.6625	-2.3292	-2.0021	-2.8	-2.1063	-2.4021	-2.6021	-1.8417	-2.775	-2.3042	-2.1042	-2.8792	-1.9708	-2.3792	95.294	442.090	242.434	214.769	253.032	200.999	224.421	165.890	313.981	133.810	250.531	269.291	367.421	209.394	433.144	271.438	0.00031515	0.004614	0.0012315	374.21	1.8831e-05	2.7919e-05	359.21	101.61	1.4292e-05	4.431e-05	97.881	38.822	37.047	11.9	3.2445e-05	12.909	0.061417	0.11881	0.03289	740.99	0.0011176	0.0013193	780.88	234	0.0011152	0.0013013	822.12	107.76	110.05	34.299	0.0011912	42.091	168.052	214.559	245.150	91.920	289.305	205.255	91.158	100.188	262.499	389.040	97.589	102.289	105.671	110.228	98.594	105.342	-8191	255	
1114.935	1	1	0	0	0.20023	0.074489	0.17409	0.12083	0.16478	0.053421	0.24621	0.040746	0.41556	0.31193	0.23714	0.14642	0.29421	0.1843	0.097545	0.25546	-2.3271	-1.8937	-2.6146	-2.3146	-2.0708	-2.7958	-2.2042	-2.3479	-2.7125	-2.0208	-2.5792	-2.3688	-1.9667	-2.7687	-2.0479	-2.2792	198.825	371.324	396.235	341.267	119.482	160.188	417.924	433.568	352.177	342.052	387.161	392.967	88.185	88.605	254.833	427.177	0.00030185	0.0033613	0.00027907	379.55	1.7371e-05	3.8227e-05	363.06	99.305	9.0573e-06	2.5013e-05	96.794	38.246	35.664	12.159	6.489e-06	13.458	0.06222	0.11833	0.032506	743	0.0011359	0.0013202	780.12	233.25	0.0011284	0.001294	808.76	107.15	109.28	33.873	0.0011534	42.117	242.551	334.347	255.497	92.920	253.914	360.389	91.431	100.303	197.505	257.146	99.445	101.742	105.106	110.664	440.406	105.940	-8191	255	
1115.030	1	1	0	0	0.17463	0.064928	0.16289	0.24429	0.10608	0.16207	0.19485	0.1982	0.076619	0.26045	0.1806	0.13049	0.22538	0.191	0.13816	0.19333	-2.3583	-1.9292	-2.6167	-2.5687	-2	-2.7708	-2.1729	-2.3563	-2.8458	-1.7625	-2.5083	-2.4042	-1.8312	-2.9229	-2.2812	-2.1521	112.842	230.693	130.972	427.156	278.390	331.833	123.538	250.508	389.382	431.633	416.096	399.827	285.249	416.115	103.601	423.219	0.00024653	0.0014825	0.0010303	379.82	2.1548e-05	4.474e-05	360.54	100.99	1.4706e-05	2.7926e-05	106.28	40.552	36.464	13.06	1.8778e-05	14.639	0.061377	0.11559	0.031508	739.18	0.00113	0.0012955	775.94	234.38	0.0011358	0.0012889	808.71	110.79	111.86	35.142	0.0011785	44.589	409.940	112.532	193.078	92.922	339.872	396.924	92.015	100.767	332.374	392.529	98.203	102.705	106.720	110.707	234.251	106.087	-8191	255	
1115.126	1	1	0	0	0.13643	0.13965	0.17417	0.1361	0.21352	0.089172	0.3078	0.15432	0.081963	0.070798	0.074647	0.28907	0.29278	0.17402	0.14648	0.11387	-2.3458	-1.8292	-2.4854	-2.6271	-1.9062	-2.725	-2.2438	-2.0042	-2.75	-1.8062	-2.4521	-2.5625	-1.9083	-2.4313	-2.1458	-2.0021	382.551	324.542	429.972	407.805	197.020	111.763	371.520	105.933	289.854	253.902	294.906	224.637	242.551	378.771	113.776	164.309	4.6229e-05	0.0051569	0.0014662	377.05	4.1659e-05	4.5377e-06	360.33	99.428	2.7425e-05	1.3818e-05	95.824	38.703	34.976	12.684	6.9622e-06	14.237	0.06363	0.11804	0.032392	754.15	0.0011554	0.0013042	778.1	236.24	0.0011315	0.0012601	794.77	108.27	108.01	33.763	0.0011424	43.31	206.097	323.319	251.621	93.230	152.498	304.233	92.075	100.291	419.001	320.838	96.977	100.854	105.154	109.505	105.387	105.588	-8191	255	
1115.247	1	1	0	0	0.10525	0.13493	0.26629	0.21523	0.13992	0.098092	0.32621	0.12256	0.25626	0.18404	0.25305	0.19491	0.065197	0.099344	0.23736	0.1081	-2.2354	-2.1021	-2.1979	-2.6667	-2.0708	-2.4833	-2.3292	-2.0875	-2.8688	-2.0896	-2.3042	-2.8167	-1.9417	-2.2938	-2.4688	-1.9896	168.729	140.600	231.473	437.847	284.400	324.520	321.594	107.537	190.104	298.978	160.119	180.609	409.054	170.297	165.230	116.143	0.00017539	0.0018925	0.00025274	371.29	3.7234e-05	2.0032e-05	357.21	94.84	1.2787e-05	1.2084e-05	95.328	35.816	32.761	11.217	2.1602e-05	11.98	0.060954	0.11192	0.031421	740.72	0.0011127	0.0012526	766.88	231.34	0.0011081	0.0012325	797.82	106.24	105.03	32.045	0.0011679	41.462	189.223	268.174	110.312	91.978	265.650	221.993	91.263	98.902	126.165	306.088	95.954	101.380	105.024	109.923	380.242	104.671	-8191	255	
1115.343	1	1	0	0	0.065288	0.23885	0.26776	0.39875	0.10098	0.10595	0.3394	0.17148	0.1752	0.20026	0.25602	0.16824	0.1952	0.16864	0.062454	0.39313	-2.4167	-2.2146	-1.9937	-2.6271	-2.0229	-2.5167	-2.6479	-1.9458	-2.7646	-2.2062	-2.1125	-2.7687	-1.9875	-2.5021	-2.5938	-1.9896	231.393	156.338	270.441	389.413	374.058	242.225	313.625	328.818	258.380	199.939	325.996	272.362	161.447	270.368	132.257	420.944	9.9329e-05	0.00086896	0.0015039	367.49	7.1294e-06	1.9881e-05	350.26	92.557	1.0467e-05	2.4978e-05	91.245	34.449	32.239	10.935	1.1077e-05	11.813	0.060596	0.11175	0.032017	736.13	0.0011012	0.0012538	773.09	229.72	0.0011134	0.0012649	827.19	107.49	106.12	32.62	0.0012366	42.703	224.227	357.619	182.961	92.000	364.633	211.193	91.622	99.692	349.229	299.702	96.978	101.697	105.089	110.230	229.117	104.350	-8191	255	
1115.439	1	1	0	0	0.17842	0.060411	0.16022	0.065483	0.029244	0.19899	0.045835	0.25879	0.058578	0.061678	0.11463	0.12186	0.2831	0.21057	0.12557	0.074113	-2.3875	-2.2542	-2.0729	-2.9021	-2.0854	-2.3917	-2.625	-1.9458	-2.6854	-2.2583	-2.0875	-2.5104	-2.2667	-2.2729	-2.7	-2.0687	336.789	254.176	186.037	119.000	290.352	124.863	84.271	106.438	291.900	381.085	382.020	103.123	196.852	390.955	188.333	272.352	0.00012982	0.0034509	0.00046415	371.29	9.0368e-06	6.3934e-06	349.16	94.416	5.011e-06	2.5654e-05	97.042	34.931	32.86	10.747	2.0952e-05	11.643	0.062639	0.11812	0.034032	758	0.0011438	0.0013248	796.66	235.95	0.0011368	0.00131	850.23	108.04	106.33	33.069	0.0012477	42.487	257.513	82.682	287.760	91.340	413.967	380.871	90.427	99.188	191.067	141.478	97.597	101.214	105.199	110.160	112.606	104.723	-8191	255	
1115.535	1	1	0	0	0.040412	0.20786	0.1105	0.25158	0.13484	0.085596	0.29839	0.21905	0.44172	0.34306	0.17387	0.15192	0.046498	0.1651	0.03482	0.23986	-2.3521	-2.1646	-1.8354	-2.7458	-2.2417	-2.2938	-2.7021	-1.875	-2.6542	-2.3417	-1.9979	-2.5771	-2.0312	-2.0854	-2.5604	-2.1958	227.453	354.940	336.181	429.269	222.060	210.404	388.963	318.177	371.382	164.178	266.942	300.786	393.963	94.080	147.085	154.052	0.00029066	0.0021937	0.00051181	366.48	5.7513e-06	2.4079e-05	348.28	94.87	1.7692e-05	2.7071e-05	94.859	36.339	34.366	11.687	4.6708e-05	12.319	0.061858	0.11931	0.03404	748.16	0.0011248	0.0013354	792.42	234.84	0.0011252	0.001325	851.4	108.86	107.49	34.019	0.0012396	42.363	379.395	178.349	211.230	92.163	285.995	264.124	90.538	99.199	128.823	233.130	97.361	100.863	105.223	109.513	421.873	105.612	-8191	255	
1115.631	1	1	0	0	0.079397	0.14705	0.28845	0.23892	0.17521	0.11043	0.13252	0.43259	0.14309	0.11108	0.1561	0.083653	0.17572	0.16563	0.10071	0.2311	-2.0458	-2.4479	-1.8312	-2.8167	-2.225	-1.9438	-2.9667	-2.0354	-2.4271	-2.6792	-1.8083	-2.7438	-2.3208	-2.0396	-2.4292	-2.2021	173.145	418.889	106.716	160.927	440.366	264.716	368.152	406.512	230.342	131.576	424.544	86.645	92.185	141.798	432.079	385.820	5.9153e-05	0.0012709	0.00065295	372.34	2.9615e-05	2.6157e-05	360.21	99.081	1.25e-05	8.2517e-06	102.37	37.756	35.49	11.754	1.0208e-05	12.413	0.06114	0.1192	0.033435	743.71	0.0011069	0.0013241	790.15	233.28	0.0010959	0.0012889	824.3	106.11	106.24	33.433	0.0011814	40.851	157.715	133.963	374.597	91.243	205.282	245.183	90.062	98.898	221.584	414.937	98.291	101.025	104.784	108.375	416.055	105.055	-8191	255	
