BOXY.EXE: ISS Imagent and Oximeter Data Acquisition Program Version 0.80
Ascii Record File

#ACQ INFORMATION
2  Detector Channels 
16  External MUX Channels 
1  Auxiliary Channels 
5000  Waveform (CCF) Frequency (Hz)
1  Waveforms Skipped 
30  Waveforms Averaged 
1  Cycles Averaged 
16  Acquisitions per Waveform 
10.0806  Updata Rate (Hz) 

#FILE INFORMATION
TRUE -- External MUX Channel results are PARSED.
FALSE -- AC DC and Phase are NOT grouped.
TRUE -- Companion Program Settings File CREATED.
FALSE -- AC data not excluded
FALSE -- DC data not excluded
FALSE -- Phase data not excluded
FALSE -- Auxillary Chn. data not excluded
Tab delimiters

#CALIBRATION STATE
TRUE -- Waveform Calibration Values APPLIED.


#AUX CALIBRATION VALUES
Val Type	aux-1	

Term	1.0000e+00	
Factor	0.0000e+00	


#WF CALIBRATION VALUES
A = Detector Channel
Val Type	A-AC1	A-AC2	A-AC3	A-AC4	A-AC5	A-AC6	A-AC7	A-AC8	A-AC9	A-AC10	A-AC11	A-AC12	A-AC13	A-AC14	A-AC15	A-AC16	A-DC1	A-DC2	A-DC3	A-DC4	A-DC5	A-DC6	A-DC7	A-DC8	A-DC9	A-DC10	A-DC11	A-DC12	A-DC13	A-DC14	A-DC15	A-DC16	A-Ph1	A-Ph2	A-Ph3	A-Ph4	A-Ph5	A-Ph6	A-Ph7	A-Ph8	A-Ph9	A-Ph10	A-Ph11	A-Ph12	A-Ph13	A-Ph14	A-Ph15	A-Ph16	

Term	0.00000e+00	0.00000e+00	0.00000e+00	0.00000e+00	0.00000e+00	0.00000e+00	0.00000e+00	0.00000e+00	0.00000e+00	0.00000e+00	0.00000e+00	0.00000e+00	0.00000e+00	0.00000e+00	0.00000e+00	0.00000e+00	0.00000e+00	0.00000e+00	0.00000e+00	0.00000e+00	0.00000e+00	0.00000e+00	0.00000e+00	0.00000e+00	0.00000e+00	0.00000e+00	0.00000e+00	0.00000e+00	0.00000e+00	0.00000e+00	0.00000e+00	0.00000e+00	0.00000e+00	0.00000e+00	0.00000e+00	0.00000e+00	0.00000e+00	0.00000e+00	0.00000e+00	0.00000e+00	0.00000e+00	0.00000e+00	0.00000e+00	0.00000e+00	0.00000e+00	0.00000e+00	0.00000e+00	0.00000e+00	
Factor	1.00000e+00	1.00000e+00	1.00000e+00	1.00000e+00	1.00000e+00	1.00000e+00	1.00000e+00	1.00000e+00	1.00000e+00	1.00000e+00	1.00000e+00	1.00000e+00	1.00000e+00	1.00000e+00	1.00000e+00	1.00000e+00	1.00000e+00	1.00000e+00	1.00000e+00	1.00000e+00	1.00000e+00	1.00000e+00	1.00000e+00	1.00000e+00	1.00000e+00	1.00000e+00	1.00000e+00	1.00000e+00	1.00000e+00	1.00000e+00	1.00000e+00	1.00000e+00	X	X	X	X	X	X	X	X	X	X	X	X	X	X	X	X	

B = Detector Channel
Val Type	B-AC1	B-AC2	B-AC3	B-AC4	B-AC5	B-AC6	B-AC7	B-AC8	B-AC9	B-AC10	B-AC11	B-AC12	B-AC13	B-AC14	B-AC15	B-AC16	B-DC1	B-DC2	B-DC3	B-DC4	B-DC5	B-DC6	B-DC7	B-DC8	B-DC9	B-DC10	B-DC11	B-DC12	B-DC13	B-DC14	B-DC15	B-DC16	B-Ph1	B-Ph2	B-Ph3	B-Ph4	B-Ph5	B-Ph6	B-Ph7	B-Ph8	B-Ph9	B-Ph10	B-Ph11	B-Ph12	B-Ph13	B-Ph14	B-Ph15	B-Ph16	

Term	0.00000e+00	0.00000e+00	0.00000e+00	0.00000e+00	0.00000e+00	0.00000e+00	0.00000e+00	0.00000e+00	0.00000e+00	0.00000e+00	0.00000e+00	0.00000e+00	0.00000e+00	0.00000e+00	0.00000e+00	0.00000e+00	0.00000e+00	0.00000e+00	0.00000e+00	0.00000e+00	0.00000e+00	0.00000e+00	0.00000e+00	0.00000e+00	0.00000e+00	0.00000e+00	0.00000e+00	0.00000e+00	0.00000e+00	0.00000e+00	0.00000e+00	0.00000e+00	-4.82867e+01	-1.31521e+02	-1.29090e+02	-1.82778e+02	-5.00932e+01	-6.85385e+01	-1.59964e+02	-1.62015e+02	-3.45550e+01	-6.98819e+01	-1.78192e+02	-1.73211e+02	-1.80356e+02	-1.77624e+02	-4.73150e+01	-1.50550e+02	
Factor	2.03344e-05	1.89891e-04	5.74514e-05	1.58307e-01	1.90108e-06	2.09202e-06	1.94733e-01	5.79786e-02	1.52646e-06	2.11415e-06	3.21294e-01	3.10011e-02	3.06678e-02	9.11195e-03	1.92150e-06	1.28799e-02	1.37867e-05	2.61164e-05	7.30315e-06	8.26885e-02	2.52523e-07	2.92360e-07	9.52919e-02	3.04267e-02	2.52502e-07	2.89608e-07	1.62620e-01	1.57850e-02	1.63068e-02	4.82875e-03	2.67683e-07	6.59689e-03	X	X	X	X	X	X	X	X	X	X	X	X	X	X	X	X	



#DISTANCE SETTINGS
A = Detector Channel
A-1	A-2	A-3	A-4	A-5	A-6	A-7	A-8	A-9	A-10	A-11	A-12	A-13	A-14	A-15	A-16	

2.5000e+00	3.0000e+00	2.5000e+00	3.0000e+00	2.0000e+00	3.0000e+00	1.5000e+00	3.0000e+00	3.0000e+00	3.0000e+00	3.0000e+00	3.0000e+00	3.0000e+00	3.0000e+00	1.5000e+00	3.0000e+00	

B = Detector Channel
B-1	B-2	B-3	B-4	B-5	B-6	B-7	B-8	B-9	B-10	B-11	B-12	B-13	B-14	B-15	B-16	

1.0000e+01	1.0000e+01	1.0000e+01	1.4400e+00	1.0000e+01	1.0000e+01	1.5100e+00	1.9400e+00	1.0000e+01	1.0000e+01	1.9900e+00	2.4900e+00	2.4100e+00	2.9000e+00	1.0000e+01	2.9800e+00	




#DATA BEGINS
time	group	step	mark	flag	A-AC1	A-AC2	A-AC3	A-AC4	A-AC5	A-AC6	A-AC7	A-AC8	A-AC9	A-AC10	A-AC11	A-AC12	A-AC13	A-AC14	A-AC15	A-AC16	A-DC1	A-DC2	A-DC3	A-DC4	A-DC5	A-DC6	A-DC7	A-DC8	A-DC9	A-DC10	A-DC11	A-DC12	A-DC13	A-DC14	A-DC15	A-DC16	A-Ph1	A-Ph2	A-Ph3	A-Ph4	A-Ph5	A-Ph6	A-Ph7	A-Ph8	A-Ph9	A-Ph10	A-Ph11	A-Ph12	A-Ph13	A-Ph14	A-Ph15	A-Ph16	B-AC1	B-AC2	B-AC3	B-AC4	B-AC5	B-AC6	B-AC7	B-AC8	B-AC9	B-AC10	B-AC11	B-AC12	B-AC13	B-AC14	B-AC15	B-AC16	B-DC1	B-DC2	B-DC3	B-DC4	B-DC5	B-DC6	B-DC7	B-DC8	B-DC9	B-DC10	B-DC11	B-DC12	B-DC13	B-DC14	B-DC15	B-DC16	B-Ph1	B-Ph2	B-Ph3	B-Ph4	B-Ph5	B-Ph6	B-Ph7	B-Ph8	B-Ph9	B-Ph10	B-Ph11	B-Ph12	B-Ph13	B-Ph14	B-Ph15	B-Ph16	aux-1	digaux	

1200.981	1	1	0	256	0.096117	0.30239	0.047769	0.44224	0.15854	0.061729	0.13142	0.15064	0.23202	0.15328	0.22926	0.28419	0.041956	0.13357	0.45514	0.21474	-2.1063	-1.7021	-2.4396	-2.4562	-1.9083	-2.7	-2.0354	-2.1063	-2.6125	-1.8375	-2.3979	-2.2646	-1.8125	-2.5187	-1.9583	-1.9875	233.977	427.555	238.597	407.647	149.390	177.980	86.917	82.639	308.625	244.306	397.385	367.686	178.851	104.045	272.498	383.934	0.00016113	0.00071202	0.00053523	451.96	1.4677e-05	3.6173e-05	481.35	152.49	5.0031e-06	4.0672e-05	167.96	50.849	46.09	17.313	7.6098e-06	21.147	0.072866	0.135	0.037552	884.56	0.0013056	0.0014831	962.49	309.38	0.0012897	0.0014519	990.87	132.84	130.06	42.337	0.001386	56.035	315.842	380.940	378.662	91.346	234.764	391.623	90.901	98.037	316.584	293.784	95.735	100.342	103.440	108.220	232.890	104.668	-8191	255	
1201.077	1	1	0	0	0.19966	0.10425	0.060736	0.21174	0.20664	0.060569	0.11563	0.043658	0.11446	0.116	0.20507	0.10083	0.13986	0.12527	0.067592	0.17999	-2.2396	-1.7563	-2.2021	-2.3729	-1.7479	-2.4792	-2.2188	-1.9604	-2.6729	-1.7583	-2.1375	-2.3542	-1.7292	-2.6292	-2.2542	-1.9104	183.743	109.114	109.253	362.671	170.544	323.734	396.470	410.614	344.673	279.157	270.298	286.538	380.160	285.118	327.306	175.845	9.3616e-05	0.001155	0.0014189	444.74	1.927e-05	3.0031e-05	468.86	148.97	2.4498e-05	3.6589e-05	160.17	49.909	44.787	17.145	2.1729e-05	20.589	0.072215	0.13463	0.038306	889.13	0.0013301	0.001529	980.31	315.86	0.0013569	0.0015526	1054.5	138.37	136.03	44.541	0.001538	59.306	290.789	258.758	198.175	91.191	427.891	324.435	90.686	96.889	79.607	230.611	95.167	99.867	103.757	108.080	182.055	104.548	-8191	255	
1201.173	1	1	0	0	0.051886	0.22634	0.172	0.37059	0.090378	0.076628	0.12177	0.15532	0.16095	0.2327	0.1333	0.16433	0.22056	0.13248	0.07992	0.12522	-2.3688	-1.7375	-2.0979	-2.6896	-1.8021	-2.5	-2.3292	-2.0125	-2.6708	-1.9667	-2.1854	-2.5771	-1.8542	-2.4875	-2.2917	-1.7792	131.544	368.636	399.672	399.208	100.211	176.908	429.105	380.841	415.581	93.091	418.638	399.206	355.160	357.855	369.827	406.457	0.00042561	0.003807	0.00085289	444.39	2.468e-05	2.9761e-05	468.04	149.32	8.8909e-06	2.2523e-05	155.12	48.864	44.777	16.966	2.6329e-05	20.363	0.080549	0.15329	0.044429	956.45	0.0015498	0.001824	1078.7	346.2	0.0016127	0.0018789	1237.5	154.72	152	49.341	0.001797	64.909	330.314	120.677	171.036	91.423	93.857	329.937	90.236	97.447	240.227	176.772	93.649	99.848	103.246	107.826	210.439	103.750	-8191	255	
1201.270	1	1	0	0	0.099194	0.16799	0.23878	0.16487	0.065823	0.30656	0.1481	0.21307	0.20839	0.1144	0.26313	0.16491	0.12747	0.11782	0.11068	0.20515	-2.0771	-2.0646	-1.8708	-2.7979	-1.5625	-2.2875	-2.4104	-1.7833	-2.3333	-2.0438	-1.875	-2.6479	-2.0208	-2.1354	-2.5479	-1.6979	375.486	415.709	141.914	124.675	384.618	148.541	102.385	435.206	184.728	399.059	147.145	227.255	249.531	257.117	194.830	244.927	0.00031078	0.0011882	0.00062801	442.96	1.6158e-05	2.4491e-05	462.28	150.46	1.7756e-05	1.8341e-05	157.38	49.867	45.275	17.305	2.9076e-05	20.663	0.091125	0.17429	0.049666	1007.8	0.0016935	0.0020035	1132.9	362.56	0.0017383	0.0020351	1320.8	163.02	161.38	52.65	0.0019595	69.212	197.816	161.904	198.426	91.140	288.515	194.995	90.050	96.758	277.208	214.670	95.220	99.857	102.850	107.983	96.702	103.437	-8191	255	
1201.366	1	1	0	0	0.1089	0.27046	0.13857	0.11613	0.11918	0.042577	0.16857	0.17797	0.070177	0.098694	0.098335	0.19196	0.20526	0.36183	0.077877	0.14025	-2.2125	-2.1104	-1.7938	-2.6625	-1.9729	-2.2125	-2.6042	-1.9125	-2.55	-2.2438	-2.0375	-2.5083	-1.8708	-2.0167	-2.6042	-1.8937	265.473	138.981	415.893	133.691	388.335	336.170	271.949	389.129	84.562	94.846	81.273	426.611	304.884	307.731	388.168	149.238	0.0002112	0.00089616	0.00062391	447.84	4.8088e-05	1.7726e-05	462.07	150.77	1.5716e-05	1.0755e-05	152.03	49.719	45.405	17.116	2.0238e-05	20.359	0.10032	0.19404	0.054824	1067.1	0.0018872	0.0022435	1206.8	386.45	0.0019593	0.0023053	1461.4	175.59	176.34	57.015	0.0021831	73.693	279.794	380.070	157.595	91.414	234.911	434.789	89.785	97.042	337.841	189.341	94.320	99.052	103.048	108.147	108.776	102.801	-8191	255	
1201.462	1	1	0	0	0.13118	0.088451	0.35574	0.23893	0.11835	0.22863	0.19165	0.063858	0.042401	0.064817	0.16463	0.07444	0.2078	0.070856	0.24279	0.23421	-2.1646	-2.1208	-1.8333	-2.6292	-1.8979	-1.9958	-2.7562	-1.8563	-2.3875	-2.4333	-1.7083	-2.8333	-2.0312	-2.1167	-2.5542	-1.9875	334.816	266.809	174.387	421.893	118.254	429.567	374.982	375.338	250.088	434.180	434.897	105.506	363.182	264.814	304.872	365.539	0.00053182	0.0036733	0.00052692	443.45	1.4417e-05	4.097e-05	458.64	149.75	1.6537e-05	2.7019e-05	160.31	49.91	44.903	17.168	2.1989e-05	20.65	0.111	0.21187	0.058761	1099.5	0.0019921	0.0023226	1208.8	385.4	0.0019488	0.0022468	1406.6	169.6	170.48	54.854	0.0020336	70.594	203.009	111.345	410.210	91.144	165.974	120.109	90.140	97.186	422.144	304.622	94.882	98.912	103.380	107.946	203.560	103.891	-8191	255	
1201.558	1	1	0	0	0.22114	0.27325	0.18076	0.076491	0.18345	0.076591	0.23623	0.15959	0.24413	0.017574	0.41289	0.37475	0.30699	0.17305	0.29026	0.11655	-2	-2.4917	-1.7771	-2.7333	-2.0521	-1.8104	-2.5896	-1.9312	-2.2458	-2.4729	-1.7354	-2.6042	-2.1875	-1.8188	-2.5896	-1.7604	157.904	230.616	269.200	113.725	336.039	227.843	338.431	384.078	221.853	326.420	128.718	437.530	408.057	387.572	436.228	434.048	0.00034818	0.003495	0.00021474	443.69	8.6952e-06	9.0257e-06	461.68	149.85	1.9248e-05	1.7623e-05	155	49.294	45.377	16.872	1.0414e-05	20.318	0.10545	0.20069	0.055532	1070.1	0.0019309	0.002246	1185.1	379.94	0.0019279	0.0022109	1374.5	167.66	168.72	53.846	0.0019779	69.541	223.399	430.737	417.073	91.478	302.786	425.972	90.508	97.109	351.623	354.592	95.203	100.307	103.151	107.680	287.407	103.667	-8191	255	
1201.654	1	1	0	0	0.13166	0.34261	0.084498	0.086884	0.045931	0.38262	0.35468	0.10079	0.19014	0.25411	0.024331	0.27315	0.20537	0.16526	0.22426	0.28175	-1.7021	-2.4458	-1.7854	-2.5542	-2.1896	-1.9937	-2.6104	-1.8479	-2.1208	-2.6312	-1.7313	-2.3375	-2.3396	-1.8146	-2.6688	-2.0417	84.807	379.601	285.424	380.896	178.611	297.975	360.462	416.143	126.672	383.895	199.487	79.860	150.891	180.936	420.214	390.725	0.00036746	0.0044235	0.0017264	440.39	1.4983e-05	5.0403e-06	457.58	149.41	3.3561e-05	3.1961e-05	158.45	48.821	44.884	16.604	3.4886e-05	20.128	0.1038	0.19602	0.053905	1060	0.0018921	0.0021847	1165.4	373.93	0.001873	0.0021244	1325.2	163.32	163.01	51.605	0.0018729	66.816	197.193	328.401	366.883	92.111	268.460	212.769	90.313	97.759	285.959	404.222	97.191	99.603	103.517	108.557	155.333	103.888	-8191	255	
1201.773	1	1	0	0	0.28592	0.20093	0.16247	0.06705	0.15413	0.063691	0.17348	0.078852	0.08146	0.24802	0.040591	0.14222	0.072067	0.29075	0.11606	0.22849	-1.7104	-2.6	-1.6354	-2.4979	-2.4	-1.95	-2.6104	-2.1333	-1.8917	-2.7167	-1.9729	-2.3354	-2.4313	-1.7271	-2.4667	-2.1229	252.161	172.956	249.623	164.363	247.437	405.839	86.692	90.478	100.376	179.650	266.097	240.428	246.126	131.988	171.521	354.182	0.00062825	0.0028328	0.00068478	440.49	8.3016e-06	5.6751e-05	460.6	146.24	2.9135e-05	6.3622e-05	154.3	47.954	43.75	16.543	3.0329e-05	19.41	0.097329	0.18112	0.049797	1013.9	0.0017469	0.0019985	1109.9	357.86	0.001756	0.0019937	1271.6	158.94	158.99	50.643	0.0018605	66.42	249.852	343.352	182.657	91.605	334.683	126.513	90.851	97.900	106.948	299.652	91.982	99.968	103.217	108.155	192.517	103.292	-8191	255	
1201.869	1	1	0	0	0.11461	0.10204	0.15972	0.12294	0.18171	0.19062	0.21219	0.27736	0.10602	0.33315	0.21393	0.12358	0.21558	0.054325	0.070747	0.27639	-1.7979	-2.6604	-1.9188	-2.3167	-2.4583	-1.8188	-2.5646	-2.3271	-1.8021	-2.4667	-1.8542	-2.4062	-2.6604	-1.7	-2.4562	-2.3	431.386	353.041	197.142	154.324	318.463	332.421	250.476	85.452	197.782	396.975	413.859	314.233	402.224	248.385	359.602	302.857	0.00054254	0.0058161	0.00083976	432	4.8933e-06	2.8744e-05	456.7	144.81	1.467e-05	1.4794e-05	157.11	47.462	43.704	16.408	1.6815e-05	19.322	0.097848	0.18262	0.050854	1025.9	0.0017848	0.0020408	1125.3	363.43	0.0017915	0.0020266	1297.3	160.53	160.19	50.78	0.0018897	66.801	226.337	109.499	142.525	91.239	393.734	309.384	90.652	97.857	283.712	264.209	94.069	100.383	103.250	108.192	184.772	104.678	-8191	255	
1201.941	1	1	0	0	0.21278	0.24974	0.11417	0.091721	0.12647	0.090986	0.15716	0.1117	0.12635	0.18915	0.36122	0.23831	0.14712	0.19139	0.21935	0.087246	-1.5042	-2.4792	-1.9083	-2.1542	-2.4833	-1.75	-2.4979	-2.1708	-1.9104	-2.5771	-1.9271	-2.1437	-2.5625	-1.8625	-2.1979	-2.1729	397.016	240.451	308.469	102.754	236.373	385.527	244.895	95.438	183.338	161.982	331.179	418.014	407.875	80.522	87.139	81.526	0.00029363	0.003424	0.00065	436.22	2.7598e-06	4.0828e-05	460.39	145.43	3.3178e-05	9.071e-06	151.82	47.519	43.311	16.536	3.7006e-05	19.962	0.097536	0.18243	0.05146	1026.5	0.0017737	0.0020356	1130.2	360.76	0.0017614	0.0020001	1290.5	158.84	156.99	50.064	0.0018563	66.156	193.149	170.502	121.117	91.784	416.093	340.251	90.644	97.372	354.958	334.187	95.017	99.235	102.641	108.887	390.266	103.396	-8191	255	
1202.061	1	1	0	0	0.1947	0.13094	0.23123	0.18178	0.19375	0.091691	0.029901	0.097936	0.2371	0.21166	0.14649	0.18613	0.39585	0.27558	0.10169	0.16146	-1.4521	-2.5542	-1.875	-1.9979	-2.5708	-1.7396	-2.1896	-2.625	-1.7167	-2.6354	-2.2562	-1.9354	-2.6646	-1.8646	-2.4	-2.6333	376.701	352.934	317.564	391.445	387.128	400.996	269.197	295.173	410.387	405.499	327.974	360.217	248.280	99.851	404.446	424.542	0.00051184	0.0026402	0.00084901	433.75	5.0321e-05	2.0301e-05	455.73	143.94	3.4712e-05	6.0849e-05	160.02	46.91	43.791	16.423	1.8905e-05	19.37	0.094377	0.17817	0.050384	1008.1	0.0017186	0.0019882	1115.5	356.25	0.0017067	0.001967	1269.2	155.48	152.98	49.225	0.001799	63.77	205.930	84.908	414.730	91.656	298.555	225.676	90.582	97.580	328.134	247.454	94.298	99.353	102.832	108.130	176.888	103.812	-8191	255	
1202.158	1	1	0	0	0.35903	0.25167	0.17047	0.14656	0.063487	0.21932	0.069549	0.23947	0.10482	0.12977	0.18561	0.068745	0.19907	0.23021	0.31043	0.022648	-1.3771	-2.3646	-2.3125	-1.925	-2.5333	-1.8521	-2.2125	-2.3583	-1.9542	-2.6312	-2.2812	-1.9021	-2.6063	-2.0625	-2.125	-2.6396	316.059	439.421	378.771	423.221	300.329	324.995	189.709	382.322	266.977	306.877	337.528	128.101	411.845	329.964	435.799	436.361	0.00020841	0.0011319	0.0015436	427.26	2.0987e-05	2.1697e-05	449.97	142.78	1.2073e-05	4.9376e-05	148.61	47.322	42.95	16.548	2.0352e-05	19.582	0.090049	0.17148	0.0481	973.41	0.0016288	0.0018991	1076.4	342.63	0.0016218	0.001887	1215.7	149.79	148.54	48.318	0.0017481	62.597	259.247	289.144	224.637	91.402	238.728	314.110	90.971	97.768	436.452	259.672	93.753	100.687	103.978	108.388	87.487	104.434	-8191	255	
1202.254	1	1	0	0	0.11194	0.18359	0.15371	0.049861	0.15981	0.18515	0.095035	0.10425	0.23077	0.087206	0.21023	0.23557	0.20313	0.21239	0.12394	0.023598	-1.5604	-2.4813	-2.5229	-1.8542	-2.6688	-1.8813	-2.0104	-2.7917	-1.9625	-2.3875	-2.5104	-1.7458	-2.4604	-2.1604	-1.9979	-2.6229	258.141	401.009	366.546	360.481	119.082	341.813	373.250	384.361	242.808	97.548	284.744	101.114	397.283	189.239	407.246	120.807	0.00044187	0.0015806	0.0011181	424.31	1.909e-05	1.5021e-05	449.99	143.18	1.895e-05	1.9198e-05	151.31	47.286	42.547	16.346	1.9903e-05	19.664	0.088614	0.16991	0.04756	962.17	0.0016224	0.0019054	1074.3	340.6	0.0016296	0.0018998	1215.7	149.21	148.81	48.371	0.0017466	62.191	249.458	136.163	428.147	91.381	246.154	148.509	90.622	97.561	308.368	254.584	96.735	101.518	103.716	107.630	338.986	104.200	-8191	255	
1202.350	1	1	0	0	0.17357	0.13422	0.26202	0.15331	0.12523	0.215	0.17169	0.073269	0.30626	0.040866	0.081221	0.086398	0.26144	0.16217	0.15183	0.1326	-1.3667	-2.3417	-2.4833	-1.8021	-2.7292	-2.1146	-1.9583	-2.7417	-1.9146	-2.1417	-2.5812	-1.7563	-2.4625	-2.3438	-1.7188	-2.6208	425.815	193.158	291.006	296.143	86.217	247.699	227.909	418.098	113.898	352.270	406.302	348.924	427.290	387.424	108.425	383.746	0.00031312	0.0025961	0.00079905	429.11	1.6545e-05	5.0672e-05	448.8	141.65	1.5258e-05	1.1715e-05	146.69	46.182	42.313	16.167	1.1705e-05	19.311	0.088706	0.16974	0.04728	956.05	0.0016154	0.0018925	1064.1	336.04	0.0016066	0.0018752	1191.8	146.56	147.47	47.56	0.0017004	61.05	191.016	153.624	219.270	91.163	178.424	279.900	90.555	97.640	345.707	130.054	96.729	100.057	103.586	108.330	305.054	103.851	-8191	255	
1202.471	1	1	0	0	0.27265	0.083285	0.13666	0.13885	0.19553	0.13925	0.056369	0.18287	0.17514	0.15823	0.065257	0.17823	0.080091	0.16399	0.0090741	0.13651	-1.5312	-2.1729	-2.4354	-1.8146	-2.7333	-2.2229	-1.8333	-2.6458	-2.0438	-2.0771	-2.6667	-1.9125	-2.2938	-2.2646	-1.75	-2.5917	221.874	143.594	149.943	329.863	393.553	327.926	158.665	342.458	245.407	174.861	279.802	281.573	191.354	127.684	360.532	433.430	0.00039242	0.0055465	0.00031045	426.07	2.8269e-05	4.4984e-05	445.66	140.24	2.5455e-05	2.1283e-05	140.91	45.71	41.285	15.938	2.389e-06	18.845	0.087983	0.16688	0.046157	949.71	0.0016063	0.0018636	1049.1	333.02	0.0015945	0.0018351	1164.9	144.16	145.26	46.815	0.001654	60.077	260.276	137.326	249.510	91.591	89.230	353.101	90.530	98.111	338.241	94.308	97.592	99.991	104.166	108.067	304.388	104.155	-8191	255	
1202.542	1	1	0	0	0.15523	0.088057	0.15033	0.31246	0.10404	0.10322	0.16246	0.22529	0.25683	0.16939	0.063969	0.15427	0.16535	0.036248	0.182	0.13219	-1.5271	-1.9833	-2.5417	-1.7958	-2.3833	-2.3667	-1.8979	-2.7438	-1.9854	-2.0312	-2.7042	-1.8646	-2.3917	-2.8208	-2.0104	-2.5667	214.366	220.048	299.998	126.316	229.724	325.075	302.487	261.477	303.042	102.147	350.870	415.621	319.052	123.801	85.446	251.757	0.00010022	0.0018297	0.00097829	422.87	2.6452e-05	8.2118e-06	438.13	140.5	6.4089e-06	2.3875e-05	140.82	45.103	40.954	16.05	2.0555e-05	19.045	0.086071	0.16302	0.044692	931.36	0.0015603	0.0017924	1015	326.25	0.0015346	0.0017465	1114.7	140.5	141.01	45.452	0.0015806	58.756	295.145	85.604	320.684	91.760	188.584	339.580	90.409	97.854	266.691	252.680	96.957	99.729	103.310	108.180	328.849	104.215	-8191	255	
1202.663	1	1	0	0	0.30817	0.061357	0.24676	0.23842	0.22449	0.10797	0.10162	0.26528	0.16856	0.21296	0.29201	0.10791	0.28587	0.28127	0.063229	0.30355	-1.7104	-2.0271	-2.6854	-1.9625	-2.1667	-2.4625	-1.9104	-2.375	-2.1958	-1.6458	-2.4083	-1.7958	-2.2833	-2.5312	-1.8875	-2.5833	381.612	325.117	340.425	283.055	256.302	98.181	95.421	380.083	97.009	112.465	427.503	256.451	83.121	204.830	359.086	432.266	0.00015834	0.0014961	0.00054255	421.32	1.592e-05	1.7285e-05	443.75	139.49	1.7753e-05	3.7617e-05	149.69	46.239	41.392	16.163	2.7536e-05	19.191	0.082901	0.15561	0.043057	915.17	0.0015091	0.001729	1003.5	322.1	0.0014974	0.0016918	1097.9	139.3	138.92	44.698	0.0015557	58.481	231.274	368.326	229.103	92.391	213.752	359.026	91.182	97.559	349.105	394.289	93.518	100.353	103.560	107.943	430.333	104.104	-8191	255	
