BOXY.EXE: ISS Imagent and Oximeter Data Acquisition Program Version 0.80
Ascii Record File

#ACQ INFORMATION
2  Detector Channels 
16  External MUX Channels 
1  Auxiliary Channels 
5000  Waveform (CCF) Frequency (Hz)
1  Waveforms Skipped 
30  Waveforms Averaged 
1  Cycles Averaged 
16  Acquisitions per Waveform 
10.0806  Updata Rate (Hz) 

#FILE INFORMATION
TRUE -- External MUX Channel results are PARSED.
FALSE -- AC DC and Phase are NOT grouped.
TRUE -- Companion Program Settings File CREATED.
FALSE -- AC data not excluded
FALSE -- DC data not excluded
FALSE -- Phase data not excluded
FALSE -- Auxillary Chn. data not excluded
Tab delimiters

#CALIBRATION STATE
TRUE -- Waveform Calibration Values APPLIED.


#AUX CALIBRATION VALUES
Val Type	aux-1	

Term	1.0000e+00	
Factor	0.0000e+00	


#WF CALIBRATION VALUES
A = Detector Channel
Val Type	A-AC1	A-AC2	A-AC3	A-AC4	A-AC5	A-AC6	A-AC7	A-AC8	A-AC9	A-AC10	A-AC11	A-AC12	A-AC13	A-AC14	A-AC15	A-AC16	A-DC1	A-DC2	A-DC3	A-DC4	A-DC5	A-DC6	A-DC7	A-DC8	A-DC9	A-DC10	A-DC11	A-DC12	A-DC13	A-DC14	A-DC15	A-DC16	A-Ph1	A-Ph2	A-Ph3	A-Ph4	A-Ph5	A-Ph6	A-Ph7	A-Ph8	A-Ph9	A-Ph10	A-Ph11	A-Ph12	A-Ph13	A-Ph14	A-Ph15	A-Ph16	

Term	0.00000e+00	0.00000e+00	0.00000e+00	0.00000e+00	0.00000e+00	0.00000e+00	0.00000e+00	0.00000e+00	0.00000e+00	0.00000e+00	0.00000e+00	0.00000e+00	0.00000e+00	0.00000e+00	0.00000e+00	0.00000e+00	0.00000e+00	0.00000e+00	0.00000e+00	0.00000e+00	0.00000e+00	0.00000e+00	0.00000e+00	0.00000e+00	0.00000e+00	0.00000e+00	0.00000e+00	0.00000e+00	0.00000e+00	0.00000e+00	0.00000e+00	0.00000e+00	0.00000e+00	0.00000e+00	0.00000e+00	0.00000e+00	0.00000e+00	0.00000e+00	0.00000e+00	0.00000e+00	0.00000e+00	0.00000e+00	0.00000e+00	0.00000e+00	0.00000e+00	0.00000e+00	0.00000e+00	0.00000e+00	
Factor	1.00000e+00	1.00000e+00	1.00000e+00	1.00000e+00	1.00000e+00	1.00000e+00	1.00000e+00	1.00000e+00	1.00000e+00	1.00000e+00	1.00000e+00	1.00000e+00	1.00000e+00	1.00000e+00	1.00000e+00	1.00000e+00	1.00000e+00	1.00000e+00	1.00000e+00	1.00000e+00	1.00000e+00	1.00000e+00	1.00000e+00	1.00000e+00	1.00000e+00	1.00000e+00	1.00000e+00	1.00000e+00	1.00000e+00	1.00000e+00	1.00000e+00	1.00000e+00	X	X	X	X	X	X	X	X	X	X	X	X	X	X	X	X	

B = Detector Channel
Val Type	B-AC1	B-AC2	B-AC3	B-AC4	B-AC5	B-AC6	B-AC7	B-AC8	B-AC9	B-AC10	B-AC11	B-AC12	B-AC13	B-AC14	B-AC15	B-AC16	B-DC1	B-DC2	B-DC3	B-DC4	B-DC5	B-DC6	B-DC7	B-DC8	B-DC9	B-DC10	B-DC11	B-DC12	B-DC13	B-DC14	B-DC15	B-DC16	B-Ph1	B-Ph2	B-Ph3	B-Ph4	B-Ph5	B-Ph6	B-Ph7	B-Ph8	B-Ph9	B-Ph10	B-Ph11	B-Ph12	B-Ph13	B-Ph14	B-Ph15	B-Ph16	

Term	0.00000e+00	0.00000e+00	0.00000e+00	0.00000e+00	0.00000e+00	0.00000e+00	0.00000e+00	0.00000e+00	0.00000e+00	0.00000e+00	0.00000e+00	0.00000e+00	0.00000e+00	0.00000e+00	0.00000e+00	0.00000e+00	0.00000e+00	0.00000e+00	0.00000e+00	0.00000e+00	0.00000e+00	0.00000e+00	0.00000e+00	0.00000e+00	0.00000e+00	0.00000e+00	0.00000e+00	0.00000e+00	0.00000e+00	0.00000e+00	0.00000e+00	0.00000e+00	-4.82867e+01	-1.31521e+02	-1.29090e+02	-1.82778e+02	-5.00932e+01	-6.85385e+01	-1.59964e+02	-1.62015e+02	-3.45550e+01	-6.98819e+01	-1.78192e+02	-1.73211e+02	-1.80356e+02	-1.77624e+02	-4.73150e+01	-1.50550e+02	
Factor	2.03344e-05	1.89891e-04	5.74514e-05	1.58307e-01	1.90108e-06	2.09202e-06	1.94733e-01	5.79786e-02	1.52646e-06	2.11415e-06	3.21294e-01	3.10011e-02	3.06678e-02	9.11195e-03	1.92150e-06	1.28799e-02	1.37867e-05	2.61164e-05	7.30315e-06	8.26885e-02	2.52523e-07	2.92360e-07	9.52919e-02	3.04267e-02	2.52502e-07	2.89608e-07	1.62620e-01	1.57850e-02	1.63068e-02	4.82875e-03	2.67683e-07	6.59689e-03	X	X	X	X	X	X	X	X	X	X	X	X	X	X	X	X	



#DISTANCE SETTINGS
A = Detector Channel
A-1	A-2	A-3	A-4	A-5	A-6	A-7	A-8	A-9	A-10	A-11	A-12	A-13	A-14	A-15	A-16	

2.5000e+00	3.0000e+00	2.5000e+00	3.0000e+00	2.0000e+00	3.0000e+00	1.5000e+00	3.0000e+00	3.0000e+00	3.0000e+00	3.0000e+00	3.0000e+00	3.0000e+00	3.0000e+00	1.5000e+00	3.0000e+00	

B = Detector Channel
B-1	B-2	B-3	B-4	B-5	B-6	B-7	B-8	B-9	B-10	B-11	B-12	B-13	B-14	B-15	B-16	

1.0000e+01	1.0000e+01	1.0000e+01	1.4400e+00	1.0000e+01	1.0000e+01	1.5100e+00	1.9400e+00	1.0000e+01	1.0000e+01	1.9900e+00	2.4900e+00	2.4100e+00	2.9000e+00	1.0000e+01	2.9800e+00	




#DATA BEGINS
time	group	step	mark	flag	A-AC1	A-AC2	A-AC3	A-AC4	A-AC5	A-AC6	A-AC7	A-AC8	A-AC9	A-AC10	A-AC11	A-AC12	A-AC13	A-AC14	A-AC15	A-AC16	A-DC1	A-DC2	A-DC3	A-DC4	A-DC5	A-DC6	A-DC7	A-DC8	A-DC9	A-DC10	A-DC11	A-DC12	A-DC13	A-DC14	A-DC15	A-DC16	A-Ph1	A-Ph2	A-Ph3	A-Ph4	A-Ph5	A-Ph6	A-Ph7	A-Ph8	A-Ph9	A-Ph10	A-Ph11	A-Ph12	A-Ph13	A-Ph14	A-Ph15	A-Ph16	B-AC1	B-AC2	B-AC3	B-AC4	B-AC5	B-AC6	B-AC7	B-AC8	B-AC9	B-AC10	B-AC11	B-AC12	B-AC13	B-AC14	B-AC15	B-AC16	B-DC1	B-DC2	B-DC3	B-DC4	B-DC5	B-DC6	B-DC7	B-DC8	B-DC9	B-DC10	B-DC11	B-DC12	B-DC13	B-DC14	B-DC15	B-DC16	B-Ph1	B-Ph2	B-Ph3	B-Ph4	B-Ph5	B-Ph6	B-Ph7	B-Ph8	B-Ph9	B-Ph10	B-Ph11	B-Ph12	B-Ph13	B-Ph14	B-Ph15	B-Ph16	aux-1	digaux	

1097.265	1	1	0	512	0.12043	0.16723	0.21092	0.27889	0.18863	0.095001	0.20959	0.081385	0.12137	0.077359	0.13066	0.023027	0.15909	0.21977	0.13271	0.13971	-1.6208	-2.2625	-2.7125	-2.1813	-2.4604	-2.5792	-1.9083	-2.6083	-2.2812	-2.2104	-2.7583	-2.15	-2.3917	-2.5062	-1.9917	-2.7812	157.916	160.114	406.527	359.378	291.953	120.216	328.641	366.863	209.831	382.626	290.258	167.121	361.615	114.805	121.495	103.942	0.00028183	0.0019087	0.00074124	517.55	3.7344e-05	1.9141e-05	507.81	123.92	7.7257e-06	2.014e-05	127.44	45.526	44.882	14.968	1.3426e-05	15.493	0.053129	0.097327	0.027821	842.38	0.00095891	0.0010815	871.07	243.31	0.00094757	0.0010606	741.1	106.69	106.15	33.076	0.0010089	40.624	329.905	133.449	434.401	91.359	296.712	152.803	90.432	98.171	349.893	225.089	96.709	100.065	104.072	108.479	395.561	103.929	-8191	255	
1097.361	1	1	0	0	0.12225	0.17163	0.042344	0.18691	0.18223	0.25308	0.16282	0.17025	0.18305	0.048998	0.084692	0.061017	0.16093	0.086374	0.14749	0.17912	-1.9604	-2.0354	-2.7708	-2.1188	-2.7062	-2.5458	-1.9813	-2.4833	-2.2604	-2.1688	-2.7	-1.9583	-2.3042	-2.6292	-2.0583	-2.6417	213.487	240.304	284.547	415.530	256.442	291.771	414.275	348.323	259.866	143.848	220.510	213.879	357.790	267.208	235.751	298.787	0.00019389	0.0020756	0.0008625	512.42	1.6199e-05	1.6417e-05	505.86	126.13	5.8834e-06	1.2497e-05	123.87	45.344	44.614	14.798	5.9154e-06	14.541	0.050491	0.09418	0.027252	822.95	0.0009161	0.001058	863.08	241.64	0.00092356	0.0010715	752.64	107.36	106.96	33.74	0.0010879	41.596	124.576	141.471	174.603	91.409	166.648	181.303	89.799	98.279	365.190	424.815	94.161	100.277	104.288	108.544	296.796	104.085	-8191	255	
1097.457	1	1	0	0	0.11247	0.18013	0.0801	0.19288	0.10305	0.1724	0.22965	0.072724	0.22583	0.20673	0.36987	0.063324	0.064622	0.18744	0.1203	0.053127	-1.9	-2.1854	-2.8021	-2.2292	-2.3187	-2.6875	-1.9854	-2.6292	-2.375	-1.9083	-2.7188	-2.0396	-2.1917	-2.7354	-1.8646	-2.6104	104.881	332.982	245.531	438.698	132.907	372.700	100.386	375.113	81.646	426.052	277.331	227.656	365.585	434.506	220.580	102.533	0.00029172	0.00095199	0.00035622	527.25	4.3049e-06	2.056e-05	519.02	126.95	1.8758e-05	3.7327e-05	121.77	46.836	46.024	14.943	1.952e-05	14.915	0.054	0.1047	0.030395	872.39	0.0010071	0.0012024	924.25	253.91	0.0010185	0.0012116	823.17	113.27	113.67	36.028	0.001174	43.909	220.415	252.177	234.177	91.512	338.253	209.448	90.624	98.452	253.386	169.218	96.203	100.423	104.987	108.266	132.176	104.633	-8191	255	
1097.576	1	1	0	0	0.17194	0.056844	0.292	0.16237	0.11379	0.29849	0.19508	0.11288	0.24595	0.12424	0.16893	0.19622	0.1612	0.21091	0.23937	0.23239	-2.0104	-2.0208	-2.6937	-2.1167	-2.1333	-2.6271	-2.1979	-2.4979	-2.4542	-2.0104	-2.825	-2.2271	-2.0604	-2.8667	-2	-2.5417	369.859	337.899	296.950	335.236	406.985	275.960	408.190	178.721	287.084	316.281	382.583	142.923	159.541	330.839	348.584	137.378	0.00038822	0.0020364	0.00078597	532.24	1.2455e-05	2.466e-05	524.13	124.33	2.1823e-05	5.0452e-05	122.64	45.111	44.622	14.431	3.0457e-05	14.55	0.059363	0.11803	0.033612	906.51	0.0011302	0.0013695	971.53	264.9	0.0011391	0.0013561	884.21	116.41	118	37.078	0.0012293	44.088	317.696	382.686	272.852	91.438	385.896	110.749	90.123	98.160	105.691	203.473	93.839	100.117	105.423	109.060	414.532	104.009	-8191	255	
1097.672	1	1	0	0	0.18502	0.0086832	0.12629	0.24355	0.16729	0.14282	0.11201	0.19952	0.10942	0.16086	0.12014	0.012507	0.3604	0.13534	0.23187	0.16904	-2.3583	-1.9792	-2.4646	-2.3833	-2.0083	-2.8083	-2.1229	-2.3458	-2.4917	-1.8937	-2.7167	-2.3438	-2.0938	-2.925	-2.125	-2.2021	433.374	142.719	242.852	385.348	227.378	99.407	122.809	204.974	325.315	433.957	261.449	433.988	394.849	109.391	136.274	185.024	0.00040782	0.0021325	0.00081602	527.86	1.1878e-05	6.0677e-06	514.06	125.01	2.7337e-05	6.3055e-06	121.62	45.049	44.613	14.444	1.5215e-05	14.562	0.062043	0.1222	0.033936	900.82	0.0011547	0.0013871	959.79	263.43	0.001176	0.0013863	893.5	118.57	123.56	38.606	0.0012994	46.436	258.972	282.627	284.193	91.559	195.673	284.069	90.131	98.218	261.788	328.092	97.769	100.733	104.564	108.385	409.743	105.682	-8191	255	
1097.768	1	1	0	0	0.20472	0.12624	0.20856	0.2491	0.36433	0.066391	0.16901	0.17201	0.084251	0.14696	0.20071	0.16798	0.12269	0.32617	0.36889	0.21002	-2.1125	-1.8625	-2.6083	-2.6083	-1.8896	-2.6271	-2.0729	-2.2729	-2.7333	-2.0104	-2.4979	-2.4833	-2.1208	-2.8042	-2.1708	-2.1917	224.894	188.417	129.185	306.610	270.059	415.024	88.665	336.270	316.849	159.686	307.807	131.463	236.191	438.583	281.989	396.812	0.00047009	0.0033404	0.0012313	536.45	1.6087e-05	4.5168e-05	521.74	128.23	1.4312e-05	2.5038e-05	132.68	49.102	47.857	15.421	2.7421e-05	16.35	0.068384	0.13224	0.036268	941.76	0.0012821	0.001503	999.85	280.06	0.0013012	0.0015027	955.72	129.47	134.58	41.631	0.0013831	50.824	207.265	392.064	346.578	91.423	150.271	110.736	90.474	97.444	359.076	92.467	98.979	101.171	104.178	108.420	398.723	104.546	-8191	255	
1097.864	1	1	0	0	0.071682	0.12086	0.067157	0.12914	0.21047	0.21757	0.30825	0.29327	0.2041	0.23039	0.066449	0.040822	0.052517	0.20261	0.14973	0.18235	-2.3021	-2.0167	-2.3	-2.4875	-2.0375	-2.7354	-2.2896	-2.0542	-2.5708	-2.0687	-2.5667	-2.7375	-1.8667	-2.8083	-2.4208	-2.0438	409.017	310.753	350.499	88.063	134.825	274.223	386.740	287.250	328.486	358.936	323.799	291.428	286.357	437.777	147.829	131.515	0.00050544	0.0031815	0.00023598	541.46	1.4979e-05	2.5577e-05	535.9	132.2	2.0288e-05	5.2146e-06	139.7	50.858	47.719	15.141	1.6355e-05	16.08	0.074914	0.141	0.037945	975.35	0.0013669	0.0015709	1031.6	293.29	0.0013675	0.0015409	973.59	134.42	137.28	41.493	0.0013911	51.564	250.201	422.278	182.438	91.415	184.933	212.923	90.050	98.607	198.488	188.771	96.998	100.668	104.255	108.153	331.741	104.713	-8191	255	
1097.961	1	1	0	0	0.17299	0.11874	0.14841	0.1174	0.11594	0.21223	0.11892	0.25994	0.13673	0.28317	0.1722	0.12107	0.087624	0.35441	0.17893	0.11845	-2.3625	-2.1396	-2.2708	-2.7271	-1.9521	-2.6292	-2.3604	-2.1521	-2.8396	-2.2313	-2.425	-2.6979	-1.8854	-2.4646	-2.3792	-1.9125	228.114	246.681	204.683	370.219	151.914	418.279	392.723	389.920	295.166	379.637	388.272	111.330	256.553	438.234	260.241	245.692	0.00010146	0.0032323	0.00096815	545.88	2.2043e-05	1.7659e-05	537.26	129.26	2.4883e-05	3.0911e-05	136.99	47.44	44.181	13.553	2.5079e-05	14.695	0.075835	0.14085	0.038433	996.67	0.0013992	0.0015875	1048	301.05	0.0014383	0.0016249	1038.2	140.12	141.57	41.946	0.0015208	53.836	288.815	382.135	174.074	91.286	156.351	304.538	89.540	98.156	98.297	404.537	93.256	101.075	103.865	109.452	250.172	103.506	-8191	255	
1098.057	1	1	0	0	0.1429	0.10654	0.22354	0.02983	0.14127	0.17664	0.12852	0.26577	0.050382	0.16295	0.030567	0.1305	0.26826	0.24375	0.16206	0.049351	-2.3167	-2.0438	-2.0875	-2.8	-1.9542	-2.4667	-2.6125	-1.9542	-2.8312	-2.1708	-2.0917	-2.7583	-1.7812	-2.525	-2.5938	-2.025	349.269	288.546	258.973	352.165	349.523	395.808	300.738	168.052	245.996	380.321	260.612	399.827	91.415	290.222	216.326	241.455	0.00019631	0.00026954	0.0013286	535.23	1.6083e-05	3.5465e-05	513.1	121.09	2.0503e-05	5.1667e-05	124.25	42.14	40.144	12.455	8.0632e-06	13.644	0.081287	0.14811	0.041068	1017.3	0.0014418	0.0016026	1031.1	292.7	0.0013864	0.0015201	976.64	126.93	126.68	36.979	0.0013485	47.498	174.658	332.674	222.571	91.341	363.227	408.797	90.060	98.158	194.328	152.941	94.031	99.965	103.514	108.762	262.779	104.039	-8191	255	
1098.177	1	1	0	0	0.22591	0.20341	0.34903	0.10202	0.24553	0.060197	0.41681	0.10746	0.17142	0.05466	0.22129	0.13945	0.27916	0.29753	0.049591	0.18103	-2.2062	-2.1479	-1.9667	-2.7146	-1.8563	-2.5333	-2.7021	-1.8208	-2.7667	-2.2458	-2.0146	-2.8521	-1.9667	-2.3	-2.6021	-1.9646	171.799	390.347	379.380	338.408	322.951	388.432	403.244	263.663	92.450	347.977	373.796	228.432	418.028	118.376	345.753	333.538	0.00025512	0.0018748	0.00094805	523.36	1.6453e-05	1.0826e-05	503.86	116.89	1.4837e-05	1.4751e-05	125.33	41.573	41.149	13.017	1.5068e-05	14.546	0.068818	0.12478	0.035316	932.82	0.0011943	0.0013335	942.81	261.9	0.0011492	0.0012771	856.84	114.48	113.62	34.087	0.0011774	43.613	365.240	144.104	140.264	90.521	224.778	255.080	89.912	98.180	350.194	328.069	94.592	101.163	104.336	109.198	370.424	103.361	-8191	255	
1098.273	1	1	0	0	0.24937	0.24683	0.37187	0.06439	0.12753	0.13454	0.14131	0.2265	0.17842	0.096124	0.31451	0.10877	0.098655	0.17649	0.027	0.20629	-2.375	-2.4729	-1.9688	-2.7604	-2.0563	-2.2396	-2.6292	-1.8667	-2.5229	-2.3042	-1.9875	-2.7708	-2.0396	-2.25	-2.6083	-1.9958	366.993	390.422	208.170	222.008	140.815	290.053	318.331	337.907	438.512	340.137	334.894	187.686	383.079	374.810	367.784	378.250	5.4641e-05	0.002117	0.00023401	516.73	3.3086e-05	2.8861e-05	503.97	124.71	1.2705e-05	6.7878e-06	131.59	47.885	45.667	15.156	2.1359e-06	16.658	0.058533	0.10872	0.031167	874.38	0.0010252	0.0011742	895.01	247.57	0.00096569	0.001095	758.2	108.64	105.52	33.245	0.00099973	41.245	104.288	107.824	317.700	91.450	379.902	387.044	90.424	98.221	359.948	190.988	97.656	100.923	104.354	109.157	413.805	103.543	-8191	255	
1098.368	1	1	0	0	0.025309	0.25026	0.34301	0.25079	0.35367	0.088874	0.073872	0.29669	0.1576	0.38483	0.2649	0.17764	0.059864	0.16045	0.14427	0.18669	-2.0979	-2.3	-1.875	-2.6604	-2.075	-2.2354	-2.9	-1.9813	-2.6021	-2.55	-1.9104	-2.6417	-2.1854	-2.225	-2.8042	-2.0292	288.611	273.236	438.872	141.647	201.528	234.919	164.809	345.137	354.729	327.288	303.230	150.046	123.372	241.891	248.464	144.352	0.00014384	0.0019352	0.00045619	504.95	2.0995e-05	2.5152e-05	496.48	125.37	8.7479e-06	1.3162e-05	125.88	47.212	44.722	14.293	2.0355e-05	14.913	0.048941	0.093577	0.027029	812.01	0.00090202	0.0010773	857.64	242.59	0.0009453	0.0011327	784.45	111.33	110.38	34.563	0.0011355	43.045	219.338	360.318	139.387	91.423	438.260	271.083	90.287	98.447	144.626	375.992	95.198	101.174	104.553	108.257	365.685	104.920	-8191	255	
1098.441	1	1	0	0	0.096754	0.24418	0.16615	0.067668	0.26168	0.26692	0.15729	0.091577	0.11002	0.18245	0.20998	0.14718	0.17174	0.11539	0.13197	0.27948	-2.1604	-2.4729	-2	-2.7708	-2.2979	-2.0646	-2.7292	-2.0396	-2.3333	-2.6229	-1.9875	-2.6458	-2.2104	-2.1146	-2.7771	-2.1562	339.596	85.573	429.751	409.240	437.146	347.576	366.755	341.060	254.467	283.797	171.717	327.740	417.528	304.027	424.292	200.266	0.00024606	0.001446	0.00020919	518.17	3.6258e-05	8.9015e-06	503.44	123.9	1.3033e-05	4.2119e-05	127.62	45.545	43.688	13.372	1.9673e-05	14.355	0.057497	0.11276	0.031813	876.58	0.0010702	0.0012831	925.6	257.38	0.0010878	0.0012957	856.21	115.5	115.85	35.785	0.0012223	43.979	255.859	197.248	433.614	91.022	212.647	120.194	90.430	98.109	194.201	385.285	98.659	100.797	104.081	109.139	100.195	102.630	-8191	255	
1098.560	1	1	0	0	0.11483	0.12476	0.24161	0.11905	0.18551	0.062715	0.17034	0.17256	0.14424	0.12026	0.19885	0.14532	0.052784	0.33106	0.16715	0.078589	-1.9312	-2.5708	-1.7625	-2.5854	-2.2208	-2.1417	-2.9271	-2.2	-2.2667	-2.7854	-2.0271	-2.5125	-2.4625	-1.8917	-2.7417	-2.2062	416.974	297.253	303.302	128.758	89.585	400.367	363.894	420.864	311.124	391.522	254.282	190.630	276.413	357.730	326.174	320.108	0.00044587	0.0049081	0.00014539	521.04	3.0825e-05	2.141e-05	506.62	121.55	1.4552e-05	5.2156e-06	126.1	43.583	42.956	13.341	1.5024e-05	14.786	0.061938	0.12086	0.033476	894.23	0.0011382	0.0013544	947.86	259.5	0.0011467	0.0013466	872.7	115.36	117.47	35.961	0.001213	43.964	246.538	145.168	179.401	91.406	294.407	109.656	89.694	98.610	292.517	299.488	95.136	100.443	105.025	108.668	160.140	103.950	-8191	255	
1098.656	1	1	0	0	0.18054	0.07873	0.2267	0.23437	0.16931	0.18349	0.080031	0.21218	0.070915	0.20154	0.14973	0.2331	0.23188	0.37233	0.083648	0.079516	-1.6688	-2.7521	-2.0208	-2.4958	-2.3354	-2.0062	-2.7792	-2.1646	-2.0833	-2.7542	-1.9833	-2.4625	-2.6417	-2.0021	-2.775	-2.2812	183.403	160.523	212.896	300.142	231.454	316.907	88.493	440.155	132.334	311.954	290.419	354.932	100.962	86.591	140.915	361.171	0.00054317	0.0022149	0.00045364	521.72	1.8938e-05	2.3864e-05	501.84	123.62	1.2861e-05	2.8957e-05	129.48	45.922	44.77	14.325	6.657e-06	15.889	0.062345	0.11915	0.032602	887.98	0.0011331	0.00132	920.1	256.19	0.0011219	0.0012896	832.31	114.77	117.52	36.183	0.0011602	44.307	221.768	225.848	202.824	91.347	238.829	101.346	90.417	98.419	108.247	153.589	95.894	101.039	104.378	108.346	213.863	104.633	-8191	255	
1098.752	1	1	0	0	0.10762	0.19874	0.16015	0.069828	0.035177	0.13439	0.16304	0.026069	0.25596	0.26736	0.21096	0.25591	0.22233	0.34116	0.33188	0.13866	-1.9604	-2.7021	-1.9729	-2.2521	-2.4729	-1.8875	-2.8396	-2.4042	-2.0333	-2.7313	-1.8021	-2.2938	-2.6021	-1.8958	-2.6688	-2.4813	245.796	246.033	213.591	106.727	258.640	211.226	168.317	403.303	137.213	315.043	161.062	358.561	404.602	410.188	109.899	146.700	9.8424e-05	0.0015674	0.000676	515.3	1.2179e-05	9.1997e-06	494.02	127.35	7.4533e-06	6.039e-06	127.56	48.794	46.847	15.101	2.1053e-05	16.611	0.061003	0.11573	0.031413	879.27	0.0011295	0.0012981	907.61	260.53	0.0011232	0.0012786	833.47	119.07	121.46	37.292	0.0011701	46.397	170.080	415.179	180.396	91.890	266.041	149.617	90.240	99.062	285.222	271.902	93.487	100.760	104.838	108.992	171.255	104.881	-8191	255	
1098.849	1	1	0	0	0.035623	0.22377	0.082134	0.18164	0.082502	0.12839	0.17079	0.15483	0.17245	0.056879	0.31211	0.24653	0.043754	0.06103	0.34872	0.16069	-1.6104	-2.8208	-2.075	-2.2833	-2.5896	-1.9833	-2.6646	-2.3792	-1.8729	-2.7604	-2.1271	-2.3479	-2.7146	-2.0812	-2.4583	-2.575	93.235	142.898	209.532	375.627	139.043	234.973	226.413	381.261	290.982	114.850	107.644	423.059	373.364	168.085	373.367	117.813	0.00051064	0.0043706	0.00071713	519.01	8.2142e-06	3.3989e-05	505.23	128.43	2.0338e-05	5.1697e-05	131.69	49.728	46.997	15.299	1.1239e-05	16.612	0.063025	0.11797	0.032105	896.68	0.0011565	0.0013102	922.05	267.67	0.00115	0.0012922	846.57	121.42	121.23	36.954	0.0011702	46.593	223.743	155.267	169.161	91.745	192.789	393.774	90.325	98.351	220.663	423.099	95.973	100.835	104.869	108.365	286.586	105.119	-8191	255	
1098.969	1	1	0	0	0.087127	0.086834	0.20458	0.14197	0.1275	0.14848	0.27471	0.066469	0.22084	0.12014	0.23639	0.063766	0.10056	0.21628	0.053212	0.13044	-1.5958	-2.6958	-1.9854	-2.1771	-2.7521	-2.0896	-2.4521	-2.6375	-1.9104	-2.6188	-2.4167	-2.0583	-2.7833	-2.0583	-2.4375	-2.6417	127.831	119.893	247.881	135.496	355.367	215.210	380.484	430.269	296.075	147.466	377.432	342.984	200.963	266.057	204.084	384.363	0.00025855	0.0016409	0.0014142	520.31	1.9781e-05	1.744e-05	496.8	127.38	1.6103e-05	2.0157e-05	131.93	47.597	45.502	14.509	3.705e-06	15.484	0.062396	0.11497	0.032118	896.29	0.0011521	0.001297	925.39	269.25	0.0011685	0.0013101	875.56	123.24	122.44	36.919	0.001242	47.377	303.625	313.820	214.697	91.701	392.679	208.566	90.770	98.962	100.943	350.549	95.200	101.284	104.697	109.096	432.380	104.486	-8191	255	
