BOXY.EXE: ISS Imagent and Oximeter Data Acquisition Program Version 0.80
Ascii Record File

#ACQ INFORMATION
2  Detector Channels 
16  External MUX Channels 
1  Auxiliary Channels 
5000  Waveform (CCF) Frequency (Hz)
1  Waveforms Skipped 
30  Waveforms Averaged 
1  Cycles Averaged 
16  Acquisitions per Waveform 
10.0806  Updata Rate (Hz) 

#FILE INFORMATION
TRUE -- External MUX Channel results are PARSED.
FALSE -- AC DC and Phase are NOT grouped.
TRUE -- Companion Program Settings File CREATED.
FALSE -- AC data not excluded
FALSE -- DC data not excluded
FALSE -- Phase data not excluded
FALSE -- Auxillary Chn. data not excluded
Tab delimiters

#CALIBRATION STATE
TRUE -- Waveform Calibration Values APPLIED.


#AUX CALIBRATION VALUES
Val Type	aux-1	

Term	1.0000e+00	
Factor	0.0000e+00	


#WF CALIBRATION VALUES
A = Detector Channel
Val Type	A-AC1	A-AC2	A-AC3	A-AC4	A-AC5	A-AC6	A-AC7	A-AC8	A-AC9	A-AC10	A-AC11	A-AC12	A-AC13	A-AC14	A-AC15	A-AC16	A-DC1	A-DC2	A-DC3	A-DC4	A-DC5	A-DC6	A-DC7	A-DC8	A-DC9	A-DC10	A-DC11	A-DC12	A-DC13	A-DC14	A-DC15	A-DC16	A-Ph1	A-Ph2	A-Ph3	A-Ph4	A-Ph5	A-Ph6	A-Ph7	A-Ph8	A-Ph9	A-Ph10	A-Ph11	A-Ph12	A-Ph13	A-Ph14	A-Ph15	A-Ph16	

Term	0.00000e+00	0.00000e+00	0.00000e+00	0.00000e+00	0.00000e+00	0.00000e+00	0.00000e+00	0.00000e+00	0.00000e+00	0.00000e+00	0.00000e+00	0.00000e+00	0.00000e+00	0.00000e+00	0.00000e+00	0.00000e+00	0.00000e+00	0.00000e+00	0.00000e+00	0.00000e+00	0.00000e+00	0.00000e+00	0.00000e+00	0.00000e+00	0.00000e+00	0.00000e+00	0.00000e+00	0.00000e+00	0.00000e+00	0.00000e+00	0.00000e+00	0.00000e+00	0.00000e+00	0.00000e+00	0.00000e+00	0.00000e+00	0.00000e+00	0.00000e+00	0.00000e+00	0.00000e+00	0.00000e+00	0.00000e+00	0.00000e+00	0.00000e+00	0.00000e+00	0.00000e+00	0.00000e+00	0.00000e+00	
Factor	1.00000e+00	1.00000e+00	1.00000e+00	1.00000e+00	1.00000e+00	1.00000e+00	1.00000e+00	1.00000e+00	1.00000e+00	1.00000e+00	1.00000e+00	1.00000e+00	1.00000e+00	1.00000e+00	1.00000e+00	1.00000e+00	1.00000e+00	1.00000e+00	1.00000e+00	1.00000e+00	1.00000e+00	1.00000e+00	1.00000e+00	1.00000e+00	1.00000e+00	1.00000e+00	1.00000e+00	1.00000e+00	1.00000e+00	1.00000e+00	1.00000e+00	1.00000e+00	X	X	X	X	X	X	X	X	X	X	X	X	X	X	X	X	

B = Detector Channel
Val Type	B-AC1	B-AC2	B-AC3	B-AC4	B-AC5	B-AC6	B-AC7	B-AC8	B-AC9	B-AC10	B-AC11	B-AC12	B-AC13	B-AC14	B-AC15	B-AC16	B-DC1	B-DC2	B-DC3	B-DC4	B-DC5	B-DC6	B-DC7	B-DC8	B-DC9	B-DC10	B-DC11	B-DC12	B-DC13	B-DC14	B-DC15	B-DC16	B-Ph1	B-Ph2	B-Ph3	B-Ph4	B-Ph5	B-Ph6	B-Ph7	B-Ph8	B-Ph9	B-Ph10	B-Ph11	B-Ph12	B-Ph13	B-Ph14	B-Ph15	B-Ph16	

Term	0.00000e+00	0.00000e+00	0.00000e+00	0.00000e+00	0.00000e+00	0.00000e+00	0.00000e+00	0.00000e+00	0.00000e+00	0.00000e+00	0.00000e+00	0.00000e+00	0.00000e+00	0.00000e+00	0.00000e+00	0.00000e+00	0.00000e+00	0.00000e+00	0.00000e+00	0.00000e+00	0.00000e+00	0.00000e+00	0.00000e+00	0.00000e+00	0.00000e+00	0.00000e+00	0.00000e+00	0.00000e+00	0.00000e+00	0.00000e+00	0.00000e+00	0.00000e+00	-2.34514e+02	-1.29768e+02	-1.30127e+02	-1.84443e+02	-8.22941e+01	-6.40824e+01	-1.56720e+02	-1.62015e+02	-7.26260e+01	-6.78743e+01	-1.72091e+02	-1.69816e+02	-1.86035e+02	-1.76734e+02	-7.55040e+01	-1.49635e+02	
Factor	5.55501e-05	1.82107e-04	4.65506e-05	3.36067e-01	2.21863e-06	2.08987e-06	1.79340e-01	5.49720e-02	3.07935e-06	1.85942e-06	9.27168e-02	3.06035e-02	5.57620e-02	9.79774e-03	2.10663e-06	1.41981e-02	8.47988e-06	1.03975e-05	2.90508e-06	1.65852e-01	1.11247e-07	1.15048e-07	8.36732e-02	2.73498e-02	1.08864e-07	1.14871e-07	4.47458e-02	1.47719e-02	2.76586e-02	4.92130e-03	1.11357e-07	6.90630e-03	X	X	X	X	X	X	X	X	X	X	X	X	X	X	X	X	



#DISTANCE SETTINGS
A = Detector Channel
A-1	A-2	A-3	A-4	A-5	A-6	A-7	A-8	A-9	A-10	A-11	A-12	A-13	A-14	A-15	A-16	

2.5000e+00	3.0000e+00	2.5000e+00	3.0000e+00	2.0000e+00	3.0000e+00	1.5000e+00	3.0000e+00	3.0000e+00	3.0000e+00	3.0000e+00	3.0000e+00	3.0000e+00	3.0000e+00	1.5000e+00	3.0000e+00	

B = Detector Channel
B-1	B-2	B-3	B-4	B-5	B-6	B-7	B-8	B-9	B-10	B-11	B-12	B-13	B-14	B-15	B-16	

1.0000e+01	1.0000e+01	1.0000e+01	1.4400e+00	1.0000e+01	1.0000e+01	1.5100e+00	1.9400e+00	1.0000e+01	1.0000e+01	1.9900e+00	2.4900e+00	2.4100e+00	2.9000e+00	1.0000e+01	2.9800e+00	




#DATA BEGINS
time	group	step	mark	flag	A-AC1	A-AC2	A-AC3	A-AC4	A-AC5	A-AC6	A-AC7	A-AC8	A-AC9	A-AC10	A-AC11	A-AC12	A-AC13	A-AC14	A-AC15	A-AC16	A-DC1	A-DC2	A-DC3	A-DC4	A-DC5	A-DC6	A-DC7	A-DC8	A-DC9	A-DC10	A-DC11	A-DC12	A-DC13	A-DC14	A-DC15	A-DC16	A-Ph1	A-Ph2	A-Ph3	A-Ph4	A-Ph5	A-Ph6	A-Ph7	A-Ph8	A-Ph9	A-Ph10	A-Ph11	A-Ph12	A-Ph13	A-Ph14	A-Ph15	A-Ph16	B-AC1	B-AC2	B-AC3	B-AC4	B-AC5	B-AC6	B-AC7	B-AC8	B-AC9	B-AC10	B-AC11	B-AC12	B-AC13	B-AC14	B-AC15	B-AC16	B-DC1	B-DC2	B-DC3	B-DC4	B-DC5	B-DC6	B-DC7	B-DC8	B-DC9	B-DC10	B-DC11	B-DC12	B-DC13	B-DC14	B-DC15	B-DC16	B-Ph1	B-Ph2	B-Ph3	B-Ph4	B-Ph5	B-Ph6	B-Ph7	B-Ph8	B-Ph9	B-Ph10	B-Ph11	B-Ph12	B-Ph13	B-Ph14	B-Ph15	B-Ph16	aux-1	digaux	

2656.316	1	1	0	256	0.18781	0.16191	0.21486	0.057149	0.29307	0.13138	0.19043	0.16765	0.13681	0.23761	0.14276	0.1524	0.17069	0.14369	0.29623	0.085103	-2.6562	-3.0354	-3.3125	-3.0687	-2.9667	-3.2646	-3.0542	-3.2062	-3.1271	-2.8479	-3.2375	-3.1083	-3.0104	-3.2562	-3.1688	-3.4042	239.634	87.502	54.101	86.988	132.252	54.902	299.678	297.921	56.326	65.471	193.637	94.785	349.458	70.628	385.410	124.590	0.0014004	0.0011049	0.0001929	697.61	7.714e-06	1.386e-05	1003.5	217.16	2.5548e-05	3.7858e-06	334.64	139.69	67.567	21.93	3.6463e-06	59.191	0.0046878	0.0055932	0.0015557	759.23	5.9729e-05	6.1521e-05	1007	223.3	5.8698e-05	6.1254e-05	345	141.97	78.486	23.82	6.0147e-05	61.182	46.263	180.764	125.946	54.051	156.560	166.795	54.427	59.258	183.255	176.651	58.833	64.095	63.870	69.397	120.025	68.468	-8191	255	
2656.412	1	1	0	0	0.29818	0.14687	0.11962	0.18992	0.10234	0.20548	0.074465	0.18819	0.087266	0.104	0.093891	0.048531	0.16831	0.14531	0.062998	0.08599	-2.7062	-2.8063	-3.3229	-3.0021	-3.0062	-3.3104	-3.0917	-3.2479	-3.1479	-2.9375	-3.325	-3.0938	-2.9729	-3.1813	-2.8375	-3.3	325.561	376.125	200.203	45.657	192.910	393.926	345.190	395.118	65.601	87.722	336.163	191.290	53.421	119.672	177.715	385.781	0.001105	0.0013377	4.6452e-05	704.54	8.8388e-06	6.4174e-06	1010.5	219.14	1.2643e-05	1.038e-05	333.79	139.79	67.828	21.871	9.2827e-06	59.191	0.0046998	0.0056079	0.0015729	760.67	5.9587e-05	6.1688e-05	1008.8	224.08	5.8368e-05	6.0887e-05	345.71	142.29	78.65	23.768	5.9561e-05	61.056	55.239	145.807	240.638	54.527	252.715	241.700	54.323	59.489	92.188	196.414	59.133	64.356	64.337	69.007	177.579	68.530	-8191	255	
2656.484	1	1	0	0	0.12262	0.16613	0.08436	0.44	0.17231	0.11242	0.087352	0.22434	0.055477	0.20203	0.26446	0.16402	0.13268	0.1538	0.12044	0.19816	-2.75	-2.9875	-3.1896	-3.1542	-2.9125	-3.2021	-3.1479	-3.2083	-3.1979	-3.0125	-3.3979	-3.2104	-3.0812	-3.1854	-3.0875	-3.1063	301.749	235.799	209.157	69.822	386.166	308.979	302.858	59.938	387.277	273.980	287.752	361.976	251.789	363.075	182.238	331.500	0.0015166	0.00089118	0.0001727	709.73	6.6887e-06	6.1916e-06	1011.3	218.94	1.9039e-05	1.4152e-06	338.14	140.74	67.994	22.058	8.4029e-06	59.506	0.0046667	0.0055141	0.0015453	762.97	5.9141e-05	6.1248e-05	1011.6	223.91	5.7916e-05	6.0762e-05	347.02	142.52	78.448	23.873	5.8925e-05	61.279	60.078	257.513	105.213	54.604	209.636	92.790	54.593	59.173	215.360	396.859	58.989	64.284	63.942	69.413	228.652	68.822	-8191	255	
2656.605	1	1	0	0	0.15009	0.13165	0.12444	0.073988	0.11406	0.23366	0.076586	0.12482	0.079939	0.23373	0.088445	0.01679	0.216	0.029241	0.07169	0.23628	-2.8646	-2.9354	-3.0771	-3.2979	-2.8875	-3.1562	-3.0417	-3.1792	-3.2438	-2.7833	-3.2812	-3.1375	-3.0271	-3.3125	-3.1104	-3.0354	176.955	197.758	213.373	75.090	165.553	365.845	351.914	319.107	167.231	202.022	59.741	401.298	238.130	115.018	338.572	303.013	0.0013202	0.0019567	0.00038211	706.87	8.4356e-06	2.8112e-06	1010.4	218.16	1.2161e-05	9.6757e-06	335.27	139.45	68.203	21.737	1.0338e-05	58.743	0.0046305	0.0054961	0.0015453	759.8	5.8395e-05	6.1008e-05	1009.3	223.17	5.7491e-05	6.0092e-05	345.16	141.62	78.149	23.649	5.8998e-05	60.589	52.778	113.096	134.434	54.429	152.291	356.097	54.313	59.453	276.397	195.959	59.020	64.255	64.024	69.349	273.361	68.923	-8191	255	
2656.701	1	1	0	0	0.19065	0.22697	0.10866	0.24859	0.061777	0.090703	0.28096	0.022496	0.29984	0.25371	0.12964	0.037257	0.088631	0.26725	0.25214	0.15832	-2.7812	-2.9562	-3.1646	-3.2333	-2.8604	-3.2417	-3.2271	-3.0771	-3.2708	-2.9917	-3.0854	-3.1958	-3.0542	-3.1875	-3.0646	-3.3	349.745	330.248	146.970	356.016	298.633	256.469	391.678	390.515	93.529	210.800	362.372	110.267	249.558	319.121	127.278	398.258	0.0015136	0.00063471	0.00014215	704.97	1.6837e-05	8.3593e-06	1004.2	217.66	9.8808e-06	6.5815e-06	336.27	138.9	67.337	21.815	1.5361e-05	59.08	0.0046061	0.0054732	0.0015275	757.16	5.8262e-05	6.0862e-05	1004.5	222.29	5.726e-05	6.0361e-05	344.43	141.24	77.989	23.652	5.7951e-05	60.819	42.368	167.345	100.366	54.321	161.892	137.728	54.242	59.198	52.962	271.803	59.183	64.383	64.148	69.057	189.585	68.865	-8191	255	
2656.797	1	1	0	0	0.26554	0.17052	0.066109	0.036702	0.26907	0.096713	0.26778	0.11904	0.12081	0.06799	0.072542	0.19936	0.27739	0.19065	0.18792	0.25354	-2.8479	-2.8	-3.0229	-3.2875	-2.8208	-3.2521	-3.2188	-3.0375	-3.3271	-3.15	-3.1396	-3.2604	-2.8354	-3.2812	-2.9896	-3.0312	89.543	161.288	256.756	139.167	229.065	276.167	376.225	275.600	302.484	262.079	291.761	99.111	384.002	378.664	183.564	275.288	0.0010224	0.00061892	9.9436e-05	703.83	8.1556e-06	5.8813e-06	1007.5	218.34	1.6623e-05	9.1815e-06	333.62	139.47	67.74	21.971	1.1299e-05	59.048	0.0046162	0.0054286	0.0015223	756.62	5.8152e-05	6.0855e-05	1007.1	222.95	5.6981e-05	5.9917e-05	344.44	141.84	78.14	23.645	5.8599e-05	60.924	42.969	84.518	250.228	54.541	169.297	307.019	54.715	59.583	179.327	214.933	59.118	64.181	63.874	68.517	167.500	68.718	-8191	255	
2656.893	1	1	0	0	0.023819	0.24016	0.044648	0.059374	0.18201	0.1461	0.20637	0.033742	0.20281	0.096869	0.068467	0.11426	0.13902	0.35202	0.073693	0.079996	-2.7583	-3.0583	-3.0187	-3.3354	-2.9062	-3.2042	-3.4104	-2.9458	-3.1688	-3.0792	-3.2104	-3.3542	-3.0125	-3.1125	-3.3271	-3.0208	345.033	299.608	106.555	281.348	339.008	221.572	224.348	84.342	195.358	355.675	327.835	280.621	191.542	69.306	181.331	54.107	0.0011994	0.00051604	0.00022869	706	8.1746e-06	5.1061e-06	1008.2	218.79	2.503e-05	3.8508e-06	336.73	139.9	67.655	21.966	9.8174e-06	59.472	0.0046462	0.0054441	0.0015367	760.16	5.8618e-05	6.1255e-05	1008.3	223.45	5.8497e-05	6.1517e-05	346.54	142.54	78.553	23.836	5.9275e-05	61.365	42.544	151.724	108.369	54.222	269.351	151.913	54.579	59.449	167.112	212.012	59.019	64.110	64.624	69.566	131.546	68.638	-8191	255	
2657.012	1	1	0	0	0.073224	0.18786	0.11278	0.049966	0.088576	0.097964	0.13889	0.11723	0.14228	0.11858	0.21379	0.017522	0.11265	0.17836	0.20356	0.12304	-2.8812	-3.0333	-2.8937	-3.3458	-3.0167	-3.2188	-3.3771	-3.0646	-3.1917	-3.0708	-2.9417	-3.3688	-2.825	-2.8958	-3.2438	-2.9667	190.453	43.487	377.101	97.684	88.091	362.847	351.461	47.878	236.155	364.223	339.662	157.143	333.073	330.661	330.598	181.309	0.0014567	0.0011778	0.00012613	707.23	1.018e-05	1.0438e-05	1012	219.33	1.8439e-05	6.2109e-06	337.41	140.28	67.822	22.069	1.1117e-05	59.592	0.0046697	0.0055082	0.0015263	762.04	5.8946e-05	6.0562e-05	1012.5	224.28	5.7809e-05	6.0831e-05	346.88	142.55	78.339	23.825	5.8932e-05	61.312	44.993	143.291	131.376	54.142	211.869	159.995	54.571	59.374	182.229	198.897	59.116	64.066	64.178	69.338	193.794	68.705	-8191	255	
2657.108	1	1	0	0	0.17066	0.12255	0.04765	0.063261	0.055145	0.089138	0.21771	0.41655	0.12316	0.14181	0.15814	0.12443	0.037243	0.11322	0.033038	0.27763	-2.8604	-3.075	-3.0167	-3.2667	-2.9125	-3.0354	-3.4979	-2.8521	-3.2188	-3.2896	-3.0833	-3.2708	-2.9437	-2.8479	-3.2958	-2.9042	265.451	250.151	221.065	375.447	268.605	191.987	375.124	309.720	128.592	190.717	279.972	281.225	99.226	65.263	187.470	50.342	0.00098032	0.0011105	7.3243e-05	706.15	8.9085e-06	1.2733e-05	1007.7	218.23	1.2222e-05	3.5414e-06	335.32	139.1	67.29	21.919	5.8786e-06	59.352	0.0047157	0.0054985	0.0015559	760.31	5.9797e-05	6.1312e-05	1007.9	222.65	5.7838e-05	6.0811e-05	345.11	141.74	78.019	23.803	5.9025e-05	61.104	47.888	98.493	68.208	54.375	349.546	145.112	54.478	59.193	252.422	134.517	59.256	64.223	64.439	69.446	140.978	68.551	-8191	255	
2657.182	1	1	0	0	0.10316	0.28357	0.15819	0.18157	0.091519	0.055571	0.13438	0.039971	0.15233	0.17157	0.21564	0.087916	0.16639	0.1477	0.16545	0.233	-2.7875	-2.9479	-2.9667	-3.2625	-2.9958	-3.0417	-3.5083	-2.9271	-3.125	-3.1354	-3.0417	-3.2812	-3.0104	-3.0104	-3.2167	-3.0083	167.028	95.047	113.557	355.519	101.741	108.493	316.653	283.531	114.854	338.973	324.832	290.127	284.297	312.979	129.978	302.276	0.001011	0.00015637	0.0001472	704.69	1.1209e-05	4.511e-06	1006	217.88	1.4449e-05	3.389e-06	336.05	139.79	67.72	21.963	7.6835e-06	59.829	0.0046668	0.0055041	0.0015349	760.16	5.9061e-05	6.0981e-05	1007.1	223.18	5.8446e-05	6.1056e-05	345.42	142.17	78.223	23.809	5.9516e-05	61.426	399.435	48.643	115.499	54.502	150.811	247.784	54.394	59.029	215.769	376.992	58.873	64.081	63.886	69.562	131.461	68.740	-8191	255	
2657.301	1	1	0	0	0.13392	0.1479	0.059338	0.18878	0.080798	0.14818	0.12619	0.1177	0.2306	0.017551	0.28374	0.016201	0.13209	0.11772	0.14625	0.023956	-2.625	-3.2146	-2.9042	-3.2562	-3.0208	-2.8625	-3.2167	-3.0208	-2.9667	-3.2271	-2.8792	-3.05	-3.2812	-3.0146	-3.4208	-3.2479	115.135	193.560	177.296	384.151	170.348	282.039	50.031	82.479	49.118	141.201	351.692	202.994	78.325	214.915	105.016	43.653	0.0012676	0.0001544	0.00014796	705.71	1.0815e-05	6.3611e-06	1007.7	219.61	8.3798e-06	3.795e-06	336.81	140.94	67.761	22.032	1.43e-05	59.521	0.0046473	0.0054892	0.0015297	761.74	5.9123e-05	6.0641e-05	1009.7	223.7	5.7902e-05	6.072e-05	346.11	142.67	78.3	23.81	5.919e-05	61.335	49.354	401.094	105.245	54.538	288.182	219.132	54.357	59.226	250.332	123.652	58.891	64.148	64.283	69.040	156.637	68.807	-8191	255	
2657.397	1	1	0	0	0.099757	0.090921	0.15138	0.27403	0.090374	0.22903	0.16753	0.27305	0.13327	0.14484	0.062287	0.10758	0.24102	0.25209	0.14082	0.28481	-2.6958	-3.2021	-2.8729	-3.2458	-3.0292	-2.7979	-3.3146	-2.9938	-3.1542	-3.1896	-2.9083	-3.2979	-3.2229	-2.9188	-3.3646	-3.2	74.917	75.790	59.203	106.927	262.856	309.473	373.544	363.290	357.318	46.278	230.285	193.728	353.079	284.914	322.967	307.818	0.0010599	0.0011902	0.00028977	708.71	6.2011e-06	5.9314e-06	1018.3	219.14	2.4279e-05	5.8677e-06	337.52	140.73	68.222	21.806	3.6002e-06	59.122	0.0046047	0.0054655	0.001523	762.92	5.7998e-05	6.0273e-05	1015.3	224.14	5.6927e-05	5.9865e-05	347.34	142.8	78.5	23.639	5.792e-05	60.848	41.182	110.260	193.448	54.581	175.457	123.991	54.675	59.047	169.066	141.513	59.002	64.226	63.746	69.128	260.226	68.820	-8191	255	
2657.493	1	1	0	0	0.13373	0.016071	0.20659	0.1009	0.18272	0.028499	0.16426	0.30953	0.10863	0.15393	0.092393	0.23074	0.17939	0.04299	0.19283	0.19637	-2.5458	-3.2229	-3.2	-3.1937	-3.3708	-3.1042	-3.5167	-3.1417	-2.9479	-3.5458	-3.0771	-3.1771	-3.2542	-2.8917	-3.1979	-3.3063	168.713	335.864	181.048	270.474	300.154	102.640	396.078	388.750	338.547	82.297	296.853	93.485	248.830	379.835	286.306	383.058	0.0011991	0.0010737	0.0001953	706.24	1.2684e-05	2.9521e-06	1009.9	219.49	2.3658e-05	1.8751e-06	336.85	139.84	67.489	21.679	7.6485e-06	58.578	0.0045275	0.0054251	0.0015152	759.27	5.7796e-05	5.9558e-05	1009.1	223.74	5.6735e-05	5.9715e-05	345.77	141.88	77.934	23.488	5.7626e-05	60.452	399.851	55.540	93.037	54.090	145.568	305.456	54.562	59.047	216.790	53.942	58.986	64.516	64.201	69.231	311.357	68.930	-8191	255	
2657.589	1	1	0	0	0.082615	0.082744	0.028249	0.1098	0.14246	0.43077	0.096919	0.26478	0.29479	0.15469	0.19963	0.10575	0.16843	0.23214	0.1161	0.20375	-2.6063	-3.2792	-2.95	-3.1104	-3.275	-3	-3.2229	-3.2188	-2.9479	-3.45	-3.1667	-3.175	-3.1146	-3.0812	-3.0979	-3.2917	118.796	300.649	202.673	103.021	320.721	90.812	215.754	292.048	187.994	145.952	370.091	322.215	297.806	356.877	261.592	325.656	0.0012268	0.00085866	0.00023592	703.59	2.3491e-06	4.214e-06	1010.2	219.38	4.3647e-06	5.4407e-06	335.49	139.55	67.169	21.429	1.593e-05	58.953	0.0044957	0.0054664	0.0014859	755.58	5.7846e-05	5.9367e-05	1007.4	223.56	5.6305e-05	5.9362e-05	344.89	141.88	77.858	23.377	5.7193e-05	60.563	400.964	331.396	102.529	54.460	134.634	198.281	54.636	59.265	53.382	184.329	59.019	64.299	64.697	68.893	205.842	68.687	-8191	255	
2657.710	1	1	0	0	0.19392	0.32081	0.30606	0.24368	0.1835	0.21789	0.25888	0.2297	0.10999	0.018147	0.16865	0.036377	0.10744	0.080546	0.19044	0.07888	-2.6354	-3.2667	-2.9167	-3.05	-3.2479	-2.9979	-3.2792	-3.2125	-2.9958	-3.1937	-3.1979	-3.1646	-3.3229	-3.0438	-3.0917	-3.4667	143.275	104.809	161.422	278.337	66.510	397.684	318.529	354.790	196.200	221.828	387.760	307.612	45.144	315.743	237.073	227.971	0.0012635	0.0016736	9.1421e-05	703.84	8.4433e-06	3.0038e-06	1008.9	220.62	1.3644e-05	1.4431e-05	336.94	141.01	67.797	21.651	6.6289e-06	58.914	0.0045012	0.0054311	0.0014837	758.71	5.7724e-05	5.9066e-05	1008.2	224.44	5.5904e-05	5.9073e-05	346.44	142.49	78.409	23.513	5.7507e-05	60.57	395.886	120.346	275.099	54.576	206.920	247.636	54.527	59.343	185.077	256.645	59.034	64.196	64.507	69.056	65.730	68.863	-8191	255	
2657.781	1	1	0	0	0.40633	0.13033	0.1208	0.20545	0.052466	0.099958	0.032163	0.173	0.29002	0.20384	0.097249	0.10918	0.24722	0.38712	0.2496	0.36884	-2.5708	-3.275	-3.0875	-2.9583	-3.2708	-2.9625	-3.3771	-3.4396	-3.0604	-3.2979	-3.1958	-2.9729	-3.2292	-3.0271	-3.0396	-3.3854	48.668	120.717	254.668	218.174	372.636	105.363	387.457	367.786	246.787	322.284	213.164	377.739	257.810	391.900	332.065	381.318	0.0011716	0.0007932	0.00016733	707.47	9.4796e-06	1.2556e-05	1013.6	221.39	1.8182e-05	6.7089e-06	335.65	141.49	68.238	21.894	6.0328e-06	59.287	0.0044812	0.0053826	0.0014954	760.47	5.7319e-05	5.9402e-05	1012.2	225.85	5.6701e-05	6.0457e-05	347.22	143.32	78.896	23.672	5.7969e-05	61.096	57.518	380.379	165.712	54.469	171.115	174.371	54.516	59.213	231.723	136.868	59.275	64.285	63.887	69.410	250.578	68.758	-8191	255	
2657.902	1	1	0	0	0.072982	0.072136	0.086433	0.33219	0.051581	0.084123	0.077552	0.16283	0.11738	0.070132	0.17503	0.24891	0.22218	0.32217	0.15282	0.094547	-2.625	-3.275	-3.1354	-2.9667	-3.275	-2.9417	-3.3292	-3.55	-2.9813	-3.0542	-3.3917	-2.9771	-3.0521	-2.8979	-2.9146	-3.2687	235.903	401.017	385.918	103.962	82.256	384.630	363.961	263.072	346.123	232.818	269.944	126.753	201.220	332.039	177.247	317.837	0.0011846	0.00063139	0.00026263	713.61	6.6358e-06	1.5878e-05	1008.5	220.13	1.3832e-05	2.5733e-06	337.2	140.98	68.131	21.665	5.8663e-06	59.254	0.0045669	0.005418	0.001513	761.19	5.8132e-05	6.0289e-05	1009.9	224.89	5.7184e-05	6.0955e-05	347.32	142.58	78.883	23.512	5.8435e-05	60.83	65.647	66.541	94.064	54.426	188.530	214.412	54.522	59.299	215.289	166.310	58.717	64.318	64.457	68.772	79.221	68.654	-8191	255	
2657.998	1	1	0	0	0.16583	0.27622	0.039661	0.11059	0.15334	0.23321	0.3031	0.12127	0.024439	0.16709	0.051776	0.37181	0.15094	0.04886	0.099391	0.39076	-2.6667	-3.0542	-3.2396	-2.8937	-3.2625	-3.1354	-2.9458	-3.4188	-2.9479	-2.9042	-3.1417	-2.9958	-3.1417	-3.175	-3.0167	-3.2958	49.735	240.655	299.334	236.128	371.385	202.864	335.368	342.949	234.063	251.989	170.540	392.593	395.295	370.447	195.813	291.199	0.001051	0.00085744	2.2051e-06	698.21	8.5822e-06	1.7311e-05	1009.5	219.12	1.0465e-05	3.4718e-06	338.8	141.39	68.34	21.641	6.1245e-06	59.366	0.0046267	0.0054831	0.0015285	757.18	5.8809e-05	6.043e-05	1007.3	224.43	5.7451e-05	6.0849e-05	348.04	143.29	79.043	23.544	5.8265e-05	61.049	47.821	194.018	291.692	54.360	262.183	223.668	54.776	59.229	254.801	241.061	59.007	64.136	64.499	69.479	102.413	68.865	-8191	255	
