BOXY.EXE: ISS Imagent and Oximeter Data Acquisition Program Version 0.80
Ascii Record File

#ACQ INFORMATION
2  Detector Channels 
16  External MUX Channels 
1  Auxiliary Channels 
5000  Waveform (CCF) Frequency (Hz)
1  Waveforms Skipped 
30  Waveforms Averaged 
1  Cycles Averaged 
16  Acquisitions per Waveform 
10.0806  Updata Rate (Hz) 

#FILE INFORMATION
TRUE -- External MUX Channel results are PARSED.
FALSE -- AC DC and Phase are NOT grouped.
TRUE -- Companion Program Settings File CREATED.
FALSE -- AC data not excluded
FALSE -- DC data not excluded
FALSE -- Phase data not excluded
FALSE -- Auxillary Chn. data not excluded
Tab delimiters

#CALIBRATION STATE
TRUE -- Waveform Calibration Values APPLIED.


#AUX CALIBRATION VALUES
Val Type	aux-1	

Term	1.0000e+00	
Factor	0.0000e+00	


#WF CALIBRATION VALUES
A = Detector Channel
Val Type	A-AC1	A-AC2	A-AC3	A-AC4	A-AC5	A-AC6	A-AC7	A-AC8	A-AC9	A-AC10	A-AC11	A-AC12	A-AC13	A-AC14	A-AC15	A-AC16	A-DC1	A-DC2	A-DC3	A-DC4	A-DC5	A-DC6	A-DC7	A-DC8	A-DC9	A-DC10	A-DC11	A-DC12	A-DC13	A-DC14	A-DC15	A-DC16	A-Ph1	A-Ph2	A-Ph3	A-Ph4	A-Ph5	A-Ph6	A-Ph7	A-Ph8	A-Ph9	A-Ph10	A-Ph11	A-Ph12	A-Ph13	A-Ph14	A-Ph15	A-Ph16	

Term	0.00000e+00	0.00000e+00	0.00000e+00	0.00000e+00	0.00000e+00	0.00000e+00	0.00000e+00	0.00000e+00	0.00000e+00	0.00000e+00	0.00000e+00	0.00000e+00	0.00000e+00	0.00000e+00	0.00000e+00	0.00000e+00	0.00000e+00	0.00000e+00	0.00000e+00	0.00000e+00	0.00000e+00	0.00000e+00	0.00000e+00	0.00000e+00	0.00000e+00	0.00000e+00	0.00000e+00	0.00000e+00	0.00000e+00	0.00000e+00	0.00000e+00	0.00000e+00	0.00000e+00	0.00000e+00	0.00000e+00	0.00000e+00	0.00000e+00	0.00000e+00	0.00000e+00	0.00000e+00	0.00000e+00	0.00000e+00	0.00000e+00	0.00000e+00	0.00000e+00	0.00000e+00	0.00000e+00	0.00000e+00	
Factor	1.00000e+00	1.00000e+00	1.00000e+00	1.00000e+00	1.00000e+00	1.00000e+00	1.00000e+00	1.00000e+00	1.00000e+00	1.00000e+00	1.00000e+00	1.00000e+00	1.00000e+00	1.00000e+00	1.00000e+00	1.00000e+00	1.00000e+00	1.00000e+00	1.00000e+00	1.00000e+00	1.00000e+00	1.00000e+00	1.00000e+00	1.00000e+00	1.00000e+00	1.00000e+00	1.00000e+00	1.00000e+00	1.00000e+00	1.00000e+00	1.00000e+00	1.00000e+00	X	X	X	X	X	X	X	X	X	X	X	X	X	X	X	X	

B = Detector Channel
Val Type	B-AC1	B-AC2	B-AC3	B-AC4	B-AC5	B-AC6	B-AC7	B-AC8	B-AC9	B-AC10	B-AC11	B-AC12	B-AC13	B-AC14	B-AC15	B-AC16	B-DC1	B-DC2	B-DC3	B-DC4	B-DC5	B-DC6	B-DC7	B-DC8	B-DC9	B-DC10	B-DC11	B-DC12	B-DC13	B-DC14	B-DC15	B-DC16	B-Ph1	B-Ph2	B-Ph3	B-Ph4	B-Ph5	B-Ph6	B-Ph7	B-Ph8	B-Ph9	B-Ph10	B-Ph11	B-Ph12	B-Ph13	B-Ph14	B-Ph15	B-Ph16	

Term	0.00000e+00	0.00000e+00	0.00000e+00	0.00000e+00	0.00000e+00	0.00000e+00	0.00000e+00	0.00000e+00	0.00000e+00	0.00000e+00	0.00000e+00	0.00000e+00	0.00000e+00	0.00000e+00	0.00000e+00	0.00000e+00	0.00000e+00	0.00000e+00	0.00000e+00	0.00000e+00	0.00000e+00	0.00000e+00	0.00000e+00	0.00000e+00	0.00000e+00	0.00000e+00	0.00000e+00	0.00000e+00	0.00000e+00	0.00000e+00	0.00000e+00	0.00000e+00	-1.74148e+02	-1.27087e+02	-1.30125e+02	-1.81316e+02	-8.55190e+01	-6.66878e+01	-1.57075e+02	-1.62015e+02	-8.14386e+01	-6.69092e+01	-1.71893e+02	-1.70622e+02	-1.79843e+02	-1.76980e+02	-7.36244e+01	-1.49926e+02	
Factor	3.06324e-05	1.62235e-04	4.72445e-05	1.48920e-01	1.49831e-06	1.76165e-06	1.72106e-01	6.28372e-02	1.68338e-06	1.86821e-06	8.65051e-02	2.99025e-02	3.08083e-02	9.61349e-03	1.55958e-06	1.36815e-02	1.62461e-05	2.79970e-05	7.84780e-06	7.48325e-02	2.67660e-07	3.17064e-07	8.15900e-02	3.16269e-02	2.77634e-07	3.15248e-07	4.25007e-02	1.47081e-02	1.57617e-02	4.89367e-03	2.89544e-07	6.76532e-03	X	X	X	X	X	X	X	X	X	X	X	X	X	X	X	X	



#DISTANCE SETTINGS
A = Detector Channel
A-1	A-2	A-3	A-4	A-5	A-6	A-7	A-8	A-9	A-10	A-11	A-12	A-13	A-14	A-15	A-16	

2.5000e+00	3.0000e+00	2.5000e+00	3.0000e+00	2.0000e+00	3.0000e+00	1.5000e+00	3.0000e+00	3.0000e+00	3.0000e+00	3.0000e+00	3.0000e+00	3.0000e+00	3.0000e+00	1.5000e+00	3.0000e+00	

B = Detector Channel
B-1	B-2	B-3	B-4	B-5	B-6	B-7	B-8	B-9	B-10	B-11	B-12	B-13	B-14	B-15	B-16	

1.0000e+01	1.0000e+01	1.0000e+01	1.4400e+00	1.0000e+01	1.0000e+01	1.5100e+00	1.9400e+00	1.0000e+01	1.0000e+01	1.9900e+00	2.4900e+00	2.4100e+00	2.9000e+00	1.0000e+01	2.9800e+00	




#DATA BEGINS
time	group	step	mark	flag	A-AC1	A-AC2	A-AC3	A-AC4	A-AC5	A-AC6	A-AC7	A-AC8	A-AC9	A-AC10	A-AC11	A-AC12	A-AC13	A-AC14	A-AC15	A-AC16	A-DC1	A-DC2	A-DC3	A-DC4	A-DC5	A-DC6	A-DC7	A-DC8	A-DC9	A-DC10	A-DC11	A-DC12	A-DC13	A-DC14	A-DC15	A-DC16	A-Ph1	A-Ph2	A-Ph3	A-Ph4	A-Ph5	A-Ph6	A-Ph7	A-Ph8	A-Ph9	A-Ph10	A-Ph11	A-Ph12	A-Ph13	A-Ph14	A-Ph15	A-Ph16	B-AC1	B-AC2	B-AC3	B-AC4	B-AC5	B-AC6	B-AC7	B-AC8	B-AC9	B-AC10	B-AC11	B-AC12	B-AC13	B-AC14	B-AC15	B-AC16	B-DC1	B-DC2	B-DC3	B-DC4	B-DC5	B-DC6	B-DC7	B-DC8	B-DC9	B-DC10	B-DC11	B-DC12	B-DC13	B-DC14	B-DC15	B-DC16	B-Ph1	B-Ph2	B-Ph3	B-Ph4	B-Ph5	B-Ph6	B-Ph7	B-Ph8	B-Ph9	B-Ph10	B-Ph11	B-Ph12	B-Ph13	B-Ph14	B-Ph15	B-Ph16	aux-1	digaux	

27484.035	1	1	0	256	0.10011	0.089045	0.10604	0.041009	0.21247	0.24696	0.37206	0.16244	0.24941	0.012164	0.2244	0.12225	0.22856	0.37077	0.3108	0.037926	-1.4813	-2.1292	-2.5333	-2.0167	-2.3167	-2.2979	-1.9312	-2.5542	-2.1583	-2.0812	-2.4771	-2.2354	-2.3229	-2.2896	-2.0271	-2.3875	333.832	147.906	128.202	219.331	135.069	264.246	380.598	349.910	339.873	330.482	73.242	305.954	118.354	56.780	205.739	57.402	0.00057601	0.00038883	0.00010892	599.25	4.4502e-06	2.9884e-06	581.64	219.02	3.9258e-06	4.5638e-06	222.72	102.66	99.904	45.567	5.4812e-06	48.886	0.00060788	0.00062614	0.00017533	597.41	6.1004e-06	6.7654e-06	579.86	219.16	6.2913e-06	6.9867e-06	223.86	103.03	100.28	46.067	7.0232e-06	49.229	112.214	124.057	114.847	58.978	181.514	188.653	58.027	62.641	206.545	198.865	60.298	63.761	65.926	69.112	203.641	66.536	-8191	255	
27484.133	1	1	0	0	0.091279	0.23117	0.088887	0.013147	0.31439	0.20046	0.20648	0.15129	0.20505	0.13075	0.20827	0.10489	0.066911	0.093206	0.35713	0.17514	-1.7	-2.1604	-2.3	-2.2792	-2.2354	-2.3688	-2.2	-2.5375	-2.0625	-2.0792	-2.5563	-2.0708	-2.2396	-2.3021	-2.0708	-2.3771	312.288	209.579	89.428	309.602	150.313	148.297	308.409	224.499	317.311	178.352	400.632	347.813	399.253	376.825	307.224	339.218	0.00059095	0.00036544	0.00014803	601.44	3.1175e-06	4.3422e-06	583.74	219.37	4.7756e-06	4.463e-06	223.2	102.6	99.976	45.525	4.5715e-06	48.758	0.00060584	0.00063547	0.00016497	599.91	6.2058e-06	6.8737e-06	581.49	219.36	6.2092e-06	6.7411e-06	223.52	103.2	100.27	46.037	7.1306e-06	49.226	110.326	135.518	120.748	58.952	184.012	184.100	57.755	62.621	184.210	186.557	60.273	63.819	65.481	69.219	204.220	66.755	-8191	255	
27484.229	1	1	0	0	0.19036	0.13485	0.13711	0.043781	0.12056	0.16102	0.16653	0.16996	0.16067	0.14141	0.15311	0.2248	0.21633	0.10157	0.17738	0.25193	-1.7667	-2.0354	-2.3958	-1.9646	-2.1958	-2.4646	-2.0938	-2.5667	-2.0479	-2.0062	-2.4854	-2.2583	-2.1917	-2.4396	-2.175	-2.3063	285.083	321.834	280.284	332.625	121.034	149.091	160.280	396.267	182.819	343.740	96.069	382.797	276.662	275.858	75.553	311.691	0.00057241	0.0003827	0.0001073	600.62	3.9804e-06	3.432e-06	581.72	219.17	5.0455e-06	5.7357e-06	222.16	102.06	100.32	45.634	5.0281e-06	48.695	0.00060652	0.00062445	0.00016722	598.68	6.396e-06	7.0322e-06	579.48	219.19	6.4278e-06	6.9256e-06	223.25	102.67	100.25	46.004	6.7747e-06	49.146	111.230	127.853	106.229	58.880	171.603	197.310	57.983	62.579	185.114	180.145	60.108	63.759	65.694	69.041	193.693	67.037	-8191	255	
27484.350	1	1	0	0	0.10874	0.20704	0.12265	0.21025	0.18973	0.1023	0.22877	0.21918	0.14907	0.19383	0.1727	0.16376	0.18509	0.17585	0.11547	0.085986	-1.8104	-1.7667	-2.5021	-2.0438	-2.1188	-2.3833	-2.2583	-2.3271	-2.3417	-2.0208	-2.3958	-2.1979	-2.15	-2.4938	-2.0167	-2.2875	342.530	162.539	105.223	403.257	384.177	219.153	282.607	357.284	211.754	265.461	57.172	94.073	349.306	64.198	167.377	303.059	0.00058401	0.00040316	9.9398e-05	601.02	5.0487e-06	5.7228e-06	583.42	219.96	4.3426e-06	3.3552e-06	223.94	102.05	100.26	45.565	4.0485e-06	48.79	0.00060304	0.00061214	0.0001667	599.47	6.2822e-06	6.8017e-06	579.91	219.81	6.3341e-06	6.9302e-06	223.53	102.72	100.2	45.958	6.519e-06	49.203	111.562	147.951	117.646	59.007	191.091	207.694	57.845	62.799	163.375	162.032	60.110	63.845	65.597	69.010	178.851	67.028	-8191	255	
27484.443	1	1	0	0	0.16454	0.14083	0.14052	0.22414	0.30127	0.13093	0.21961	0.22701	0.077654	0.33411	0.21068	0.083359	0.41415	0.45386	0.20216	0.16673	-1.7396	-2.0271	-2.3708	-2.3896	-2.1333	-2.5146	-2.0938	-2.1854	-2.2542	-1.9771	-2.3542	-2.1479	-2.1729	-2.4958	-2.0312	-2.3542	100.389	130.146	160.604	390.033	123.878	74.158	298.701	370.042	129.607	325.536	355.738	370.215	361.780	354.071	316.232	245.868	0.00058493	0.00039524	0.00010525	602.55	4.6372e-06	4.5992e-06	582.85	219.65	4.1031e-06	3.8919e-06	222.46	102.59	100.11	45.509	5.1233e-06	48.659	0.00060276	0.00063652	0.00016685	600.24	6.3034e-06	6.9411e-06	580.3	219.78	6.4897e-06	6.9236e-06	223.37	102.74	100.26	45.87	6.61e-06	49.078	107.659	132.762	122.162	58.930	170.428	195.812	57.774	62.915	193.952	191.628	60.294	63.610	65.964	69.199	198.648	66.857	-8191	255	
27484.518	1	1	0	0	0.16269	0.41501	0.13195	0.080227	0.11323	0.029672	0.21647	0.18198	0.28528	0.042733	0.21887	0.27511	0.10343	0.20685	0.032523	0.068262	-1.7896	-2.0312	-2.2958	-2.4396	-2.2292	-2.3958	-2.1	-2.25	-2.4458	-2.0604	-2.3771	-2.2208	-1.8	-2.6083	-1.8333	-2.25	265.590	183.237	116.160	254.386	276.126	240.731	398.101	132.120	140.250	105.462	393.993	362.222	398.950	77.549	208.777	255.403	0.00058334	0.0004285	4.5093e-05	602.02	3.6588e-06	5.0405e-06	581.11	219.75	6.0541e-06	3.4267e-06	223.85	102.19	100.19	45.718	3.9253e-06	49.029	0.00061268	0.00060969	0.00016631	600	6.1562e-06	6.7145e-06	581.13	220.26	6.5846e-06	6.6997e-06	224.84	102.94	100.44	46.098	6.7602e-06	49.446	110.082	136.593	159.247	58.975	187.289	210.641	57.905	62.930	198.122	183.637	60.406	63.724	65.711	69.175	197.252	66.905	-8191	255	
27484.637	1	1	0	0	0.16653	0.16685	0.094325	0.19979	0.28261	0.42805	0.3459	0.12304	0.126	0.062415	0.15973	0.20511	0.36397	0.055686	0.081297	0.18723	-1.95	-1.9438	-2.0958	-2.2917	-1.8833	-2.3104	-2.2792	-2.1229	-2.475	-2.0687	-2.2479	-2.4396	-2.0542	-2.5208	-2.2542	-2.0917	202.184	205.639	384.691	403.864	167.968	187.060	356.306	392.462	236.282	175.803	45.683	386.618	404.033	388.506	345.478	46.760	0.00058636	0.00021757	7.9614e-05	602.95	3.7528e-06	5.1872e-06	584.31	221.5	3.7626e-06	3.7246e-06	225.2	102.82	100.58	45.598	4.5767e-06	48.97	0.00062003	0.00062602	0.00017427	603.66	6.3792e-06	6.6022e-06	583.86	221.74	6.2971e-06	6.8199e-06	225.15	103.45	100.75	46.046	6.8893e-06	49.44	111.752	144.061	134.981	59.002	201.940	176.397	57.698	62.541	174.172	214.080	60.332	63.648	65.686	69.245	196.520	67.031	-8191	255	
27484.732	1	1	0	0	0.15958	0.31794	0.16142	0.042033	0.33876	0.18193	0.05271	0.1754	0.22146	0.15645	0.11792	0.13025	0.23822	0.35339	0.090544	0.29995	-1.9417	-2.0458	-2.2687	-2.2667	-1.9104	-2.4938	-2.3292	-2.1146	-2.3563	-2.1167	-2.2354	-2.3333	-2.0604	-2.4521	-2.2833	-2.0542	270.670	239.800	176.083	214.936	286.322	231.934	400.342	319.473	144.197	245.153	352.791	384.565	337.451	381.925	353.130	347.429	0.00054385	0.00039323	0.00010916	602.86	2.7838e-06	4.3603e-06	583.21	221.47	3.6145e-06	4.0335e-06	224.1	102.38	100.36	45.39	3.6184e-06	48.67	0.00058733	0.00060351	0.00016755	602.39	6.1902e-06	6.449e-06	582.42	221.59	6.2138e-06	6.5204e-06	224.62	102.8	100.5	45.799	6.7452e-06	49.169	108.737	140.484	125.557	58.959	179.102	204.914	57.907	62.481	181.582	203.874	60.350	63.833	65.694	69.236	212.326	66.757	-8191	255	
27484.828	1	1	0	0	0.22814	0.20031	0.075988	0.19684	0.12387	0.08437	0.14806	0.040914	0.050482	0.41491	0.31372	0.19369	0.20002	0.25378	0.090609	0.071722	-2.0062	-1.9625	-2.2	-2.3958	-2.1	-2.2583	-2.2083	-2.0312	-2.4479	-2.1083	-2.0333	-2.4688	-2.0292	-2.1937	-2.3312	-2.0604	92.090	299.038	68.213	325.785	287.700	364.263	317.102	193.433	245.375	125.573	383.013	135.196	72.945	98.354	122.328	157.268	0.00057502	0.00039901	0.00014034	604.4	3.747e-06	3.8778e-06	581.56	221.32	4.8942e-06	3.4423e-06	224.3	102.86	100.04	45.435	3.921e-06	48.972	0.00058043	0.00060491	0.00016626	601.18	6.0664e-06	6.334e-06	581.46	221.77	5.9969e-06	6.4961e-06	224.95	102.98	100.35	45.819	6.6173e-06	49.209	112.540	129.855	131.787	59.072	190.316	209.589	58.005	62.539	187.729	211.088	60.192	63.659	65.508	69.535	197.142	66.730	-8191	255	
27484.924	1	1	0	0	0.17003	0.37068	0.19075	0.26418	0.16477	0.32102	0.23587	0.17959	0.20167	0.12314	0.142	0.1705	0.13641	0.51731	0.12377	0.097791	-1.8833	-2.0854	-2.0812	-2.5312	-2.0458	-2.2646	-2.3396	-2.0438	-2.325	-2.1292	-2.0896	-2.5104	-2.2771	-2.3667	-2.3771	-2.0896	165.090	385.076	360.457	324.482	395.973	178.215	216.975	390.558	183.459	271.104	135.150	77.908	357.456	368.913	311.788	363.325	0.00062353	0.00043851	0.00011545	603.23	3.9955e-06	3.9185e-06	583.31	222.18	3.9986e-06	3.3267e-06	223.82	102.89	99.963	45.296	4.4132e-06	49.182	0.00059	0.00055306	0.00015871	601.82	5.5946e-06	6.4754e-06	581.2	221.39	5.9344e-06	6.3805e-06	224.94	103.22	100.5	45.866	6.335e-06	49.405	109.701	141.300	117.031	58.927	185.292	193.118	57.821	62.627	169.876	221.304	60.299	63.647	65.660	69.417	190.599	66.532	-8191	255	
27485.020	1	1	0	0	0.10672	0.038451	0.12291	0.12173	0.26789	0.25306	0.15303	0.13709	0.13636	0.12336	0.29844	0.19627	0.21439	0.19768	0.052301	0.13139	-1.875	-1.9167	-1.8417	-2.5083	-2.025	-1.9562	-2.325	-1.9958	-2.3438	-2.1792	-2.1188	-2.6146	-2.15	-2.1729	-2.2229	-2.0563	360.923	53.158	280.929	249.967	190.118	275.313	286.338	367.766	258.615	321.457	275.548	341.571	223.277	312.937	186.977	368.739	0.00054202	0.00036904	0.00015051	602.15	4.6269e-06	4.5211e-06	583.69	220.33	4.5217e-06	3.8612e-06	227.39	103.18	100.44	45.685	4.2989e-06	49.208	0.00057115	0.00058117	0.00016562	601.6	5.6688e-06	6.5335e-06	582.77	221.27	6.0727e-06	6.5401e-06	225.87	103.32	100.68	45.971	6.4188e-06	49.605	110.849	130.988	139.334	58.985	196.246	207.136	57.678	62.368	197.213	168.714	60.291	63.740	65.793	69.203	196.862	66.815	-8191	255	
27485.115	1	1	0	0	0.048149	0.41283	0.18832	0.30037	0.29544	0.16817	0.19682	0.17578	0.19842	0.19259	0.091752	0.16966	0.022148	0.17958	0.22037	0.25656	-1.9042	-2.2354	-1.9292	-2.3417	-2.0062	-2.0583	-2.4667	-2.0563	-2.1167	-2.2271	-2.2208	-2.6	-2.0542	-2.1333	-2.3187	-2.175	85.546	367.894	356.557	356.656	338.391	264.989	364.567	348.077	172.631	206.076	76.733	329.128	119.537	117.203	111.898	335.587	0.0006057	0.0004406	0.00010132	607.68	3.779e-06	3.8267e-06	588.4	222.28	3.3592e-06	4.6289e-06	226.59	103.15	100.1	45.763	4.2951e-06	49.313	0.00058828	0.00061529	0.00016762	606.3	6.1177e-06	6.8935e-06	585.84	222.41	6.3833e-06	6.6872e-06	226.87	103.54	100.83	46.094	6.8393e-06	49.651	110.086	134.271	127.698	59.147	163.504	191.505	57.886	62.426	191.633	187.567	60.540	64.034	65.868	69.092	203.569	66.741	-8191	255	
27485.213	1	1	0	0	0.19988	0.046413	0.1511	0.19875	0.18836	0.042942	0.39923	0.37731	0.26048	0.29658	0.18263	0.24781	0.15258	0.2618	0.099834	0.23816	-1.7458	-2.2687	-1.8979	-2.3833	-2.1917	-2.1583	-2.3833	-2	-2.2458	-2.2896	-1.9292	-2.3833	-2.1292	-2.1083	-2.5563	-2.2833	360.212	323.043	346.207	337.244	302.549	161.621	289.246	304.274	237.100	176.410	103.285	336.516	113.651	370.175	346.323	374.985	0.00056464	0.00028895	0.00012865	607.34	3.8796e-06	4.6695e-06	587.25	222.88	4.0794e-06	2.7839e-06	227.18	103.59	100.65	45.705	4.9857e-06	49.527	0.00060899	0.00062935	0.00017864	605.75	6.3592e-06	7.1828e-06	586.62	222.9	6.4897e-06	6.879e-06	227.07	103.58	101.09	46.083	6.8465e-06	49.531	110.478	156.314	146.150	58.995	182.101	183.145	57.823	62.481	191.523	199.989	60.519	64.150	65.637	69.152	195.623	66.649	-8191	255	
27485.309	1	1	0	0	0.23585	0.12097	0.2031	0.077367	0.15625	0.17285	0.17279	0.14129	0.1491	0.18153	0.20826	0.04831	0.35019	0.23216	0.15788	0.13109	-1.7229	-2.2938	-1.8208	-2.575	-2.2646	-1.9958	-2.5062	-2.2125	-2.0771	-2.2812	-2.1646	-2.3542	-2.3396	-2.1542	-2.3771	-2.1937	194.333	270.623	387.059	291.093	400.268	303.017	273.129	257.611	115.218	191.789	261.974	52.431	61.230	54.563	230.084	384.127	0.00061172	0.00036504	0.00013009	608.88	2.5747e-06	3.1194e-06	589.64	223.68	4.2757e-06	2.9504e-06	227.75	103.5	101.27	45.736	4.754e-06	49.091	0.00062483	0.00064317	0.00018071	608.13	6.5616e-06	7.4081e-06	588.2	223.71	6.6141e-06	7.1745e-06	228.46	104.06	101.25	46.168	7.0015e-06	49.56	109.361	154.601	128.104	58.997	185.300	169.475	57.664	62.591	186.052	189.902	60.367	63.799	65.674	69.270	173.829	66.755	-8191	255	
27485.428	1	1	0	0	0.31705	0.11133	0.18776	0.19045	0.20724	0.17682	0.46263	0.2578	0.46415	0.1592	0.32034	0.095132	0.13734	0.29785	0.26064	0.12324	-1.6208	-2.3542	-1.9396	-2.2667	-2.1813	-1.8896	-2.425	-2.1354	-2.0229	-2.4646	-2.05	-2.4021	-2.4583	-2.0354	-2.2729	-2.2729	316.253	48.909	56.189	340.256	80.012	59.012	390.066	394.544	206.793	282.657	156.194	366.277	57.095	352.409	328.020	168.087	0.00059195	0.00031426	0.00012254	612.04	4.9179e-06	3.6586e-06	590.82	223.06	4.2365e-06	2.6169e-06	228.36	104.54	100.84	45.873	5.4787e-06	49.53	0.00063096	0.00065017	0.00018241	609.18	6.5828e-06	7.6498e-06	589.82	224.05	6.7106e-06	7.2041e-06	228.95	104.42	101.29	46.257	7.2573e-06	49.75	110.122	126.577	105.629	59.098	175.750	196.813	57.685	62.828	207.229	174.812	60.294	63.705	65.768	69.244	177.004	67.019	-8191	255	
27485.523	1	1	0	0	0.39743	0.052624	0.34829	0.2463	0.2311	0.093202	0.1953	0.20899	0.1121	0.22316	0.050857	0.0093129	0.19601	0.16301	0.22814	0.18538	-1.5958	-2.4813	-1.9438	-2.4771	-2.2375	-1.9042	-2.4958	-2.1437	-2.1833	-2.5708	-2.1667	-2.2896	-2.3583	-2.0396	-2.1667	-2.3292	382.767	360.032	341.288	381.472	111.509	229.128	84.667	342.810	71.160	391.147	52.929	341.895	277.005	352.868	361.667	130.020	0.00061566	0.00046675	9.9458e-05	613.11	4.982e-06	3.6389e-06	593.25	225.01	5.6799e-06	4.0533e-06	228.61	103.96	100.83	45.704	5.0297e-06	49.675	0.00063089	0.00064335	0.00018081	611.06	6.4372e-06	7.4061e-06	591.61	224.98	6.9177e-06	6.8153e-06	229.5	104.38	101.41	46.153	7.0281e-06	49.806	108.941	129.999	122.186	59.042	183.943	168.688	57.770	62.667	193.750	182.044	60.550	63.659	65.931	69.118	193.712	66.735	-8191	255	
27485.621	1	1	0	0	0.13595	0.080172	0.15172	0.27212	0.055299	0.37358	0.54009	0.053412	0.093487	0.29004	0.30592	0.22278	0.13957	0.33576	0.087528	0.12513	-1.4521	-2.5438	-2.1396	-2.2333	-2.5354	-1.8625	-2.4979	-2.3583	-1.9708	-2.3229	-2.0771	-2.0833	-2.6188	-2.1104	-2.2313	-2.5083	389.950	362.338	127.355	392.130	339.568	126.126	315.013	334.775	376.667	250.686	260.190	293.201	176.470	359.538	354.955	258.695	0.00057254	0.00033649	9.8374e-05	612.72	4.9468e-06	3.5955e-06	593.16	224.28	3.2304e-06	4.1307e-06	227.56	103.67	101.46	45.694	5.3576e-06	49.28	0.00062646	0.00064072	0.00018043	611.15	6.5761e-06	7.2641e-06	591.13	224.31	6.8888e-06	7.0996e-06	229.19	104	101.56	46.056	7.2609e-06	49.718	114.432	145.111	145.392	59.161	174.035	171.639	57.896	62.305	188.804	181.855	60.275	63.856	65.552	69.351	200.323	66.881	-8191	255	
27485.740	1	1	0	0	0.04316	0.039307	0.15705	0.066469	0.16287	0.09235	0.095775	0.17571	0.07196	0.24111	0.15327	0.38579	0.23314	0.27763	0.33735	0.46974	-1.4562	-2.6042	-2.0771	-2.3396	-2.5208	-1.9833	-2.4396	-2.4208	-1.8292	-2.3229	-2.1917	-2.1958	-2.3604	-2.4188	-2.1688	-2.3479	221.673	298.638	382.504	80.884	307.855	201.502	403.526	354.572	288.300	289.440	314.281	324.474	203.621	386.084	159.201	316.046	0.00060111	0.00044501	0.00013537	613.19	3.3082e-06	3.3649e-06	592.35	224.18	4.3494e-06	4.6367e-06	228.19	103.78	100.74	45.853	4.2652e-06	49.645	0.00063563	0.00062422	0.00017994	612.24	6.2008e-06	6.8334e-06	592.99	224.81	6.765e-06	6.9486e-06	229.2	104.23	101.25	46.262	7.1173e-06	49.921	112.970	143.274	126.768	59.091	186.281	218.413	57.806	62.618	187.263	162.329	60.609	63.988	65.662	69.277	199.565	66.665	-8191	255	
