BOXY.EXE: ISS Imagent and Oximeter Data Acquisition Program Version 0.80
Ascii Record File

#ACQ INFORMATION
2  Detector Channels 
16  External MUX Channels 
1  Auxiliary Channels 
5000  Waveform (CCF) Frequency (Hz)
1  Waveforms Skipped 
30  Waveforms Averaged 
1  Cycles Averaged 
16  Acquisitions per Waveform 
10.0806  Updata Rate (Hz) 

#FILE INFORMATION
TRUE -- External MUX Channel results are PARSED.
FALSE -- AC DC and Phase are NOT grouped.
TRUE -- Companion Program Settings File CREATED.
FALSE -- AC data not excluded
FALSE -- DC data not excluded
FALSE -- Phase data not excluded
FALSE -- Auxillary Chn. data not excluded
Tab delimiters

#CALIBRATION STATE
TRUE -- Waveform Calibration Values APPLIED.


#AUX CALIBRATION VALUES
Val Type	aux-1	

Term	1.0000e+00	
Factor	0.0000e+00	


#WF CALIBRATION VALUES
A = Detector Channel
Val Type	A-AC1	A-AC2	A-AC3	A-AC4	A-AC5	A-AC6	A-AC7	A-AC8	A-AC9	A-AC10	A-AC11	A-AC12	A-AC13	A-AC14	A-AC15	A-AC16	A-DC1	A-DC2	A-DC3	A-DC4	A-DC5	A-DC6	A-DC7	A-DC8	A-DC9	A-DC10	A-DC11	A-DC12	A-DC13	A-DC14	A-DC15	A-DC16	A-Ph1	A-Ph2	A-Ph3	A-Ph4	A-Ph5	A-Ph6	A-Ph7	A-Ph8	A-Ph9	A-Ph10	A-Ph11	A-Ph12	A-Ph13	A-Ph14	A-Ph15	A-Ph16	

Term	0.00000e+00	0.00000e+00	0.00000e+00	0.00000e+00	0.00000e+00	0.00000e+00	0.00000e+00	0.00000e+00	0.00000e+00	0.00000e+00	0.00000e+00	0.00000e+00	0.00000e+00	0.00000e+00	0.00000e+00	0.00000e+00	0.00000e+00	0.00000e+00	0.00000e+00	0.00000e+00	0.00000e+00	0.00000e+00	0.00000e+00	0.00000e+00	0.00000e+00	0.00000e+00	0.00000e+00	0.00000e+00	0.00000e+00	0.00000e+00	0.00000e+00	0.00000e+00	0.00000e+00	0.00000e+00	0.00000e+00	0.00000e+00	0.00000e+00	0.00000e+00	0.00000e+00	0.00000e+00	0.00000e+00	0.00000e+00	0.00000e+00	0.00000e+00	0.00000e+00	0.00000e+00	0.00000e+00	0.00000e+00	
Factor	1.00000e+00	1.00000e+00	1.00000e+00	1.00000e+00	1.00000e+00	1.00000e+00	1.00000e+00	1.00000e+00	1.00000e+00	1.00000e+00	1.00000e+00	1.00000e+00	1.00000e+00	1.00000e+00	1.00000e+00	1.00000e+00	1.00000e+00	1.00000e+00	1.00000e+00	1.00000e+00	1.00000e+00	1.00000e+00	1.00000e+00	1.00000e+00	1.00000e+00	1.00000e+00	1.00000e+00	1.00000e+00	1.00000e+00	1.00000e+00	1.00000e+00	1.00000e+00	X	X	X	X	X	X	X	X	X	X	X	X	X	X	X	X	

B = Detector Channel
Val Type	B-AC1	B-AC2	B-AC3	B-AC4	B-AC5	B-AC6	B-AC7	B-AC8	B-AC9	B-AC10	B-AC11	B-AC12	B-AC13	B-AC14	B-AC15	B-AC16	B-DC1	B-DC2	B-DC3	B-DC4	B-DC5	B-DC6	B-DC7	B-DC8	B-DC9	B-DC10	B-DC11	B-DC12	B-DC13	B-DC14	B-DC15	B-DC16	B-Ph1	B-Ph2	B-Ph3	B-Ph4	B-Ph5	B-Ph6	B-Ph7	B-Ph8	B-Ph9	B-Ph10	B-Ph11	B-Ph12	B-Ph13	B-Ph14	B-Ph15	B-Ph16	

Term	0.00000e+00	0.00000e+00	0.00000e+00	0.00000e+00	0.00000e+00	0.00000e+00	0.00000e+00	0.00000e+00	0.00000e+00	0.00000e+00	0.00000e+00	0.00000e+00	0.00000e+00	0.00000e+00	0.00000e+00	0.00000e+00	0.00000e+00	0.00000e+00	0.00000e+00	0.00000e+00	0.00000e+00	0.00000e+00	0.00000e+00	0.00000e+00	0.00000e+00	0.00000e+00	0.00000e+00	0.00000e+00	0.00000e+00	0.00000e+00	0.00000e+00	0.00000e+00	-1.60646e+02	-1.31022e+02	-1.25289e+02	-1.86209e+02	-7.18792e+01	-6.66958e+01	-1.58474e+02	-1.62015e+02	-7.97830e+01	-6.76213e+01	-1.72128e+02	-1.71386e+02	-1.83279e+02	-1.77394e+02	-7.09845e+01	-1.49699e+02	
Factor	2.28142e-05	1.35801e-04	4.02598e-05	2.77733e-01	1.31646e-06	1.49048e-06	1.53129e-01	4.67114e-02	1.21370e-06	1.46712e-06	7.52218e-02	2.47388e-02	3.57489e-02	7.91092e-03	1.34422e-06	1.11941e-02	1.85564e-05	4.45642e-05	1.25709e-05	1.49093e-01	4.45853e-07	5.11453e-07	7.76909e-02	2.52998e-02	4.01722e-07	5.10017e-07	3.95400e-02	1.30392e-02	1.96821e-02	4.33613e-03	4.36568e-07	5.95756e-03	X	X	X	X	X	X	X	X	X	X	X	X	X	X	X	X	



#DISTANCE SETTINGS
A = Detector Channel
A-1	A-2	A-3	A-4	A-5	A-6	A-7	A-8	A-9	A-10	A-11	A-12	A-13	A-14	A-15	A-16	

2.5000e+00	3.0000e+00	2.5000e+00	3.0000e+00	2.0000e+00	3.0000e+00	1.5000e+00	3.0000e+00	3.0000e+00	3.0000e+00	3.0000e+00	3.0000e+00	3.0000e+00	3.0000e+00	1.5000e+00	3.0000e+00	

B = Detector Channel
B-1	B-2	B-3	B-4	B-5	B-6	B-7	B-8	B-9	B-10	B-11	B-12	B-13	B-14	B-15	B-16	

1.0000e+01	1.0000e+01	1.0000e+01	1.4400e+00	1.0000e+01	1.0000e+01	1.5100e+00	1.9400e+00	1.0000e+01	1.0000e+01	1.9900e+00	2.4900e+00	2.4100e+00	2.9000e+00	1.0000e+01	2.9800e+00	




#DATA BEGINS
time	group	step	mark	flag	A-AC1	A-AC2	A-AC3	A-AC4	A-AC5	A-AC6	A-AC7	A-AC8	A-AC9	A-AC10	A-AC11	A-AC12	A-AC13	A-AC14	A-AC15	A-AC16	A-DC1	A-DC2	A-DC3	A-DC4	A-DC5	A-DC6	A-DC7	A-DC8	A-DC9	A-DC10	A-DC11	A-DC12	A-DC13	A-DC14	A-DC15	A-DC16	A-Ph1	A-Ph2	A-Ph3	A-Ph4	A-Ph5	A-Ph6	A-Ph7	A-Ph8	A-Ph9	A-Ph10	A-Ph11	A-Ph12	A-Ph13	A-Ph14	A-Ph15	A-Ph16	B-AC1	B-AC2	B-AC3	B-AC4	B-AC5	B-AC6	B-AC7	B-AC8	B-AC9	B-AC10	B-AC11	B-AC12	B-AC13	B-AC14	B-AC15	B-AC16	B-DC1	B-DC2	B-DC3	B-DC4	B-DC5	B-DC6	B-DC7	B-DC8	B-DC9	B-DC10	B-DC11	B-DC12	B-DC13	B-DC14	B-DC15	B-DC16	B-Ph1	B-Ph2	B-Ph3	B-Ph4	B-Ph5	B-Ph6	B-Ph7	B-Ph8	B-Ph9	B-Ph10	B-Ph11	B-Ph12	B-Ph13	B-Ph14	B-Ph15	B-Ph16	aux-1	digaux	

35690.363	1	1	0	256	0.16453	0.074689	0.069923	0.38457	0.10175	0.17477	0.31318	0.25521	0.17915	0.071193	0.095599	0.53627	0.27662	0.12849	0.32904	0.25535	-1.6833	-1.9604	-2.7417	-2.1521	-2.3833	-2.5708	-2.0417	-2.6958	-2.25	-1.9229	-2.9167	-2.0417	-2.425	-2.5979	-1.8896	-2.6625	380.301	167.812	251.516	390.055	372.873	169.509	339.856	332.811	69.416	153.019	214.058	387.124	225.290	267.706	362.631	383.339	0.00061559	0.00051498	0.00013595	1369.8	3.7923e-06	4.3454e-06	1360.3	371.35	5.4504e-06	6.1092e-06	412.93	137.78	120.97	40.667	4.4516e-06	50.25	0.0007798	0.0010316	0.00027627	1388.5	1.061e-05	1.0797e-05	1381.6	377.99	1.0368e-05	1.1644e-05	422.89	141.27	123.62	42.004	1.0825e-05	51.96	133.974	164.545	153.149	77.275	229.107	206.361	77.003	82.025	205.214	239.860	81.136	85.547	86.352	90.776	221.643	90.143	-8191	255	
35690.434	1	1	0	0	0.23941	0.096407	0.05146	0.28786	0.20401	0.23992	0.23756	0.18937	0.24187	0.073526	0.1395	0.14466	0.15438	0.3107	0.28335	0.36886	-1.725	-1.7729	-2.775	-2.0896	-1.9604	-2.6417	-2.1292	-2.6521	-2.4479	-1.975	-2.8375	-2.4146	-2.3021	-2.6229	-1.8021	-2.5667	122.058	243.803	352.134	358.555	297.074	370.503	84.070	369.115	188.361	101.527	156.472	77.927	338.003	380.501	94.298	360.697	0.00060724	0.00050261	0.00013048	1365.9	4.9667e-06	3.6391e-06	1362.9	371.19	4.7133e-06	2.7894e-06	414.9	138.74	121.26	40.744	4.3261e-06	50.504	0.00079023	0.0010187	0.00027234	1389.1	1.0622e-05	1.1067e-05	1382.7	378.38	1.0155e-05	1.1299e-05	423.19	141.69	123.94	42.035	1.0407e-05	51.913	130.940	163.831	166.414	77.277	218.844	239.119	76.913	82.029	203.784	209.249	81.197	85.258	86.077	90.495	199.631	89.960	-8191	255	
35690.531	1	1	0	0	0.071883	0.17403	0.042912	0.16793	0.073394	0.11968	0.16387	0.061049	0.16677	0.073249	0.080948	0.27885	0.17117	0.20904	0.42304	0.27566	-2.1396	-1.7812	-2.6167	-2.2229	-2.0104	-2.8146	-1.9562	-2.5646	-2.3896	-1.8438	-2.8458	-2.2042	-2.0479	-2.7542	-2.0458	-2.5062	167.474	243.997	272.044	161.357	193.477	222.063	388.510	212.151	179.698	379.080	248.195	336.834	361.408	72.726	256.627	364.242	0.00057909	0.00065201	0.00017679	1363.9	5.141e-06	3.7303e-06	1356.5	372.21	4.7516e-06	6.2307e-06	413.96	138.22	120.18	40.762	6.2344e-06	50.576	0.0007556	0.0010384	0.00028321	1388.9	1.1002e-05	1.1043e-05	1380.7	378.12	1.0159e-05	1.1765e-05	422.74	141.26	123.5	41.982	1.0524e-05	51.964	130.696	160.669	173.628	77.060	225.067	225.351	77.029	81.981	197.297	203.892	81.532	85.407	86.238	90.963	205.774	90.117	-8191	255	
35690.652	1	1	0	0	0.30585	0.17546	0.35806	0.33774	0.083613	0.096189	0.14229	0.1177	0.14121	0.10867	0.14373	0.023537	0.19273	0.2133	0.059067	0.10182	-2.0104	-1.7479	-2.4437	-2.3396	-1.8625	-2.7479	-2.3042	-2.3125	-2.6021	-1.7729	-2.6792	-2.5021	-2.0125	-2.8208	-2.05	-2.4396	131.529	93.812	73.349	367.949	206.367	125.099	296.482	394.948	388.395	419.113	384.375	299.827	358.402	414.660	80.293	206.839	0.00061237	0.00049603	0.00011978	1368.2	5.3727e-06	4.6068e-06	1360.7	371.75	5.8714e-06	6.442e-06	415.93	138.02	120.61	40.848	4.7696e-06	50.159	0.0007837	0.0010162	0.00027876	1390.3	1.0936e-05	1.1357e-05	1383.3	378.17	1.0013e-05	1.2082e-05	423.84	141.44	123.84	42.01	1.1369e-05	51.899	132.116	149.599	162.025	77.431	208.315	219.596	77.087	82.088	191.255	216.905	81.288	85.743	86.344	90.750	213.382	90.023	-8191	255	
35690.746	1	1	0	0	0.16885	0.15742	0.088807	0.0819	0.10663	0.17536	0.20546	0.30867	0.16733	0.054308	0.33712	0.11167	0.23115	0.091904	0.10974	0.24549	-2.2542	-1.7833	-2.3583	-2.4833	-1.8667	-2.6792	-2.2396	-2.2479	-2.4583	-1.7563	-2.4042	-2.3875	-1.8438	-2.6167	-2.0958	-2.2146	244.003	106.125	230.494	127.257	270.445	292.420	355.609	363.509	255.188	294.833	413.116	119.929	359.398	269.163	149.316	350.991	0.00061775	0.00062645	0.00013012	1373.1	4.4419e-06	5.0526e-06	1361	370.26	5.4882e-06	5.4997e-06	414.3	137.93	120.92	40.666	3.7323e-06	50.557	0.00081884	0.0010751	0.00028759	1392	1.1132e-05	1.1345e-05	1385.3	378.36	1.0232e-05	1.232e-05	423.32	141.65	123.88	41.981	1.0669e-05	52.01	132.253	142.296	144.588	77.342	200.448	212.673	76.975	82.066	205.877	212.234	81.187	85.779	86.334	90.560	205.899	90.213	-8191	255	
35690.844	1	1	0	0	0.13594	0.17774	0.076653	0.24293	0.15072	0.27626	0.23393	0.23988	0.19764	0.145	0.25354	0.26877	0.057432	0.15708	0.081971	0.17984	-2.375	-1.7833	-2.3333	-2.6771	-1.7083	-2.6646	-2.2083	-2.0375	-2.6979	-1.8958	-2.5333	-2.8021	-1.8687	-2.7917	-2.1771	-2.0333	118.672	346.434	144.487	325.387	341.677	375.948	298.470	367.281	306.162	391.682	404.903	412.799	87.495	152.258	88.211	379.024	0.00058936	0.00049334	0.00013479	1365.5	6.3746e-06	5.3538e-06	1367.6	370.97	4.8628e-06	4.308e-06	413.07	138.64	120.21	40.806	5.6176e-06	50.476	0.00079031	0.001071	0.00030136	1390.7	1.1314e-05	1.1515e-05	1387.6	378.44	1.0539e-05	1.1904e-05	423.15	141.71	123.62	42.092	1.1338e-05	52.043	131.425	152.045	153.119	77.265	217.097	198.828	76.863	82.094	219.493	224.748	81.324	85.611	86.512	90.975	218.003	90.275	-8191	255	
35690.938	1	1	0	0	0.42705	0.044438	0.23662	0.30256	0.10178	0.068874	0.22454	0.45989	0.19236	0.017521	0.084945	0.25975	0.31987	0.32472	0.074677	0.20404	-2.3229	-1.7333	-2.2417	-2.7625	-1.7354	-2.5917	-2.6104	-2.1063	-2.5042	-2.125	-2.3667	-2.7438	-1.9458	-2.3688	-2.1083	-1.9292	288.911	205.468	208.886	386.686	89.557	260.163	319.136	401.146	390.781	213.192	290.468	403.123	419.480	389.021	188.646	375.458	0.00062636	0.00041641	0.0001567	1376.7	5.3241e-06	5.0256e-06	1361.2	371.39	6.1557e-06	6.3591e-06	414.79	138.93	121.17	40.766	4.4252e-06	50.418	0.00078672	0.001057	0.00029345	1394.4	1.1081e-05	1.1534e-05	1385	378.08	1.0396e-05	1.2296e-05	423.32	142.01	124.03	42.08	1.0539e-05	51.898	131.418	153.205	138.105	77.504	225.811	208.955	77.007	81.955	208.030	215.257	81.348	85.669	86.394	90.825	208.115	90.084	-8191	255	
35691.059	1	1	0	0	0.082743	0.22538	0.14905	0.20292	0.2002	0.17197	0.17257	0.16352	0.074739	0.061117	0.35532	0.15698	0.3002	0.1745	0.13291	0.16459	-2.1792	-2.0771	-2.0187	-2.7271	-1.95	-2.4083	-2.6292	-1.9708	-2.5771	-2.2229	-2.2625	-2.7313	-2.0062	-2.5917	-2.6292	-2.0438	118.274	321.973	360.852	105.162	273.800	193.371	367.706	69.373	342.465	76.035	367.257	423.350	395.042	388.833	400.016	303.008	0.00061528	0.0003193	0.00016812	1373.7	6.4783e-06	4.2595e-06	1367.4	370.94	6.2086e-06	4.0891e-06	415.13	138.68	121.09	40.914	5.5144e-06	50.536	0.00077999	0.0010249	0.00030314	1394.2	1.1343e-05	1.1231e-05	1387.8	377.76	1.0279e-05	1.1448e-05	423.3	141.87	123.99	42.058	1.0449e-05	52.03	132.222	138.181	170.453	77.444	220.711	204.621	77.267	82.128	224.343	220.321	81.600	85.788	86.388	90.819	213.982	90.467	-8191	255	
35691.133	1	1	0	0	0.25491	0.24198	0.33027	0.23029	0.12114	0.15113	0.41815	0.13344	0.31578	0.096631	0.19143	0.25666	0.23283	0.062825	0.23656	0.24241	-2.1958	-2.0875	-1.9792	-2.8458	-1.7833	-2.1958	-2.6875	-2.1458	-2.5042	-2.0687	-2.1562	-2.6375	-1.9417	-2.3604	-2.6875	-1.7	311.586	326.895	273.598	242.505	157.042	357.304	373.126	73.187	201.310	381.134	377.827	373.636	109.137	271.443	167.569	240.148	0.000585	0.00041621	0.00014108	1368.5	4.4244e-06	4.3984e-06	1363.7	369.88	5.198e-06	3.6488e-06	414.96	138.69	120.52	40.821	5.1684e-06	50.349	0.00077864	0.001037	0.00029036	1391	1.1144e-05	1.1563e-05	1385.8	378.04	1.0646e-05	1.1349e-05	422.92	141.97	123.59	42.078	1.0248e-05	51.884	130.821	176.654	139.676	77.380	211.586	214.341	77.054	81.900	212.718	208.860	81.368	85.706	86.246	91.467	210.978	90.415	-8191	255	
35691.227	1	1	0	0	0.03941	0.070033	0.16517	0.096269	0.32242	0.051794	0.22964	0.28533	0.25795	0.28681	0.2475	0.30395	0.19567	0.14457	0.086418	0.077435	-2.1688	-2.1917	-1.8312	-2.7583	-2	-2.0396	-2.8583	-2.1875	-2.525	-2.4229	-2.0771	-2.6667	-2.225	-2.025	-2.4333	-2.0458	365.078	422.331	356.342	395.284	133.844	420.729	336.013	389.148	152.232	272.912	410.305	416.492	273.849	405.913	300.726	402.392	0.00060849	0.00056912	0.00010048	1377.4	6.4632e-06	4.3524e-06	1366.9	369.99	4.4498e-06	5.5153e-06	413.96	138.35	120.54	40.869	3.1648e-06	50.424	0.0008033	0.0010699	0.00030312	1393.5	1.1091e-05	1.1645e-05	1385.2	377.81	1.05e-05	1.157e-05	423.1	141.64	123.75	42.076	1.0496e-05	51.96	133.011	151.203	174.771	77.525	209.281	217.962	77.009	82.085	205.777	191.338	81.428	85.759	86.270	91.071	233.204	90.187	-8191	255	
35691.348	1	1	0	0	0.22799	0.19348	0.14683	0.20538	0.24935	0.21957	0.45054	0.33302	0.30417	0.065682	0.10393	0.05402	0.16946	0.21724	0.21145	0.2162	-2.0396	-2.2542	-1.7812	-2.8479	-2.2583	-2.2188	-2.9437	-2.1312	-2.3083	-2.3208	-1.9458	-2.7375	-2.2042	-1.9438	-2.5312	-2.0458	208.439	87.831	199.878	406.166	199.023	181.383	330.443	387.883	411.993	222.874	135.804	397.185	68.778	150.255	191.994	271.686	0.00062106	0.00027361	0.00016048	1363.5	4.8721e-06	5.5449e-06	1357.8	370.22	4.1072e-06	5.8001e-06	413.77	138.39	121.2	40.765	6.932e-06	50.32	0.00080384	0.0010557	0.00028916	1392.6	1.0865e-05	1.1761e-05	1385.3	377.8	1.0649e-05	1.1403e-05	423.14	141.64	123.7	42.071	1.0964e-05	51.987	131.750	163.643	148.758	77.349	195.396	208.898	77.000	82.023	219.898	228.140	81.376	85.759	86.055	90.929	212.667	90.170	-8191	255	
35691.441	1	1	0	0	0.33315	0.055421	0.098159	0.21402	0.093935	0.11854	0.13297	0.1686	0.20828	0.16037	0.10129	0.059981	0.16866	0.25926	0.15486	0.10537	-1.7333	-2.5062	-1.8146	-2.4583	-2.4188	-1.9958	-2.9125	-2.075	-2.2542	-2.8104	-2.0354	-2.7458	-2.4417	-1.9	-2.675	-1.9917	239.445	269.184	298.106	173.017	246.568	189.917	388.501	360.877	146.189	215.445	134.581	290.793	94.952	401.207	82.215	67.033	0.00059787	0.00042344	0.0001559	1369.5	4.9679e-06	5.1421e-06	1365.2	371.37	5.1546e-06	5.0006e-06	416.44	139.15	121.75	40.868	6.4731e-06	50.375	0.00080574	0.0010288	0.00030283	1392.4	1.0718e-05	1.2113e-05	1387.5	378.68	1.0731e-05	1.1136e-05	423.84	142.22	124.22	42.095	1.1031e-05	52.011	134.488	159.026	159.407	77.678	199.216	209.907	76.981	82.027	194.160	211.416	81.228	85.659	86.537	91.021	206.613	90.065	-8191	255	
35691.539	1	1	0	0	0.14203	0.065201	0.27807	0.4018	0.080505	0.13841	0.17932	0.59687	0.23084	0.34776	0.16994	0.30423	0.28662	0.23295	0.1806	0.39472	-1.7146	-2.5979	-1.8708	-2.4437	-2.2771	-1.9104	-2.8354	-2.2708	-2.1875	-2.6188	-2.0375	-2.625	-2.4813	-2.025	-2.7604	-2.3604	294.944	192.053	300.931	371.465	357.007	354.622	104.232	393.478	319.713	72.148	415.326	112.061	393.101	71.006	147.569	73.471	0.00059482	0.00059813	9.8482e-05	1373.9	4.6702e-06	6.788e-06	1367.1	370.97	4.2912e-06	3.9183e-06	414.91	139.45	120.96	40.854	6.0655e-06	50.326	0.0008055	0.0010528	0.00029678	1394.3	1.087e-05	1.2562e-05	1388.9	378.43	1.0739e-05	1.1264e-05	423.28	142.04	123.95	42.129	1.0892e-05	51.917	132.481	149.155	149.711	77.512	217.725	212.037	77.182	82.073	198.273	199.564	81.434	85.863	86.331	91.022	224.739	90.022	-8191	255	
35691.660	1	1	0	0	0.077996	0.080692	0.24579	0.13966	0.12789	0.094362	0.32582	0.2441	0.11145	0.11544	0.038647	0.098068	0.23151	0.041241	0.17952	0.24613	-1.7542	-2.6688	-1.8771	-2.3708	-2.3875	-2.0271	-2.9062	-2.4938	-1.9958	-2.6646	-2.1542	-2.4042	-2.8104	-1.9667	-2.5979	-2.4479	126.482	124.240	385.258	396.511	228.733	420.966	399.247	398.858	315.987	414.830	406.945	277.711	419.692	305.244	362.477	264.895	0.00064334	0.00043399	0.00012886	1370.2	4.2258e-06	4.8426e-06	1369.4	369.97	7.2902e-06	5.5377e-06	416.81	138.46	121.2	40.923	6.3852e-06	50.372	0.00083156	0.0010697	0.00029497	1395.2	1.1168e-05	1.2453e-05	1387.2	378.1	1.0778e-05	1.2139e-05	423.78	141.78	124.3	42.187	1.0806e-05	52.011	134.537	156.534	165.395	77.471	211.918	217.281	77.423	82.201	205.029	226.879	81.433	85.904	86.419	91.223	219.843	89.815	-8191	255	
35691.730	1	1	0	0	0.10522	0.19636	0.11948	0.19586	0.12954	0.21456	0.077	0.17547	0.11738	0.24562	0.055156	0.054912	0.12928	0.46261	0.070956	0.18387	-1.5417	-2.5812	-1.9688	-2.1292	-2.6562	-1.7771	-2.6854	-2.5833	-1.7292	-2.6063	-2.1104	-2.1729	-2.6792	-1.8813	-2.4708	-2.7188	361.894	401.399	110.208	97.804	141.707	98.731	384.436	395.540	116.784	392.583	396.330	352.664	404.070	397.017	411.692	359.882	0.00062608	0.00063264	0.00011221	1380.2	4.6721e-06	5.7567e-06	1366.8	371.65	4.3054e-06	2.8535e-06	414.94	139.2	121.12	40.769	5.1229e-06	50.41	0.00080288	0.0010548	0.00030155	1398.8	1.0746e-05	1.2463e-05	1390	378.57	1.0508e-05	1.198e-05	423.63	142.17	124.09	42.089	1.1067e-05	52.027	132.144	145.171	151.876	77.607	219.036	206.876	77.337	82.051	218.203	209.213	81.572	85.670	86.397	91.025	212.026	90.190	-8191	255	
35691.828	1	1	0	0	0.15991	0.13283	0.065235	0.17257	0.22999	0.15043	0.27085	0.34	0.17284	0.13982	0.039438	0.25941	0.21333	0.12975	0.038282	0.18169	-1.4167	-2.6208	-2.1375	-2.2042	-2.5583	-2.075	-2.7229	-2.7292	-1.9604	-2.6458	-2.4479	-1.9937	-2.6833	-1.9354	-2.3833	-2.5958	362.694	331.659	289.774	86.148	266.227	144.350	377.344	323.295	177.660	171.099	156.808	391.591	94.177	334.730	94.207	334.015	0.00057868	0.0006896	0.00018629	1373.9	6.1445e-06	5.0417e-06	1367.3	372.45	6.2967e-06	6.2739e-06	415.31	138.62	121.68	40.902	4.1682e-06	50.402	0.00082963	0.0011222	0.00031713	1396.6	1.1343e-05	1.3043e-05	1387.3	379.14	1.1111e-05	1.1586e-05	423.9	141.92	124.3	42.131	1.1313e-05	52.047	131.768	159.460	177.598	77.632	198.947	200.642	77.250	82.168	207.674	223.013	81.455	85.897	86.494	91.118	214.124	90.214	-8191	255	
35691.949	1	1	0	0	0.080325	0.2008	0.10959	0.17972	0.16173	0.21606	0.38558	0.20187	0.05855	0.28453	0.15019	0.12469	0.098282	0.3179	0.13692	0.099215	-1.5208	-2.4688	-2.3729	-2.05	-2.7729	-2.0458	-2.4	-2.7083	-1.7583	-2.6146	-2.3646	-2.0875	-2.75	-2.2271	-2.225	-2.7167	292.313	239.643	88.836	396.242	226.223	375.250	375.302	409.238	242.232	349.214	353.767	405.009	392.832	407.391	210.430	353.208	0.00062847	0.00044875	0.00016049	1371.9	4.0002e-06	5.0244e-06	1367.3	371.33	5.122e-06	5.0721e-06	413.07	139.3	120.69	40.858	4.6983e-06	50.222	0.00082387	0.0011119	0.00029136	1395.8	1.1019e-05	1.1978e-05	1388.7	378.86	1.0867e-05	1.1862e-05	423.31	142.25	123.92	42.143	1.1171e-05	51.943	133.928	162.005	162.120	77.643	205.187	231.914	77.447	82.043	221.522	218.549	81.635	85.829	86.843	90.959	220.696	90.163	-8191	255	
35692.043	1	1	0	0	0.019661	0.19806	0.07602	0.25503	0.14072	0.1407	0.41526	0.14884	0.09341	0.18847	0.11584	0.049469	0.051101	0.34096	0.074965	0.33486	-1.3687	-2.4917	-2.2479	-2.1354	-2.5396	-2.0646	-2.4938	-2.8146	-1.7833	-2.625	-2.5354	-1.8813	-2.6167	-2.3563	-2.2875	-2.9188	241.396	248.907	400.309	398.697	180.281	102.128	356.700	361.349	377.795	386.826	406.173	337.931	380.814	349.358	344.492	355.844	0.00058073	0.00046119	0.00014816	1375.3	5.2855e-06	4.831e-06	1365.9	372.52	5.1879e-06	6.244e-06	415.77	139.06	121.35	40.825	5.5274e-06	50.265	0.00081239	0.0010803	0.00030024	1398.5	1.1318e-05	1.2199e-05	1390.6	379.25	1.106e-05	1.1998e-05	424.68	142.03	124.29	42.101	1.1324e-05	52.046	130.902	166.985	147.247	77.612	214.474	194.973	77.346	82.228	208.993	218.930	81.447	85.822	86.448	91.084	208.309	90.241	-8191	255	
