BOXY.EXE: ISS Imagent and Oximeter Data Acquisition Program Version 0.80
Ascii Record File

#ACQ INFORMATION
2  Detector Channels 
16  External MUX Channels 
1  Auxiliary Channels 
5000  Waveform (CCF) Frequency (Hz)
1  Waveforms Skipped 
30  Waveforms Averaged 
1  Cycles Averaged 
16  Acquisitions per Waveform 
10.0806  Updata Rate (Hz) 

#FILE INFORMATION
TRUE -- External MUX Channel results are PARSED.
FALSE -- AC DC and Phase are NOT grouped.
TRUE -- Companion Program Settings File CREATED.
FALSE -- AC data not excluded
FALSE -- DC data not excluded
FALSE -- Phase data not excluded
FALSE -- Auxillary Chn. data not excluded
Tab delimiters

#CALIBRATION STATE
TRUE -- Waveform Calibration Values APPLIED.


#AUX CALIBRATION VALUES
Val Type	aux-1	

Term	1.0000e+00	
Factor	0.0000e+00	


#WF CALIBRATION VALUES
A = Detector Channel
Val Type	A-AC1	A-AC2	A-AC3	A-AC4	A-AC5	A-AC6	A-AC7	A-AC8	A-AC9	A-AC10	A-AC11	A-AC12	A-AC13	A-AC14	A-AC15	A-AC16	A-DC1	A-DC2	A-DC3	A-DC4	A-DC5	A-DC6	A-DC7	A-DC8	A-DC9	A-DC10	A-DC11	A-DC12	A-DC13	A-DC14	A-DC15	A-DC16	A-Ph1	A-Ph2	A-Ph3	A-Ph4	A-Ph5	A-Ph6	A-Ph7	A-Ph8	A-Ph9	A-Ph10	A-Ph11	A-Ph12	A-Ph13	A-Ph14	A-Ph15	A-Ph16	

Term	0.00000e+00	0.00000e+00	0.00000e+00	0.00000e+00	0.00000e+00	0.00000e+00	0.00000e+00	0.00000e+00	0.00000e+00	0.00000e+00	0.00000e+00	0.00000e+00	0.00000e+00	0.00000e+00	0.00000e+00	0.00000e+00	0.00000e+00	0.00000e+00	0.00000e+00	0.00000e+00	0.00000e+00	0.00000e+00	0.00000e+00	0.00000e+00	0.00000e+00	0.00000e+00	0.00000e+00	0.00000e+00	0.00000e+00	0.00000e+00	0.00000e+00	0.00000e+00	0.00000e+00	0.00000e+00	0.00000e+00	0.00000e+00	0.00000e+00	0.00000e+00	0.00000e+00	0.00000e+00	0.00000e+00	0.00000e+00	0.00000e+00	0.00000e+00	0.00000e+00	0.00000e+00	0.00000e+00	0.00000e+00	
Factor	1.00000e+00	1.00000e+00	1.00000e+00	1.00000e+00	1.00000e+00	1.00000e+00	1.00000e+00	1.00000e+00	1.00000e+00	1.00000e+00	1.00000e+00	1.00000e+00	1.00000e+00	1.00000e+00	1.00000e+00	1.00000e+00	1.00000e+00	1.00000e+00	1.00000e+00	1.00000e+00	1.00000e+00	1.00000e+00	1.00000e+00	1.00000e+00	1.00000e+00	1.00000e+00	1.00000e+00	1.00000e+00	1.00000e+00	1.00000e+00	1.00000e+00	1.00000e+00	X	X	X	X	X	X	X	X	X	X	X	X	X	X	X	X	

B = Detector Channel
Val Type	B-AC1	B-AC2	B-AC3	B-AC4	B-AC5	B-AC6	B-AC7	B-AC8	B-AC9	B-AC10	B-AC11	B-AC12	B-AC13	B-AC14	B-AC15	B-AC16	B-DC1	B-DC2	B-DC3	B-DC4	B-DC5	B-DC6	B-DC7	B-DC8	B-DC9	B-DC10	B-DC11	B-DC12	B-DC13	B-DC14	B-DC15	B-DC16	B-Ph1	B-Ph2	B-Ph3	B-Ph4	B-Ph5	B-Ph6	B-Ph7	B-Ph8	B-Ph9	B-Ph10	B-Ph11	B-Ph12	B-Ph13	B-Ph14	B-Ph15	B-Ph16	

Term	0.00000e+00	0.00000e+00	0.00000e+00	0.00000e+00	0.00000e+00	0.00000e+00	0.00000e+00	0.00000e+00	0.00000e+00	0.00000e+00	0.00000e+00	0.00000e+00	0.00000e+00	0.00000e+00	0.00000e+00	0.00000e+00	0.00000e+00	0.00000e+00	0.00000e+00	0.00000e+00	0.00000e+00	0.00000e+00	0.00000e+00	0.00000e+00	0.00000e+00	0.00000e+00	0.00000e+00	0.00000e+00	0.00000e+00	0.00000e+00	0.00000e+00	0.00000e+00	-1.60646e+02	-1.31022e+02	-1.25289e+02	-1.86209e+02	-7.18792e+01	-6.66958e+01	-1.58474e+02	-1.62015e+02	-7.97830e+01	-6.76213e+01	-1.72128e+02	-1.71386e+02	-1.83279e+02	-1.77394e+02	-7.09845e+01	-1.49699e+02	
Factor	2.28142e-05	1.35801e-04	4.02598e-05	2.77733e-01	1.31646e-06	1.49048e-06	1.53129e-01	4.67114e-02	1.21370e-06	1.46712e-06	7.52218e-02	2.47388e-02	3.57489e-02	7.91092e-03	1.34422e-06	1.11941e-02	1.85564e-05	4.45642e-05	1.25709e-05	1.49093e-01	4.45853e-07	5.11453e-07	7.76909e-02	2.52998e-02	4.01722e-07	5.10017e-07	3.95400e-02	1.30392e-02	1.96821e-02	4.33613e-03	4.36568e-07	5.95756e-03	X	X	X	X	X	X	X	X	X	X	X	X	X	X	X	X	



#DISTANCE SETTINGS
A = Detector Channel
A-1	A-2	A-3	A-4	A-5	A-6	A-7	A-8	A-9	A-10	A-11	A-12	A-13	A-14	A-15	A-16	

2.5000e+00	3.0000e+00	2.5000e+00	3.0000e+00	2.0000e+00	3.0000e+00	1.5000e+00	3.0000e+00	3.0000e+00	3.0000e+00	3.0000e+00	3.0000e+00	3.0000e+00	3.0000e+00	1.5000e+00	3.0000e+00	

B = Detector Channel
B-1	B-2	B-3	B-4	B-5	B-6	B-7	B-8	B-9	B-10	B-11	B-12	B-13	B-14	B-15	B-16	

1.0000e+01	1.0000e+01	1.0000e+01	1.4400e+00	1.0000e+01	1.0000e+01	1.5100e+00	1.9400e+00	1.0000e+01	1.0000e+01	1.9900e+00	2.4900e+00	2.4100e+00	2.9000e+00	1.0000e+01	2.9800e+00	




#DATA BEGINS
time	group	step	mark	flag	A-AC1	A-AC2	A-AC3	A-AC4	A-AC5	A-AC6	A-AC7	A-AC8	A-AC9	A-AC10	A-AC11	A-AC12	A-AC13	A-AC14	A-AC15	A-AC16	A-DC1	A-DC2	A-DC3	A-DC4	A-DC5	A-DC6	A-DC7	A-DC8	A-DC9	A-DC10	A-DC11	A-DC12	A-DC13	A-DC14	A-DC15	A-DC16	A-Ph1	A-Ph2	A-Ph3	A-Ph4	A-Ph5	A-Ph6	A-Ph7	A-Ph8	A-Ph9	A-Ph10	A-Ph11	A-Ph12	A-Ph13	A-Ph14	A-Ph15	A-Ph16	B-AC1	B-AC2	B-AC3	B-AC4	B-AC5	B-AC6	B-AC7	B-AC8	B-AC9	B-AC10	B-AC11	B-AC12	B-AC13	B-AC14	B-AC15	B-AC16	B-DC1	B-DC2	B-DC3	B-DC4	B-DC5	B-DC6	B-DC7	B-DC8	B-DC9	B-DC10	B-DC11	B-DC12	B-DC13	B-DC14	B-DC15	B-DC16	B-Ph1	B-Ph2	B-Ph3	B-Ph4	B-Ph5	B-Ph6	B-Ph7	B-Ph8	B-Ph9	B-Ph10	B-Ph11	B-Ph12	B-Ph13	B-Ph14	B-Ph15	B-Ph16	aux-1	digaux	

36088.383	1	1	0	256	0.1583	0.27296	0.20786	0.033807	0.026781	0.074356	0.16453	0.14775	0.14743	0.22907	0.11135	0.076806	0.12889	0.13949	0.1835	0.16681	-2.2896	-1.9458	-2.6271	-2.45	-2.2	-2.7833	-2.0271	-2.425	-2.7979	-1.9417	-2.7208	-2.5042	-1.9917	-2.9062	-2.0021	-2.3625	429.508	255.504	289.879	442.300	318.487	277.236	401.090	108.906	306.310	117.502	143.257	97.118	398.753	355.035	270.390	395.231	0.00031368	0.00084449	0.00017962	456.81	3.4181e-06	4.949e-06	442.47	147.94	1.1222e-05	3.4394e-06	155.21	46.515	44.499	15.305	5.9653e-06	18.877	0.020809	0.049275	0.013798	627	0.00049052	0.00055543	533.47	179.26	0.00043853	0.00055828	201.01	62.175	67.618	20.634	0.00048489	26.098	125.277	357.323	280.511	109.064	295.982	258.806	107.383	114.102	292.025	289.255	111.648	116.332	118.380	123.586	303.368	120.739	-8191	255	
36088.480	1	1	0	0	0.14718	0.19149	0.15375	0.045199	0.089407	0.10481	0.40955	0.077539	0.10302	0.19376	0.14769	0.36181	0.19593	0.13416	0.0068609	0.12525	-2.3229	-1.8813	-2.5854	-2.4521	-2.2062	-2.9625	-2.2271	-2.2771	-2.75	-2.0417	-2.6542	-2.5438	-1.9833	-2.7333	-2.2167	-2.2104	414.443	418.091	380.932	191.955	368.016	448.328	434.481	313.760	277.593	283.657	350.171	419.106	355.223	378.272	141.688	321.680	0.00032643	0.00029411	0.00018055	454.69	6.4877e-06	1.1372e-05	440.78	147.9	8.0471e-06	1.0878e-05	152.83	46.295	44.57	15.333	4.3855e-06	18.84	0.021211	0.050406	0.014209	632.4	0.00050368	0.00056727	533.37	179.24	0.00044465	0.0005558	200.06	61.581	67.173	20.53	0.0004788	25.883	145.810	121.077	131.806	108.645	319.075	237.338	107.207	114.082	255.760	104.548	111.714	116.528	118.820	123.521	104.561	120.572	-8191	255	
36088.574	1	1	0	0	0.25403	0.1637	0.25393	0.07747	0.18298	0.26988	0.16934	0.12611	0.19202	0.13611	0.23524	0.12129	0.056582	0.03112	0.14513	0.21031	-2.3312	-1.8813	-2.4958	-2.5729	-1.9771	-2.7208	-2.3208	-2.2104	-2.8854	-2.0812	-2.3396	-2.6854	-2	-2.8583	-2.2833	-2.3	311.187	159.065	373.022	115.237	211.928	138.872	98.531	357.552	162.497	371.240	112.821	404.580	231.070	174.659	360.588	357.885	0.00033661	0.00066889	0.00025021	457.82	1.0467e-05	1.1738e-05	438.18	148.72	8.6087e-06	4.6743e-06	153.59	47.255	44.677	15.378	6.7842e-06	18.822	0.020633	0.048716	0.013795	628.43	0.0004924	0.00055801	531.82	179.47	0.00043611	0.00055117	199.69	61.942	67.116	20.583	0.00047982	25.938	161.602	248.802	192.198	108.426	175.619	284.934	107.159	113.895	307.470	199.218	110.757	115.744	118.291	124.294	385.631	120.511	-8191	255	
36088.695	1	1	0	0	0.077207	0.1888	0.29177	0.22532	0.11212	0.055237	0.17784	0.21361	0.058072	0.12187	0.071922	0.35012	0.076643	0.11718	0.19544	0.35154	-2.5708	-2	-2.2708	-2.7958	-1.9438	-2.7375	-2.6813	-2.0354	-2.7292	-2.2167	-2.1604	-2.7062	-2.0438	-2.5646	-2.5687	-1.9583	434.512	117.692	108.064	106.847	134.629	264.202	428.280	439.869	204.698	270.340	313.898	150.023	311.717	285.420	386.750	385.773	0.00024104	0.00018848	0.00014157	456.06	2.9357e-06	9.2391e-06	442.39	149.18	8.6305e-06	5.8437e-06	155.32	47.313	44.588	15.434	6.9725e-06	18.741	0.020614	0.04939	0.013972	630.66	0.00049873	0.00056881	534.52	180.06	0.00044255	0.00056137	200.95	62.307	67.419	20.63	0.00047856	25.954	140.004	286.872	322.997	108.785	447.215	245.147	107.559	114.194	235.053	221.597	111.700	116.147	118.686	124.583	96.243	120.993	-8191	255	
36088.770	1	1	0	0	0.060206	0.11018	0.21012	0.11965	0.025938	0.076961	0.067476	0.1042	0.060297	0.29241	0.14577	0.10151	0.16024	0.11127	0.15138	0.035369	-2.6104	-2.1562	-2.1625	-2.6229	-2.0375	-2.4771	-2.4104	-1.8563	-2.8021	-2.3542	-2.2167	-2.8229	-2.2125	-2.5875	-2.625	-1.9479	196.823	431.228	273.938	263.037	271.315	307.817	202.265	389.885	280.129	343.036	244.707	335.601	113.683	243.822	130.911	259.843	0.0004032	0.001202	0.00012507	460.41	4.643e-06	4.9238e-06	441.43	148.87	9.5573e-06	1.1179e-05	153.4	47.137	44.978	15.347	2.0825e-06	19.111	0.020319	0.048441	0.013786	628.26	0.00048664	0.00055677	533.9	179.92	0.00043972	0.00055953	201.47	62.58	67.777	20.743	0.000483	26.12	122.218	385.335	104.367	108.242	109.454	203.234	107.225	114.275	219.627	107.548	111.274	116.319	118.217	124.017	351.966	120.749	-8191	255	
36088.863	1	1	0	0	0.2357	0.086156	0.080342	0.10647	0.20699	0.14663	0.18343	0.088093	0.13302	0.22358	0.39976	0.15955	0.042994	0.15112	0.16525	0.13957	-2.4479	-2.2271	-2.0062	-2.9458	-2.125	-2.2687	-2.7521	-2.1375	-2.7333	-2.4229	-2.2021	-2.7583	-2.2708	-2.3458	-2.8104	-1.8937	421.965	143.232	330.176	452.634	448.551	438.461	423.276	204.890	414.215	316.763	300.421	195.347	285.269	350.691	112.920	186.670	0.00022298	0.00082856	0.00014177	457.3	5.6297e-06	8.328e-06	444.27	148.35	8.2881e-06	5.6065e-06	153.7	47.096	44.568	15.441	7.9131e-06	18.888	0.020569	0.049316	0.01405	630.14	0.00049205	0.0005672	534.87	179.43	0.00043949	0.00056401	201.11	62.457	67.49	20.761	0.00048679	25.964	456.100	418.299	399.162	108.473	209.832	265.399	107.874	114.234	400.482	406.673	111.701	116.516	118.776	124.643	439.956	120.971	-8191	255	
36088.961	1	1	0	0	0.15538	0.1428	0.16921	0.26516	0.18652	0.2049	0.091228	0.18174	0.11203	0.33745	0.10757	0.04305	0.17367	0.091065	0.20449	0.060067	-2.2812	-2.4021	-2.0312	-2.8771	-2.0792	-2.2042	-2.8083	-2.0396	-2.5042	-2.6354	-2.0625	-2.7333	-2.0729	-2.2833	-2.85	-2.0812	234.458	106.223	386.913	354.016	346.230	378.737	206.022	305.359	245.403	170.939	105.961	343.532	324.293	391.152	423.905	364.863	0.00016754	0.00065212	0.00022172	453.31	5.9411e-06	3.1484e-06	443.02	148.14	7.5053e-06	5.9916e-06	153.68	47.153	45.143	15.667	1.5744e-06	18.781	0.020619	0.049463	0.01402	628.52	0.00048884	0.00056765	534.49	179.54	0.00044081	0.00056243	200.8	62.338	67.548	20.857	0.00047842	25.976	112.239	142.676	102.873	108.787	225.416	166.897	107.687	113.845	321.513	338.983	111.826	116.810	118.787	124.298	318.492	120.657	-8191	255	
36089.082	1	1	0	0	0.10694	0.10171	0.11899	0.14244	0.24234	0.034132	0.045021	0.14604	0.10384	0.19509	0.11439	0.11971	0.16284	0.25622	0.22744	0.25992	-2.0292	-2.625	-2.1375	-2.7521	-2.1833	-2.0167	-2.8479	-2.0833	-2.3146	-2.5896	-2.075	-2.8021	-2.325	-2.125	-2.7458	-2.1354	190.728	174.406	124.645	112.048	320.238	307.014	193.234	299.309	351.150	386.137	405.664	370.176	359.166	433.989	313.651	198.692	0.00025196	0.00065297	0.00022883	455.32	1.069e-05	1.0668e-05	440.38	148.17	3.4884e-06	8.6616e-06	154.72	47.203	44.613	15.593	5.1741e-06	19.052	0.020135	0.048661	0.013604	623.53	0.00048704	0.00056218	534.56	179.44	0.00044447	0.0005657	201.52	62.649	67.943	20.943	0.00048044	26.292	151.939	114.795	268.324	109.536	302.900	184.576	107.467	114.000	329.776	303.373	111.548	116.133	118.610	124.205	157.277	120.943	-8191	255	
36089.180	1	1	0	0	0.20378	0.13756	0.37707	0.1069	0.25099	0.0414	0.11147	0.24687	0.08448	0.17865	0.28707	0.31762	0.075996	0.23819	0.09839	0.073496	-1.9854	-2.7646	-1.8958	-2.4375	-2.3937	-2.0271	-2.7604	-2.1437	-2.2917	-2.7167	-2.3063	-2.6646	-2.5854	-1.8146	-2.8042	-2.2333	394.345	455.802	330.952	331.580	436.904	399.495	375.644	450.847	258.407	108.761	403.153	409.299	115.825	272.144	182.622	181.502	0.00019263	0.00068878	0.00037074	459.65	1.877e-06	7.6954e-06	444.03	149.25	6.09e-06	5.8833e-06	156.49	47.698	45.707	15.836	7.281e-06	19.455	0.020652	0.049058	0.013636	624.91	0.0004778	0.00054748	532.51	179.24	0.00041622	0.00052395	199.27	61.836	66.688	20.747	0.00043626	25.987	159.711	378.364	364.675	108.858	246.653	425.292	108.025	114.159	225.340	164.431	111.261	116.701	118.429	124.289	245.339	121.030	-8191	255	
36089.273	1	1	0	0	0.15742	0.33638	0.045735	0.10331	0.22153	0.097023	0.26612	0.12551	0.047158	0.16385	0.21363	0.084605	0.14248	0.032286	0.20463	0.22908	-1.9479	-2.6063	-1.8458	-2.7292	-2.7188	-1.9521	-2.7229	-2.4104	-2.2042	-2.8312	-2.0854	-2.4792	-2.6917	-2.0104	-2.7292	-2.3063	325.033	391.701	120.276	134.005	384.850	385.568	399.195	173.189	201.320	206.338	371.143	348.703	352.227	119.988	248.313	395.406	0.00027753	0.00094514	0.00014581	462.45	4.9746e-06	1.3793e-06	444.96	150.25	6.2428e-06	1.0494e-05	154.52	47.869	45.72	15.946	5.88e-06	19.467	0.019077	0.045142	0.012671	619.87	0.00045897	0.0005265	531.2	179.48	0.0004153	0.00052143	199.34	62.161	67.041	20.878	0.00044292	26.089	174.250	196.032	342.648	108.589	205.112	337.265	107.472	114.331	246.080	329.793	111.480	116.130	118.785	124.724	257.422	121.415	-8191	255	
36089.395	1	1	0	0	0.31838	0.34708	0.16145	0.068192	0.076561	0.16695	0.14324	0.15491	0.46927	0.10652	0.12352	0.19794	0.054438	0.11148	0.22751	0.066929	-1.7875	-2.7375	-2.1646	-2.4917	-2.5833	-2.1479	-2.7125	-2.4146	-2.1396	-2.7875	-1.9917	-2.3625	-2.7521	-1.9937	-2.7625	-2.55	368.965	157.986	329.903	441.114	362.486	204.330	426.371	110.213	293.614	398.674	213.727	305.507	394.039	363.857	311.878	100.733	0.00029439	0.00078298	0.00013598	455.62	3.2409e-06	1.0399e-05	446.28	149.96	1.4052e-05	4.6637e-06	156.58	47.878	45.734	15.928	1.0707e-05	19.401	0.019071	0.045191	0.012686	616.21	0.00045453	0.00051555	530.62	179.23	0.00041597	0.00052298	199.72	62.598	67.199	20.921	0.00045323	26.235	151.059	386.601	120.928	109.117	237.711	292.899	107.776	114.342	221.694	377.825	111.790	116.491	118.555	124.286	357.191	121.062	-8191	255	
36089.465	1	1	0	0	0.11346	0.24174	0.062921	0.13523	0.070903	0.11654	0.072153	0.2439	0.29351	0.29047	0.15276	0.25953	0.028687	0.12574	0.25422	0.047528	-1.5042	-2.8396	-2.2833	-2.3167	-2.8187	-1.9958	-2.6354	-2.6063	-2.0271	-2.9646	-2.2938	-2.2	-2.7833	-2.1417	-2.4792	-2.6417	251.633	394.156	225.738	264.836	413.580	369.273	346.615	442.180	283.845	427.572	375.603	278.508	160.096	344.388	172.336	262.219	0.00044982	0.00042282	0.00033508	456.67	4.3193e-06	4.0133e-06	444.15	150.21	1.2016e-05	2.037e-05	156.64	48.044	45.853	15.669	5.3151e-06	19.471	0.019702	0.04623	0.013199	623.52	0.0004688	0.00053702	532.79	180.05	0.000423	0.00053177	201.12	62.778	67.603	20.931	0.00046914	26.386	168.954	344.283	230.272	108.906	107.969	188.405	107.949	114.521	221.379	393.596	111.731	116.206	118.822	124.201	417.961	121.154	-8191	255	
36089.562	1	1	0	0	0.172	0.12349	0.36411	0.14985	0.11722	0.13443	0.087938	0.2789	0.07692	0.1411	0.16751	0.072581	0.17234	0.10324	0.44034	0.14317	-1.5312	-2.7125	-2.2354	-2.0604	-2.6604	-2.2104	-2.4437	-2.7062	-1.9375	-2.8187	-2.5042	-1.8875	-2.7396	-2.0062	-2.4292	-2.825	295.468	233.443	184.980	187.715	186.420	394.606	378.037	165.838	413.671	147.923	135.820	363.202	224.390	297.149	378.565	440.768	0.00032485	0.00066856	0.00025848	459.43	3.5437e-06	8.9612e-06	444.62	150.09	7.1478e-06	1.537e-05	154.59	47.774	45.827	15.792	4.732e-06	19.079	0.020196	0.048169	0.013748	630.79	0.00048957	0.00056615	538.12	181.87	0.00045051	0.00056928	204.12	63.74	68.949	21.221	0.00048955	26.519	122.755	208.159	165.520	108.653	279.923	253.585	107.979	114.389	207.305	243.515	111.739	116.828	118.905	124.515	169.733	120.526	-8191	255	
36089.680	1	1	0	0	0.09933	0.036936	0.29161	0.1815	0.090818	0.26173	0.20809	0.20641	0.17657	0.16805	0.18845	0.077184	0.069663	0.3274	0.099008	0.14638	-1.5146	-2.6708	-2.5	-1.9854	-2.8125	-2.1292	-2.3125	-2.8958	-1.9271	-2.7667	-2.6125	-1.9958	-2.925	-2.2604	-2.2625	-2.7292	237.854	411.331	268.869	394.463	151.132	238.547	425.627	349.138	290.501	144.480	274.274	422.142	405.179	346.986	293.240	258.565	0.00028292	0.00095379	0.00037535	460.12	6.6716e-06	1.3776e-05	448.18	150.69	2.2046e-06	1.3881e-05	155.89	47.639	45.804	15.791	7.1669e-06	19.079	0.020562	0.048611	0.013756	632.8	0.0004815	0.00055674	539.51	181.98	0.00044236	0.00056236	203.3	63.231	68.372	21.042	0.00048225	26.182	164.214	207.937	287.306	108.201	271.239	338.155	107.767	114.580	373.062	247.151	111.903	116.599	119.261	124.657	243.110	121.167	-8191	255	
36089.777	1	1	0	0	0.52839	0.062384	0.094332	0.019129	0.12862	0.089051	0.14442	0.18053	0.10424	0.10673	0.030092	0.39304	0.16278	0.13446	0.14008	0.054914	-1.6667	-2.5583	-2.5687	-2.0854	-2.7125	-2.0479	-2.1521	-2.7812	-1.9292	-2.4208	-2.4375	-2.0417	-2.8104	-2.2062	-2.0896	-2.6104	256.937	364.499	110.525	292.723	239.825	198.337	346.815	373.234	143.324	109.107	414.582	365.312	282.404	290.621	435.317	402.424	0.00033273	0.00031112	0.00011749	457.43	5.2086e-06	8.92e-06	441.5	150.85	5.7113e-06	6.1912e-06	154.76	47.147	45.546	15.603	1.6147e-05	18.685	0.020196	0.047871	0.01354	627.48	0.00047237	0.00054432	533.62	180.17	0.00042527	0.00054655	200.55	62.276	67.589	20.779	0.00048409	25.87	173.885	291.730	127.554	108.902	267.975	366.544	107.855	114.420	261.998	134.305	112.265	116.753	118.931	124.364	343.267	121.494	-8191	255	
36089.871	1	1	0	0	0.20984	0.19141	0.025115	0.24602	0.23734	0.12447	0.28463	0.13657	0.049303	0.23736	0.26889	0.096376	0.099154	0.24221	0.082819	0.23046	-1.6333	-2.3937	-2.7604	-2.025	-2.7229	-2.4813	-2.0708	-2.8771	-2.2083	-2.4292	-2.7812	-1.9667	-2.6708	-2.4208	-2.0125	-2.7896	153.365	317.968	278.344	453.042	114.538	109.017	161.576	400.842	371.652	412.907	398.041	105.121	212.854	293.405	224.633	433.055	0.00038425	0.00050788	8.8074e-05	457.73	3.2129e-06	5.2326e-06	442.92	149.82	4.3057e-06	6.4631e-06	153.95	47.139	45.346	15.504	5.4181e-06	18.785	0.020502	0.049924	0.014081	632.73	0.00049645	0.00057451	536.62	181.07	0.00044383	0.00057142	201.44	62.315	67.95	20.87	0.00048688	25.888	123.486	162.558	239.185	108.713	171.144	332.328	107.957	114.825	104.181	282.980	111.715	116.728	118.729	125.447	445.107	121.003	-8191	255	
36089.992	1	1	0	0	0.081283	0.24274	0.24644	0.24171	0.12524	0.080903	0.12461	0.31615	0.10742	0.093555	0.19995	0.20236	0.0095139	0.10195	0.21373	0.30371	-1.6375	-2.3354	-2.6854	-1.9271	-2.7271	-2.525	-1.8375	-2.6708	-2.375	-2.1333	-2.9167	-2.0396	-2.4479	-2.4771	-1.9417	-2.6583	334.657	183.772	183.262	422.137	174.977	270.207	428.598	418.004	404.283	183.631	421.371	128.063	281.756	352.160	117.877	192.627	0.00044059	0.00043273	0.00034377	460.75	6.0801e-06	4.4765e-06	447.12	149.68	8.5937e-06	9.9536e-06	155.46	46.535	45.213	15.529	1.3204e-05	18.723	0.020609	0.049533	0.013817	630.1	0.0004886	0.000558	534.69	179.92	0.00042671	0.00054093	199.31	61.287	66.73	20.601	0.00044969	25.501	156.772	265.451	310.352	108.973	260.047	356.450	107.797	114.176	228.139	180.646	111.598	115.558	119.081	124.327	233.474	121.097	-8191	255	
36090.066	1	1	0	0	0.087132	0.068225	0.39981	0.16504	0.10058	0.20099	0.1436	0.14425	0.09602	0.2116	0.1992	0.096124	0.26552	0.24736	0.10962	0.089349	-1.8687	-2.2313	-2.7479	-2.0104	-2.5542	-2.5521	-1.9958	-2.8021	-2.3896	-2.2125	-2.8771	-2.0146	-2.225	-2.6188	-1.9062	-2.6979	277.346	130.765	253.714	110.380	257.553	343.800	441.463	347.949	344.453	144.176	366.989	353.236	377.269	115.479	408.673	449.189	0.00010043	0.00084451	0.00024316	457.84	1.2936e-05	6.4979e-06	443.04	151.31	4.92e-06	3.568e-06	156.46	46.845	45.477	15.332	7.9404e-06	18.701	0.019108	0.045638	0.012686	618.36	0.00044578	0.00050757	528.72	178.6	0.00039523	0.00050196	197.4	60.58	66.023	20.206	0.00043454	25.202	124.166	300.732	427.567	108.752	224.341	126.405	107.317	114.519	387.409	395.826	111.961	116.459	118.996	124.014	436.437	121.534	-8191	255	
