BOXY.EXE: ISS Imagent and Oximeter Data Acquisition Program Version 0.80
Ascii Record File

#ACQ INFORMATION
2  Detector Channels 
16  External MUX Channels 
1  Auxiliary Channels 
5000  Waveform (CCF) Frequency (Hz)
1  Waveforms Skipped 
30  Waveforms Averaged 
1  Cycles Averaged 
16  Acquisitions per Waveform 
10.0806  Updata Rate (Hz) 

#FILE INFORMATION
TRUE -- External MUX Channel results are PARSED.
FALSE -- AC DC and Phase are NOT grouped.
TRUE -- Companion Program Settings File CREATED.
FALSE -- AC data not excluded
FALSE -- DC data not excluded
FALSE -- Phase data not excluded
FALSE -- Auxillary Chn. data not excluded
Tab delimiters

#CALIBRATION STATE
TRUE -- Waveform Calibration Values APPLIED.


#AUX CALIBRATION VALUES
Val Type	aux-1	

Term	1.0000e+00	
Factor	0.0000e+00	


#WF CALIBRATION VALUES
A = Detector Channel
Val Type	A-AC1	A-AC2	A-AC3	A-AC4	A-AC5	A-AC6	A-AC7	A-AC8	A-AC9	A-AC10	A-AC11	A-AC12	A-AC13	A-AC14	A-AC15	A-AC16	A-DC1	A-DC2	A-DC3	A-DC4	A-DC5	A-DC6	A-DC7	A-DC8	A-DC9	A-DC10	A-DC11	A-DC12	A-DC13	A-DC14	A-DC15	A-DC16	A-Ph1	A-Ph2	A-Ph3	A-Ph4	A-Ph5	A-Ph6	A-Ph7	A-Ph8	A-Ph9	A-Ph10	A-Ph11	A-Ph12	A-Ph13	A-Ph14	A-Ph15	A-Ph16	

Term	0.00000e+00	0.00000e+00	0.00000e+00	0.00000e+00	0.00000e+00	0.00000e+00	0.00000e+00	0.00000e+00	0.00000e+00	0.00000e+00	0.00000e+00	0.00000e+00	0.00000e+00	0.00000e+00	0.00000e+00	0.00000e+00	0.00000e+00	0.00000e+00	0.00000e+00	0.00000e+00	0.00000e+00	0.00000e+00	0.00000e+00	0.00000e+00	0.00000e+00	0.00000e+00	0.00000e+00	0.00000e+00	0.00000e+00	0.00000e+00	0.00000e+00	0.00000e+00	0.00000e+00	0.00000e+00	0.00000e+00	0.00000e+00	0.00000e+00	0.00000e+00	0.00000e+00	0.00000e+00	0.00000e+00	0.00000e+00	0.00000e+00	0.00000e+00	0.00000e+00	0.00000e+00	0.00000e+00	0.00000e+00	
Factor	1.00000e+00	1.00000e+00	1.00000e+00	1.00000e+00	1.00000e+00	1.00000e+00	1.00000e+00	1.00000e+00	1.00000e+00	1.00000e+00	1.00000e+00	1.00000e+00	1.00000e+00	1.00000e+00	1.00000e+00	1.00000e+00	1.00000e+00	1.00000e+00	1.00000e+00	1.00000e+00	1.00000e+00	1.00000e+00	1.00000e+00	1.00000e+00	1.00000e+00	1.00000e+00	1.00000e+00	1.00000e+00	1.00000e+00	1.00000e+00	1.00000e+00	1.00000e+00	X	X	X	X	X	X	X	X	X	X	X	X	X	X	X	X	

B = Detector Channel
Val Type	B-AC1	B-AC2	B-AC3	B-AC4	B-AC5	B-AC6	B-AC7	B-AC8	B-AC9	B-AC10	B-AC11	B-AC12	B-AC13	B-AC14	B-AC15	B-AC16	B-DC1	B-DC2	B-DC3	B-DC4	B-DC5	B-DC6	B-DC7	B-DC8	B-DC9	B-DC10	B-DC11	B-DC12	B-DC13	B-DC14	B-DC15	B-DC16	B-Ph1	B-Ph2	B-Ph3	B-Ph4	B-Ph5	B-Ph6	B-Ph7	B-Ph8	B-Ph9	B-Ph10	B-Ph11	B-Ph12	B-Ph13	B-Ph14	B-Ph15	B-Ph16	

Term	0.00000e+00	0.00000e+00	0.00000e+00	0.00000e+00	0.00000e+00	0.00000e+00	0.00000e+00	0.00000e+00	0.00000e+00	0.00000e+00	0.00000e+00	0.00000e+00	0.00000e+00	0.00000e+00	0.00000e+00	0.00000e+00	0.00000e+00	0.00000e+00	0.00000e+00	0.00000e+00	0.00000e+00	0.00000e+00	0.00000e+00	0.00000e+00	0.00000e+00	0.00000e+00	0.00000e+00	0.00000e+00	0.00000e+00	0.00000e+00	0.00000e+00	0.00000e+00	-1.60646e+02	-1.31022e+02	-1.25289e+02	-1.86209e+02	-7.18792e+01	-6.66958e+01	-1.58474e+02	-1.62015e+02	-7.97830e+01	-6.76213e+01	-1.72128e+02	-1.71386e+02	-1.83279e+02	-1.77394e+02	-7.09845e+01	-1.49699e+02	
Factor	2.28142e-05	1.35801e-04	4.02598e-05	2.77733e-01	1.31646e-06	1.49048e-06	1.53129e-01	4.67114e-02	1.21370e-06	1.46712e-06	7.52218e-02	2.47388e-02	3.57489e-02	7.91092e-03	1.34422e-06	1.11941e-02	1.85564e-05	4.45642e-05	1.25709e-05	1.49093e-01	4.45853e-07	5.11453e-07	7.76909e-02	2.52998e-02	4.01722e-07	5.10017e-07	3.95400e-02	1.30392e-02	1.96821e-02	4.33613e-03	4.36568e-07	5.95756e-03	X	X	X	X	X	X	X	X	X	X	X	X	X	X	X	X	



#DISTANCE SETTINGS
A = Detector Channel
A-1	A-2	A-3	A-4	A-5	A-6	A-7	A-8	A-9	A-10	A-11	A-12	A-13	A-14	A-15	A-16	

2.5000e+00	3.0000e+00	2.5000e+00	3.0000e+00	2.0000e+00	3.0000e+00	1.5000e+00	3.0000e+00	3.0000e+00	3.0000e+00	3.0000e+00	3.0000e+00	3.0000e+00	3.0000e+00	1.5000e+00	3.0000e+00	

B = Detector Channel
B-1	B-2	B-3	B-4	B-5	B-6	B-7	B-8	B-9	B-10	B-11	B-12	B-13	B-14	B-15	B-16	

1.0000e+01	1.0000e+01	1.0000e+01	1.4400e+00	1.0000e+01	1.0000e+01	1.5100e+00	1.9400e+00	1.0000e+01	1.0000e+01	1.9900e+00	2.4900e+00	2.4100e+00	2.9000e+00	1.0000e+01	2.9800e+00	




#DATA BEGINS
time	group	step	mark	flag	A-AC1	A-AC2	A-AC3	A-AC4	A-AC5	A-AC6	A-AC7	A-AC8	A-AC9	A-AC10	A-AC11	A-AC12	A-AC13	A-AC14	A-AC15	A-AC16	A-DC1	A-DC2	A-DC3	A-DC4	A-DC5	A-DC6	A-DC7	A-DC8	A-DC9	A-DC10	A-DC11	A-DC12	A-DC13	A-DC14	A-DC15	A-DC16	A-Ph1	A-Ph2	A-Ph3	A-Ph4	A-Ph5	A-Ph6	A-Ph7	A-Ph8	A-Ph9	A-Ph10	A-Ph11	A-Ph12	A-Ph13	A-Ph14	A-Ph15	A-Ph16	B-AC1	B-AC2	B-AC3	B-AC4	B-AC5	B-AC6	B-AC7	B-AC8	B-AC9	B-AC10	B-AC11	B-AC12	B-AC13	B-AC14	B-AC15	B-AC16	B-DC1	B-DC2	B-DC3	B-DC4	B-DC5	B-DC6	B-DC7	B-DC8	B-DC9	B-DC10	B-DC11	B-DC12	B-DC13	B-DC14	B-DC15	B-DC16	B-Ph1	B-Ph2	B-Ph3	B-Ph4	B-Ph5	B-Ph6	B-Ph7	B-Ph8	B-Ph9	B-Ph10	B-Ph11	B-Ph12	B-Ph13	B-Ph14	B-Ph15	B-Ph16	aux-1	digaux	

35642.035	1	1	0	256	0.10382	0.14539	0.22598	0.19172	0.1295	0.14033	0.36883	0.074152	0.14532	0.063931	0.33204	0.13922	0.20699	0.31339	0.031136	0.21296	-2.4813	-1.9833	-2.3542	-2.7188	-1.8917	-2.6646	-2.7104	-1.9896	-2.7896	-2.2646	-2.3229	-2.7104	-2.0062	-2.65	-2.6167	-1.9937	244.599	278.437	121.191	126.992	396.733	331.978	336.697	386.971	400.902	251.190	333.510	133.658	158.795	256.792	401.851	238.997	0.00032183	0.00015945	0.00010399	1042.4	2.892e-06	4.0884e-06	1134.7	214.8	1.8284e-06	1.8629e-06	272.85	76.572	59.538	17.248	2.2604e-06	24.527	0.00047006	0.00074543	0.00020616	1040.3	8.0189e-06	8.0884e-06	1136	216.7	6.9908e-06	7.9084e-06	275.26	77.9	60.958	17.777	6.5922e-06	25.096	137.603	163.615	151.318	80.219	215.030	227.226	80.087	87.685	197.577	178.567	87.316	93.966	94.374	101.701	204.105	101.367	-8191	255	
35642.129	1	1	0	0	0.16681	0.22742	0.14383	0.19174	0.34292	0.060229	0.29733	0.13393	0.021807	0.09554	0.30381	0.14443	0.15646	0.090226	0.18222	0.12274	-2.2917	-2.1625	-2.1375	-2.8604	-2.0271	-2.5396	-2.8937	-2.0542	-2.7104	-2.4417	-2.1125	-2.7833	-2.1354	-2.4604	-2.7354	-2.1375	282.620	321.609	180.026	253.992	273.184	345.390	325.364	429.223	156.503	267.858	429.295	376.799	103.685	289.254	242.966	377.008	0.0003173	0.00033553	7.1818e-05	1043	3.1956e-06	1.8569e-06	1131.7	214.3	3.3661e-06	1.611e-06	272.01	76.114	60.122	17.231	1.8459e-06	24.012	0.00046534	0.00072203	0.00020331	1042.1	7.7941e-06	7.7229e-06	1137.1	216.46	6.7807e-06	7.2529e-06	275.87	77.839	60.979	17.81	6.7732e-06	24.989	134.927	146.850	150.234	80.073	215.084	230.556	80.080	87.641	209.943	212.500	87.117	93.861	94.635	101.733	235.393	101.059	-8191	255	
35642.227	1	1	0	0	0.17279	0.22466	0.024897	0.016678	0.069444	0.18158	0.19441	0.24096	0.17733	0.12465	0.17794	0.19114	0.21658	0.15199	0.04717	0.18138	-2.4083	-2.3708	-1.9979	-2.8792	-2.1229	-2.2313	-2.8958	-1.9646	-2.6312	-2.3229	-2.0396	-3.1083	-2.3292	-2.3667	-2.6979	-2.0417	140.387	398.397	232.928	368.110	109.724	368.780	384.066	349.616	245.316	110.380	375.006	417.596	110.017	99.195	222.238	382.432	0.00034208	0.00023239	0.00010128	1038.9	3.9565e-06	4.1794e-06	1133.9	213.86	2.6704e-06	2.8285e-06	270.14	76.144	60.041	17.335	3.0861e-06	24.306	0.00046797	0.0006875	0.00020137	1039.8	7.3668e-06	8.1875e-06	1137.1	216.6	6.6569e-06	7.6386e-06	275.29	77.725	60.961	17.796	6.7477e-06	25.002	136.833	148.777	156.214	80.369	239.770	215.863	80.188	87.595	207.660	192.153	87.139	94.176	94.528	101.855	207.667	101.159	-8191	255	
35642.320	1	1	0	0	0.11254	0.2007	0.079995	0.14584	0.20531	0.11107	0.27826	0.27455	0.21585	0.036785	0.28314	0.13994	0.054235	0.094679	0.052474	0.039386	-2.2125	-2.3292	-2.0542	-2.9104	-2.0729	-2.15	-2.9229	-2.1312	-2.4042	-2.5667	-2.0729	-2.6604	-2.3125	-2.2771	-2.875	-2.1458	363.535	218.769	350.068	234.399	107.177	288.814	388.585	389.939	416.142	323.273	120.108	384.195	164.621	183.276	181.567	104.492	0.0003482	0.00040847	7.4072e-05	1040.1	4.0248e-06	3.92e-06	1134.3	214.55	4.1396e-06	3.5388e-06	270.47	76.642	60.319	17.236	3.3802e-06	24.08	0.00047075	0.00066837	0.00019265	1039.6	7.338e-06	8.0799e-06	1138	216.42	6.7858e-06	7.4707e-06	275.19	78.04	61.079	17.793	6.473e-06	24.968	138.943	151.717	144.390	80.171	208.806	231.677	80.297	87.888	226.724	232.898	87.571	93.943	94.634	102.007	218.471	101.213	-8191	255	
35642.418	1	1	0	0	0.24736	0.064739	0.2495	0.25175	0.12342	0.13587	0.11837	0.14714	0.2735	0.06236	0.18977	0.23732	0.13839	0.27672	0.064306	0.08652	-1.9417	-2.5417	-1.8917	-2.7729	-2.3729	-2.2521	-2.9604	-1.95	-2.4437	-2.6271	-2.1375	-2.5167	-2.4146	-2.1292	-2.7812	-2.2479	153.190	248.349	387.127	331.786	108.794	99.559	423.895	72.929	341.367	288.281	369.152	143.472	294.862	350.876	385.780	383.156	0.000322	0.00027905	8.561e-05	1044.8	1.7506e-06	2.0647e-06	1130.4	213.79	3.6871e-06	1.4559e-06	270.19	76.335	60.099	17.226	2.4806e-06	24.299	0.00048181	0.00063458	0.00019066	1043.4	7.3278e-06	7.8306e-06	1136.2	216.33	6.579e-06	7.7193e-06	275.21	77.995	61.059	17.753	6.7777e-06	25.034	134.048	175.278	162.491	80.266	237.253	222.600	79.919	87.781	192.779	279.583	87.402	94.160	94.533	101.709	275.523	101.555	-8191	255	
35642.516	1	1	0	0	0.063005	0.043895	0.17657	0.18534	0.19309	0.209	0.45609	0.25781	0.14559	0.11651	0.10492	0.12328	0.081839	0.036406	0.24415	0.15887	-1.8979	-2.75	-2.0021	-2.7062	-2.4313	-1.9937	-2.8896	-2.2958	-2.2458	-3.0104	-2.1063	-2.5521	-2.4771	-2.0396	-2.7417	-2.1792	175.420	340.980	159.528	98.312	336.912	341.013	343.089	96.037	306.757	111.972	295.191	211.921	210.745	103.610	77.870	109.376	0.00032881	0.00038117	7.7197e-05	1041.6	2.9868e-06	3.5364e-06	1122.8	212.95	3.7547e-06	2.5447e-06	270.85	76.52	59.41	17.195	4.7243e-06	24.254	0.00048873	0.00065593	0.00018977	1041.7	7.0928e-06	8.13e-06	1135.8	215.63	6.6828e-06	7.4218e-06	274.72	78.001	60.853	17.738	6.3712e-06	25.043	137.583	171.556	158.174	80.065	224.039	206.023	80.042	87.769	192.660	212.401	86.870	94.492	94.677	101.849	213.328	101.579	-8191	255	
35642.633	1	1	0	0	0.31476	0.10469	0.35285	0.1546	0.14224	0.087498	0.33205	0.068552	0.049633	0.067735	0.10065	0.092246	0.35205	0.16608	0.089059	0.47958	-1.9042	-2.8521	-2.0229	-2.6937	-2.5167	-2.275	-2.8833	-2.4854	-2.1958	-2.8542	-2.0333	-2.4542	-2.55	-2.0958	-2.7188	-2.3292	209.944	312.832	190.172	88.685	199.595	128.462	403.018	367.742	136.819	118.957	170.812	319.319	96.189	242.313	364.319	369.593	0.00033172	0.00028298	9.1551e-05	1031.1	1.8901e-06	2.145e-06	1128.3	213.06	3.2086e-06	1.7795e-06	270.35	76.084	60.448	17.313	3.0805e-06	24.208	0.00046383	0.00066104	0.00019647	1038.8	7.3008e-06	8.0074e-06	1136.3	215.8	7.1448e-06	7.4027e-06	274.68	77.9	61.255	17.789	7.2925e-06	25.007	138.535	166.773	144.783	80.403	226.746	150.734	80.252	87.777	231.361	220.879	87.232	94.384	94.776	101.923	228.399	101.349	-8191	255	
35642.730	1	1	0	0	0.23952	0.35738	0.23782	0.27004	0.13991	0.051932	0.24663	0.36884	0.088418	0.026597	0.096559	0.14093	0.14659	0.12823	0.15918	0.055273	-1.8229	-2.7625	-2.0792	-2.4458	-2.8063	-2.0042	-2.8354	-2.2313	-2.1208	-2.8583	-2.1396	-2.4396	-2.7125	-1.9854	-2.4979	-2.3854	133.391	153.962	227.493	344.474	249.069	363.074	79.843	71.360	264.485	245.099	100.949	97.351	256.479	227.493	330.003	327.822	0.00035401	0.00012164	8.3395e-05	1043.5	2.3001e-06	3.0227e-06	1137.4	214.91	3.4471e-06	2.9769e-06	272.6	76.674	60.056	17.237	2.2054e-06	24.328	0.00049434	0.00070346	0.00019776	1044.6	7.0603e-06	7.6569e-06	1139.3	216.47	7.3222e-06	7.2369e-06	276	78.184	61.06	17.771	7.0915e-06	25.053	134.229	184.936	194.474	80.300	178.903	219.383	80.231	87.853	207.388	234.094	87.345	93.818	94.492	101.986	217.276	101.365	-8191	255	
35642.801	1	1	0	0	0.27433	0.12227	0.22059	0.15325	0.053149	0.043351	0.041385	0.21002	0.45048	0.109	0.33573	0.18826	0.066583	0.21203	0.074173	0.20119	-1.5833	-2.6917	-2.0146	-2.2188	-2.8833	-2.0542	-2.9208	-2.5854	-1.9833	-2.6896	-2.2104	-2.3125	-2.7812	-2.0854	-2.4021	-2.5958	97.060	332.644	247.031	369.065	161.318	226.599	361.441	309.742	214.182	246.993	73.309	350.509	256.278	343.261	147.829	352.309	0.00032833	0.00027889	9.872e-05	1037	2.634e-06	3.5101e-06	1137.1	214.79	3.9087e-06	1.8726e-06	272.35	76.349	59.61	17.254	2.9961e-06	24.221	0.00048571	0.00067905	0.00019495	1040.4	7.2721e-06	7.773e-06	1138.4	216.9	7.1582e-06	7.5992e-06	275.95	77.931	61.07	17.764	6.8932e-06	25.022	132.168	178.527	175.505	80.168	212.760	231.296	80.353	87.757	226.173	292.680	87.035	94.288	94.684	101.738	222.685	101.433	-8191	255	
35642.898	1	1	0	0	0.085078	0.1554	0.20371	0.05039	0.076474	0.070731	0.34077	0.19747	0.072053	0.076096	0.24303	0.35568	0.17488	0.18139	0.1862	0.14228	-1.6208	-2.7021	-2.0646	-2.2208	-2.6646	-2.1208	-2.5229	-2.7125	-1.9979	-2.6854	-2.45	-1.95	-2.9646	-1.9333	-2.2333	-2.6625	341.373	113.128	91.502	340.818	126.598	147.066	310.757	260.879	168.151	180.513	425.014	407.055	287.016	413.104	360.311	316.171	0.00030384	0.00023824	6.7287e-05	1042	2.9447e-06	3.3351e-06	1125	214.31	2.6017e-06	2.1901e-06	270.42	76.055	60.039	17.186	1.9136e-06	24.138	0.00048073	0.0006823	0.00019621	1041.2	7.2145e-06	7.919e-06	1136.1	216.76	6.882e-06	7.5472e-06	275.6	77.885	61.086	17.779	7.0851e-06	24.978	136.573	140.512	127.971	80.631	226.293	237.093	80.239	87.549	205.658	215.761	87.269	94.332	94.618	101.246	226.718	101.260	-8191	255	
35643.020	1	1	0	0	0.043103	0.1513	0.015611	0.22621	0.25656	0.079667	0.39454	0.0482	0.061443	0.22058	0.26139	0.19727	0.075393	0.19608	0.24787	0.036369	-1.5896	-2.4188	-2.3208	-2.1125	-2.8292	-2.025	-2.5646	-2.8042	-1.9271	-2.6604	-2.5354	-1.7604	-2.8458	-2.25	-2.2917	-2.9229	81.374	254.772	292.169	360.595	369.594	367.158	370.945	365.719	158.061	151.884	338.664	133.357	139.356	102.766	160.551	215.192	0.00032951	0.00030572	4.3384e-05	1031	3.9524e-06	2.1938e-06	1135.5	214.9	2.4394e-06	2.3516e-06	272.96	76.212	60.039	17.213	1.8219e-06	24.053	0.00047972	0.00068712	0.0001866	1039.1	7.1206e-06	7.6526e-06	1138.9	216.66	6.9071e-06	7.5674e-06	276.07	78.144	61.139	17.789	6.7131e-06	24.958	132.562	174.157	179.287	80.231	223.780	257.452	80.292	87.659	232.390	230.435	87.047	94.116	94.841	101.872	227.175	101.328	-8191	255	
35643.113	1	1	0	0	0.10868	0.097093	0.19583	0.40187	0.12509	0.10972	0.30438	0.18089	0.19992	0.1284	0.12995	0.35494	0.14815	0.20945	0.10683	0.17547	-1.6625	-2.3937	-2.3729	-1.975	-2.9229	-2.1396	-2.2479	-2.7292	-1.9854	-2.4708	-2.7458	-2.0625	-2.6688	-2.2146	-2.1875	-2.8875	106.797	104.943	390.947	336.929	304.200	204.631	399.538	328.659	422.291	333.384	427.395	316.336	142.610	72.231	97.867	349.532	0.00028124	0.00027212	0.0001121	1040.2	3.8311e-06	3.0819e-06	1130.3	214.71	3.2881e-06	3.8292e-06	270.64	75.916	60.303	17.132	2.6751e-06	24.205	0.0004636	0.00065166	0.00018794	1040.2	7.0185e-06	7.3074e-06	1138.2	216.55	6.8243e-06	7.6162e-06	275.32	77.76	61.303	17.758	6.7432e-06	25.058	136.515	148.042	150.042	80.582	220.241	219.000	80.375	87.949	210.739	210.706	87.045	94.391	94.191	101.822	229.813	101.374	-8191	255	
35643.211	1	1	0	0	0.12906	0.037575	0.17828	0.10485	0.18466	0.18033	0.087973	0.15189	0.29664	0.23923	0.082669	0.33782	0.32509	0.091218	0.096675	0.31408	-1.6542	-2.5042	-2.6625	-1.9458	-2.6167	-2.35	-2.275	-2.8208	-2.0479	-2.2917	-2.9542	-2.2167	-2.8396	-2.6	-2.0729	-2.8646	310.697	240.091	221.937	398.541	382.591	419.926	385.996	104.587	72.246	215.619	230.640	99.880	101.545	283.354	393.420	390.748	0.0003165	0.00030471	5.8516e-05	1036.7	3.1216e-06	2.0735e-06	1130	214.76	2.4809e-06	3.2688e-06	270.79	76.224	60.082	17.217	1.919e-06	24.073	0.00046639	0.00067348	0.00018883	1040	7.2238e-06	7.2349e-06	1137.5	217.05	6.7314e-06	7.4261e-06	275.68	77.901	61.214	17.795	6.8277e-06	25.07	132.952	159.177	170.994	80.314	232.757	225.348	80.190	87.863	215.942	229.468	87.417	94.149	94.418	101.762	223.488	101.593	-8191	255	
35643.305	1	1	0	0	0.15855	0.16975	0.065405	0.14218	0.14095	0.2911	0.18791	0.15853	0.099174	0.22975	0.15844	0.26476	0.13667	0.10115	0.12023	0.1268	-1.6812	-2.2917	-2.6021	-2.0958	-2.5312	-2.3792	-2.3354	-2.8083	-1.8958	-2.2042	-2.8104	-2.1042	-2.6813	-2.7271	-2.0417	-2.8667	138.056	165.764	401.791	161.469	324.853	145.618	315.452	354.475	286.764	320.480	425.244	290.774	218.022	195.889	244.058	417.584	0.00032735	0.0003682	6.8103e-05	1033.6	4.368e-06	2.4051e-06	1126.4	213.56	4.1757e-06	2.5969e-06	270.27	76.533	59.727	17.125	2.3961e-06	23.79	0.00046468	0.00067868	0.00017927	1039.9	7.1327e-06	7.1412e-06	1136.9	216.79	6.7832e-06	7.6067e-06	275.68	77.939	61.365	17.722	6.9096e-06	25.001	134.190	150.799	159.442	80.219	213.893	226.717	80.165	87.829	215.388	205.172	87.202	94.090	94.573	101.907	226.668	101.422	-8191	255	
35643.426	1	1	0	0	0.23017	0.056172	0.33299	0.087265	0.27592	0.091985	0.39514	0.087294	0.16281	0.21902	0.083527	0.11183	0.17904	0.080756	0.19778	0.059195	-1.9333	-2.1021	-2.7104	-2.0563	-2.5417	-2.6833	-2.3583	-2.8229	-2.5	-2.1312	-2.7917	-2.3167	-2.45	-2.6542	-1.9729	-2.7521	269.004	142.520	211.746	317.939	197.638	101.781	349.661	411.575	153.246	362.726	323.138	405.624	314.513	331.445	215.644	134.928	0.00035481	0.00020645	0.00011767	1033.2	3.4643e-06	4.3898e-06	1124.5	213.52	2.9034e-06	2.7858e-06	270.86	75.956	59.771	17.305	2.8966e-06	24.252	0.00046294	0.00066726	0.00016698	1040.9	6.7668e-06	7.1518e-06	1138.1	216.56	6.4736e-06	7.5302e-06	275.74	77.891	61.115	17.806	6.6859e-06	25.068	134.904	196.361	171.129	80.373	217.109	221.587	80.070	88.054	219.743	223.280	87.115	94.102	94.665	101.545	221.134	101.387	-8191	255	
35643.500	1	1	0	0	0.20209	0.15307	0.060062	0.14006	0.035985	0.094509	0.22861	0.050064	0.15768	0.12436	0.065126	0.3066	0.17735	0.13985	0.055177	0.15478	-1.8771	-2.0687	-2.7771	-2.0583	-2.4125	-2.6875	-2.225	-2.9208	-2.5479	-2.1312	-2.9667	-2.25	-2.3521	-2.6917	-2.0104	-2.8104	144.634	102.173	336.365	122.859	321.497	400.817	390.099	362.005	190.971	280.290	317.008	106.832	401.224	330.122	418.610	392.272	0.00035677	0.00013822	9.9904e-05	1030.6	2.3807e-06	2.3619e-06	1125.4	213.4	3.0998e-06	2.6055e-06	270.4	76.085	59.615	17.218	2.4645e-06	23.946	0.00047636	0.00065491	0.00016863	1037.8	7.2349e-06	6.6095e-06	1136.4	216.24	6.4326e-06	7.0967e-06	275.19	77.931	61.11	17.813	6.2911e-06	25.044	140.414	167.267	128.750	80.294	203.490	225.997	80.105	88.124	216.200	200.398	87.405	94.260	94.631	101.952	227.317	101.430	-8191	255	
35643.617	1	1	0	0	0.30824	0.38882	0.1236	0.14202	0.13232	0.23602	0.29735	0.36948	0.15363	0.03339	0.080079	0.19802	0.20438	0.15079	0.093956	0.17565	-2.0771	-2.0979	-2.7812	-2.3896	-2.1354	-2.8542	-2.3187	-2.6896	-2.5312	-2.1125	-2.8646	-2.3729	-2.2583	-2.7812	-2.1854	-2.4521	343.036	361.044	396.356	283.934	315.700	71.001	405.698	338.865	237.105	291.553	383.220	331.833	241.275	317.274	367.754	102.505	0.00032148	0.00031733	5.4367e-05	1028.2	3.304e-06	2.7603e-06	1121.8	212.8	2.6315e-06	3.8031e-06	269.64	75.261	59.256	17.158	2.3655e-06	23.872	0.00045374	0.00064107	0.00017845	1038.1	6.7909e-06	7.0208e-06	1136.8	216.54	6.5372e-06	7.2518e-06	275.2	77.652	61.11	17.739	6.7131e-06	24.983	136.314	146.391	179.823	80.383	204.840	220.531	80.320	87.898	203.636	226.109	87.552	94.180	94.900	101.804	192.898	101.190	-8191	255	
35643.715	1	1	0	0	0.075757	0.14386	0.28858	0.17217	0.086072	0.31348	0.42977	0.28831	0.183	0.23118	0.071661	0.16577	0.14881	0.11889	0.15551	0.046887	-2.1562	-2.0854	-2.6833	-2.4042	-2.2583	-2.9479	-2.1875	-2.4479	-2.8083	-2.0146	-2.8896	-2.5375	-2.1604	-2.9646	-2.0667	-2.5083	429.848	93.216	255.398	131.315	360.683	110.553	352.349	341.241	216.912	94.476	250.637	291.661	372.595	324.763	104.674	278.077	0.00030524	0.00019535	9.5491e-05	1029	3.4998e-06	4.8115e-06	1117.8	211.05	2.9494e-06	2.3418e-06	268.03	75.04	59.489	17.06	3.0301e-06	24.011	0.00045939	0.00066289	0.00016866	1038.7	7.2061e-06	6.8354e-06	1136	216.15	6.5389e-06	7.6917e-06	275.57	77.688	61.223	17.753	6.7786e-06	25.112	139.961	140.947	186.267	80.289	211.428	220.582	80.485	88.013	199.538	202.190	87.507	94.450	94.948	102.026	236.127	101.566	-8191	255	
