BOXY.EXE: ISS Imagent and Oximeter Data Acquisition Program Version 0.80
Ascii Record File

#ACQ INFORMATION
2  Detector Channels 
16  External MUX Channels 
1  Auxiliary Channels 
5000  Waveform (CCF) Frequency (Hz)
1  Waveforms Skipped 
30  Waveforms Averaged 
1  Cycles Averaged 
16  Acquisitions per Waveform 
10.0806  Updata Rate (Hz) 

#FILE INFORMATION
TRUE -- External MUX Channel results are PARSED.
FALSE -- AC DC and Phase are NOT grouped.
TRUE -- Companion Program Settings File CREATED.
FALSE -- AC data not excluded
FALSE -- DC data not excluded
FALSE -- Phase data not excluded
FALSE -- Auxillary Chn. data not excluded
Tab delimiters

#CALIBRATION STATE
TRUE -- Waveform Calibration Values APPLIED.


#AUX CALIBRATION VALUES
Val Type	aux-1	

Term	1.0000e+00	
Factor	0.0000e+00	


#WF CALIBRATION VALUES
A = Detector Channel
Val Type	A-AC1	A-AC2	A-AC3	A-AC4	A-AC5	A-AC6	A-AC7	A-AC8	A-AC9	A-AC10	A-AC11	A-AC12	A-AC13	A-AC14	A-AC15	A-AC16	A-DC1	A-DC2	A-DC3	A-DC4	A-DC5	A-DC6	A-DC7	A-DC8	A-DC9	A-DC10	A-DC11	A-DC12	A-DC13	A-DC14	A-DC15	A-DC16	A-Ph1	A-Ph2	A-Ph3	A-Ph4	A-Ph5	A-Ph6	A-Ph7	A-Ph8	A-Ph9	A-Ph10	A-Ph11	A-Ph12	A-Ph13	A-Ph14	A-Ph15	A-Ph16	

Term	0.00000e+00	0.00000e+00	0.00000e+00	0.00000e+00	0.00000e+00	0.00000e+00	0.00000e+00	0.00000e+00	0.00000e+00	0.00000e+00	0.00000e+00	0.00000e+00	0.00000e+00	0.00000e+00	0.00000e+00	0.00000e+00	0.00000e+00	0.00000e+00	0.00000e+00	0.00000e+00	0.00000e+00	0.00000e+00	0.00000e+00	0.00000e+00	0.00000e+00	0.00000e+00	0.00000e+00	0.00000e+00	0.00000e+00	0.00000e+00	0.00000e+00	0.00000e+00	0.00000e+00	0.00000e+00	0.00000e+00	0.00000e+00	0.00000e+00	0.00000e+00	0.00000e+00	0.00000e+00	0.00000e+00	0.00000e+00	0.00000e+00	0.00000e+00	0.00000e+00	0.00000e+00	0.00000e+00	0.00000e+00	
Factor	1.00000e+00	1.00000e+00	1.00000e+00	1.00000e+00	1.00000e+00	1.00000e+00	1.00000e+00	1.00000e+00	1.00000e+00	1.00000e+00	1.00000e+00	1.00000e+00	1.00000e+00	1.00000e+00	1.00000e+00	1.00000e+00	1.00000e+00	1.00000e+00	1.00000e+00	1.00000e+00	1.00000e+00	1.00000e+00	1.00000e+00	1.00000e+00	1.00000e+00	1.00000e+00	1.00000e+00	1.00000e+00	1.00000e+00	1.00000e+00	1.00000e+00	1.00000e+00	X	X	X	X	X	X	X	X	X	X	X	X	X	X	X	X	

B = Detector Channel
Val Type	B-AC1	B-AC2	B-AC3	B-AC4	B-AC5	B-AC6	B-AC7	B-AC8	B-AC9	B-AC10	B-AC11	B-AC12	B-AC13	B-AC14	B-AC15	B-AC16	B-DC1	B-DC2	B-DC3	B-DC4	B-DC5	B-DC6	B-DC7	B-DC8	B-DC9	B-DC10	B-DC11	B-DC12	B-DC13	B-DC14	B-DC15	B-DC16	B-Ph1	B-Ph2	B-Ph3	B-Ph4	B-Ph5	B-Ph6	B-Ph7	B-Ph8	B-Ph9	B-Ph10	B-Ph11	B-Ph12	B-Ph13	B-Ph14	B-Ph15	B-Ph16	

Term	0.00000e+00	0.00000e+00	0.00000e+00	0.00000e+00	0.00000e+00	0.00000e+00	0.00000e+00	0.00000e+00	0.00000e+00	0.00000e+00	0.00000e+00	0.00000e+00	0.00000e+00	0.00000e+00	0.00000e+00	0.00000e+00	0.00000e+00	0.00000e+00	0.00000e+00	0.00000e+00	0.00000e+00	0.00000e+00	0.00000e+00	0.00000e+00	0.00000e+00	0.00000e+00	0.00000e+00	0.00000e+00	0.00000e+00	0.00000e+00	0.00000e+00	0.00000e+00	-1.60646e+02	-1.31022e+02	-1.25289e+02	-1.86209e+02	-7.18792e+01	-6.66958e+01	-1.58474e+02	-1.62015e+02	-7.97830e+01	-6.76213e+01	-1.72128e+02	-1.71386e+02	-1.83279e+02	-1.77394e+02	-7.09845e+01	-1.49699e+02	
Factor	2.28142e-05	1.35801e-04	4.02598e-05	2.77733e-01	1.31646e-06	1.49048e-06	1.53129e-01	4.67114e-02	1.21370e-06	1.46712e-06	7.52218e-02	2.47388e-02	3.57489e-02	7.91092e-03	1.34422e-06	1.11941e-02	1.85564e-05	4.45642e-05	1.25709e-05	1.49093e-01	4.45853e-07	5.11453e-07	7.76909e-02	2.52998e-02	4.01722e-07	5.10017e-07	3.95400e-02	1.30392e-02	1.96821e-02	4.33613e-03	4.36568e-07	5.95756e-03	X	X	X	X	X	X	X	X	X	X	X	X	X	X	X	X	



#DISTANCE SETTINGS
A = Detector Channel
A-1	A-2	A-3	A-4	A-5	A-6	A-7	A-8	A-9	A-10	A-11	A-12	A-13	A-14	A-15	A-16	

2.5000e+00	3.0000e+00	2.5000e+00	3.0000e+00	2.0000e+00	3.0000e+00	1.5000e+00	3.0000e+00	3.0000e+00	3.0000e+00	3.0000e+00	3.0000e+00	3.0000e+00	3.0000e+00	1.5000e+00	3.0000e+00	

B = Detector Channel
B-1	B-2	B-3	B-4	B-5	B-6	B-7	B-8	B-9	B-10	B-11	B-12	B-13	B-14	B-15	B-16	

1.0000e+01	1.0000e+01	1.0000e+01	1.4400e+00	1.0000e+01	1.0000e+01	1.5100e+00	1.9400e+00	1.0000e+01	1.0000e+01	1.9900e+00	2.4900e+00	2.4100e+00	2.9000e+00	1.0000e+01	2.9800e+00	




#DATA BEGINS
time	group	step	mark	flag	A-AC1	A-AC2	A-AC3	A-AC4	A-AC5	A-AC6	A-AC7	A-AC8	A-AC9	A-AC10	A-AC11	A-AC12	A-AC13	A-AC14	A-AC15	A-AC16	A-DC1	A-DC2	A-DC3	A-DC4	A-DC5	A-DC6	A-DC7	A-DC8	A-DC9	A-DC10	A-DC11	A-DC12	A-DC13	A-DC14	A-DC15	A-DC16	A-Ph1	A-Ph2	A-Ph3	A-Ph4	A-Ph5	A-Ph6	A-Ph7	A-Ph8	A-Ph9	A-Ph10	A-Ph11	A-Ph12	A-Ph13	A-Ph14	A-Ph15	A-Ph16	B-AC1	B-AC2	B-AC3	B-AC4	B-AC5	B-AC6	B-AC7	B-AC8	B-AC9	B-AC10	B-AC11	B-AC12	B-AC13	B-AC14	B-AC15	B-AC16	B-DC1	B-DC2	B-DC3	B-DC4	B-DC5	B-DC6	B-DC7	B-DC8	B-DC9	B-DC10	B-DC11	B-DC12	B-DC13	B-DC14	B-DC15	B-DC16	B-Ph1	B-Ph2	B-Ph3	B-Ph4	B-Ph5	B-Ph6	B-Ph7	B-Ph8	B-Ph9	B-Ph10	B-Ph11	B-Ph12	B-Ph13	B-Ph14	B-Ph15	B-Ph16	aux-1	digaux	

36071.797	1	1	0	256	0.33032	0.17386	0.12154	0.12082	0.19124	0.24331	0.20345	0.20867	0.12051	0.19366	0.16091	0.16625	0.016724	0.50936	0.26954	0.14227	-1.5354	-2.4896	-2.2542	-2.1437	-2.5792	-1.9458	-2.6771	-2.8083	-1.9354	-2.7354	-2.1958	-2.175	-2.8438	-1.7938	-2.4375	-2.5521	374.651	281.251	182.350	130.597	410.102	337.646	110.330	105.385	177.851	145.605	139.842	179.520	400.789	370.539	320.023	257.971	0.00013258	0.0010696	0.00044199	484.91	1.134e-05	1.8062e-05	457.6	145.23	1.0546e-05	4.1619e-06	148.83	41.875	41.262	13.956	7.3629e-07	17.126	0.058258	0.13963	0.03915	962.24	0.0013841	0.0015982	707.67	226.86	0.0012414	0.0015696	273.07	82.316	101.3	27.516	0.0012894	35.263	135.268	204.161	209.289	108.278	276.447	450.159	106.826	113.499	291.410	288.410	111.666	116.354	118.619	124.211	140.614	120.449	-8191	255	
36071.914	1	1	0	0	0.18578	0.13501	0.38851	0.23706	0.23238	0.1873	0.13943	0.20171	0.13701	0.055164	0.11157	0.35596	0.14506	0.2154	0.23593	0.0074262	-1.5792	-2.7229	-2.2333	-2.1333	-2.6958	-2.1063	-2.4146	-2.75	-2.0583	-2.7708	-2.2833	-2.0208	-2.7417	-2.0521	-2.1688	-2.7875	339.492	394.488	421.821	109.533	227.628	120.681	402.654	423.752	432.133	395.051	123.188	396.544	446.188	144.253	344.353	453.507	0.00025628	0.00058975	0.00058762	486.7	5.8551e-06	1.2547e-05	456.17	145.55	3.1543e-06	1.3932e-05	148.28	41.952	41.931	14.364	1.4538e-05	17.891	0.053103	0.12544	0.034752	900.23	0.0011859	0.0013247	661.07	209.96	0.00093586	0.00116	240.34	71.233	84.172	23.741	0.00087919	29.86	163.464	370.697	232.267	108.308	365.169	306.631	107.220	114.297	324.588	263.794	111.952	116.569	118.333	123.953	270.987	121.321	-8191	255	
36072.012	1	1	0	0	0.14826	0.10842	0.099453	0.16382	0.17365	0.09664	0.26309	0.15224	0.3311	0.094415	0.18082	0.24604	0.22817	0.1876	0.29452	0.10855	-1.4937	-2.5625	-2.3958	-1.8271	-2.825	-2.0563	-2.3417	-2.8875	-1.8687	-2.55	-2.5187	-2.075	-2.8937	-2.3667	-2.1771	-2.7708	274.931	351.523	323.038	349.393	403.704	219.500	450.157	133.355	392.710	373.004	374.935	318.237	403.599	374.282	173.658	304.867	0.00049233	0.00049207	0.00030724	489.41	2.947e-06	8.5473e-06	462.9	147.52	7.8301e-06	8.4352e-06	151.99	42.954	41.974	14.46	1.6787e-05	17.783	0.034912	0.08064	0.022179	752.49	0.0007564	0.00085694	599.49	192.05	0.00065432	0.00082827	219.59	65.245	75.201	22.007	0.00070426	27.999	121.175	433.379	220.750	108.578	275.135	351.577	107.170	113.998	426.389	387.567	111.675	115.933	118.298	123.927	210.403	120.987	-8191	255	
36072.105	1	1	0	0	0.057166	0.16296	0.37944	0.048379	0.18686	0.24071	0.26327	0.058691	0.041284	0.15166	0.19211	0.055617	0.25184	0.075171	0.1256	0.080582	-1.5083	-2.3688	-2.4437	-2.2229	-2.6042	-2.125	-2.2812	-2.8292	-2.1292	-2.3438	-2.7583	-2.0438	-2.7208	-2.4	-2.1271	-2.6854	272.203	195.102	426.036	440.817	175.232	278.316	388.197	450.623	351.344	131.813	359.466	104.011	373.578	202.130	202.306	123.369	0.00025507	0.00041852	0.0003313	491.15	4.4743e-06	6.3778e-06	463.93	148.27	1.2476e-05	1.2441e-05	154.4	43.807	42.918	14.585	9.418e-06	18.289	0.029936	0.070568	0.019498	722.75	0.00064233	0.00070963	578.36	184.58	0.00051335	0.00064095	206.33	60.203	67.283	20.274	0.00051206	25.68	144.678	248.705	263.350	108.740	202.997	111.543	107.532	113.833	303.718	223.311	111.350	116.317	118.091	123.935	254.428	120.656	-8191	255	
36072.227	1	1	0	0	0.19141	0.12055	0.12664	0.1339	0.24015	0.052177	0.0065907	0.21405	0.12837	0.051749	0.18837	0.24659	0.18828	0.31981	0.29316	0.27075	-1.6625	-2.2417	-2.6396	-1.8917	-2.6958	-2.3812	-2.1208	-2.7125	-2.2396	-2.2833	-2.7333	-1.9562	-2.6583	-2.4375	-1.9854	-2.825	445.179	207.403	299.205	441.597	382.720	367.139	378.862	371.003	126.285	187.090	423.930	315.985	349.889	447.466	102.873	418.416	0.00032226	0.00072978	0.00019335	487.31	7.5607e-06	1.2164e-05	465.66	148.42	4.2705e-06	3.0568e-06	155.73	43.585	42.798	14.579	1.0126e-05	18.049	0.021662	0.051705	0.014316	668.08	0.00049444	0.00055477	556.99	178.03	0.00039581	0.00048637	194.74	56.083	60.881	18.808	0.0003593	23.533	135.350	190.501	208.513	108.206	343.148	179.833	107.177	114.173	159.427	244.249	111.740	115.786	119.046	124.291	168.296	120.639	-8191	255	
36072.301	1	1	0	0	0.10473	0.090909	0.12499	0.093751	0.1221	0.073518	0.25848	0.13355	0.12966	0.17854	0.22001	0.18784	0.35794	0.17396	0.12045	0.23347	-1.5958	-2.2708	-2.7333	-1.8542	-2.5104	-2.4917	-2.1312	-2.7042	-2.1437	-2.1	-2.7583	-1.8312	-2.6208	-2.7396	-1.9771	-2.8542	153.660	429.824	98.153	364.530	244.376	316.949	366.012	233.724	274.638	146.715	359.187	359.093	300.213	387.211	311.085	316.670	0.00032421	0.00022472	8.3698e-05	494.73	1.0259e-05	1.5808e-05	471.54	151.24	7.2449e-06	7.9969e-06	156.34	43.433	42.869	14.968	4.6799e-06	18.385	0.01482	0.035193	0.0097165	614.74	0.00033918	0.00039071	538.46	173.42	0.00030874	0.00039157	189.79	54.698	59.491	18.67	0.00033547	23.579	126.747	193.944	334.502	108.510	252.474	195.133	106.799	114.100	197.995	111.428	111.841	116.391	118.939	123.666	389.779	120.861	-8191	255	
36072.395	1	1	0	0	0.097681	0.13444	0.17053	0.12087	0.17553	0.13151	0.25038	0.1458	0.1014	0.024936	0.26805	0.32107	0.11524	0.14619	0.11082	0.15519	-1.9146	-2.1875	-2.8542	-1.9813	-2.4354	-2.5271	-2.0667	-2.6375	-2.3979	-1.8937	-2.8354	-2.1104	-2.2458	-2.7396	-2.0125	-2.7292	447.339	137.196	392.204	373.390	429.079	285.465	371.509	420.629	425.842	121.891	434.237	180.085	436.223	249.606	126.944	315.262	0.00019196	0.00040358	0.00018423	495.03	1.0049e-05	6.8328e-06	474.85	150.87	4.7178e-06	2.8475e-06	155.35	43.559	42.18	14.652	1.2569e-05	17.952	0.014565	0.03505	0.0099586	621.98	0.00036095	0.00041608	546.42	176.01	0.00035722	0.00046745	196.29	57.012	63.449	19.582	0.0004657	25.086	169.808	366.460	360.627	108.647	305.790	408.979	107.500	114.154	167.600	158.640	111.385	116.127	118.479	124.331	164.001	120.608	-8191	255	
36072.516	1	1	0	0	0.43155	0.029639	0.18133	0.067345	0.19179	0.25173	0.1063	0.014079	0.15284	0.13015	0.074921	0.14436	0.19325	0.14571	0.23776	0.13024	-2.0062	-1.9667	-2.7354	-1.9833	-2.1604	-2.6542	-2.1167	-2.6146	-2.4479	-1.9646	-2.8979	-2.3167	-2.2875	-2.7313	-1.9458	-2.4167	212.397	129.391	391.838	380.087	386.127	443.211	137.877	160.109	356.850	248.635	389.380	425.890	175.794	169.839	372.652	325.990	0.00031629	0.00094838	0.00032594	502.13	6.5197e-06	1.8955e-06	472.6	149.36	7.8786e-06	2.063e-05	154.17	42.862	42.013	14.533	9.8226e-06	18.046	0.02081	0.050411	0.014367	679.72	0.00052768	0.00060228	571.77	183.6	0.00047477	0.00060076	204.47	58.922	66.411	20.138	0.00051313	25.616	160.955	418.667	168.816	108.432	456.160	330.730	106.786	114.242	383.081	240.737	111.472	116.165	118.327	123.887	217.703	120.991	-8191	255	
36072.613	1	1	0	0	0.17632	0.028983	0.13048	0.19737	0.18052	0.38963	0.27826	0.19072	0.17709	0.14208	0.20943	0.092423	0.25158	0.0794	0.24683	0.047816	-2.2125	-2.0104	-2.6271	-2.1875	-1.9833	-2.7438	-2.2313	-2.5917	-2.6063	-2.0271	-2.6458	-2.575	-1.85	-2.9021	-1.9708	-2.4146	224.138	175.730	181.454	446.691	228.840	352.385	385.386	389.766	367.901	135.051	256.776	210.598	288.526	140.256	111.840	148.168	0.00018356	0.0018155	0.00033793	495.09	1.4177e-05	7.3074e-07	471.26	149.56	1.2319e-05	2.2922e-06	153.69	42.257	42.144	14.533	7.0033e-06	17.893	0.02198	0.053252	0.015041	685.52	0.00054348	0.0006254	574.87	184	0.00049645	0.00063637	205.62	59.433	67.097	20.32	0.00052601	25.704	161.213	321.302	176.977	107.995	126.286	341.945	106.930	114.073	172.543	417.089	111.409	116.040	117.748	123.850	456.053	120.388	-8191	255	
36072.707	1	1	0	0	0.12628	0.083491	0.27836	0.11251	0.15624	0.10411	0.21441	0.063859	0.051709	0.20466	0.1449	0.17791	0.22248	0.21696	0.2567	0.11751	-2.2354	-1.9021	-2.5479	-2.4792	-1.8333	-2.8521	-2.1917	-2.2729	-2.6083	-2	-2.6521	-2.4167	-1.7479	-2.7438	-2.1833	-2.3542	269.370	342.678	352.916	384.097	231.518	309.342	397.896	353.230	163.250	116.885	143.573	409.573	267.615	116.055	281.167	346.074	0.00028831	0.00043409	0.00020491	493.87	1.4432e-05	5.1713e-06	469.85	148.41	6.9097e-06	1.1438e-05	152.49	42.581	41.997	14.767	1.5642e-05	18.164	0.022189	0.052132	0.014483	669.6	0.00050132	0.00057093	561.62	179.88	0.00043015	0.00054035	198.06	57.201	63.532	19.617	0.00044414	24.835	108.259	110.234	181.524	108.354	224.043	216.918	107.132	113.775	202.471	135.096	111.322	115.804	118.096	124.260	186.899	120.339	-8191	255	
36072.805	1	1	0	0	0.13526	0.13233	0.051389	0.12264	0.13266	0.1852	0.16378	0.17772	0.26435	0.11889	0.1404	0.19643	0.10254	0.070221	0.067935	0.12977	-2.3458	-2.0583	-2.5479	-2.4146	-1.9146	-2.8708	-2.2208	-2.1979	-2.8542	-1.8667	-2.525	-2.5229	-2.1188	-2.6646	-2.1604	-2.3708	348.688	311.281	98.376	258.581	221.145	244.519	140.440	100.515	289.217	181.560	237.511	229.285	401.440	309.249	385.853	150.898	0.00019527	0.00063137	0.00029818	491.63	1.2176e-06	5.9087e-06	469.15	149.8	7.7837e-06	3.0103e-06	153.64	43.275	42.279	14.985	4.2769e-06	18.587	0.018804	0.044532	0.012578	650.05	0.00044082	0.00050467	552.82	176.83	0.00038887	0.00048666	194.37	56.194	62.138	19.583	0.00041324	24.751	138.638	183.076	129.294	108.277	238.661	234.708	106.789	113.566	266.694	337.030	110.839	115.658	117.983	123.937	206.293	119.962	-8191	255	
36072.898	1	1	0	0	0.21407	0.23474	0.10405	0.058794	0.1863	0.24281	0.099213	0.20102	0.15148	0.11365	0.090178	0.22806	0.11031	0.016962	0.22025	0.29147	-2.1979	-1.9146	-2.2958	-2.6312	-2.0646	-2.7625	-2.2792	-1.9771	-2.7062	-2.0521	-2.0854	-2.5708	-1.9813	-2.7396	-2.2604	-2.0062	338.988	306.292	233.867	310.791	286.037	307.992	385.876	414.560	336.395	300.289	381.904	156.376	265.523	300.871	408.918	409.505	0.00044015	0.0003048	7.3002e-05	492.25	8.5289e-06	1.4913e-05	468.81	149.71	6.1267e-06	7.2157e-06	153.8	43.101	42.658	15.071	1.8144e-07	18.648	0.017967	0.042699	0.012156	647.18	0.00043869	0.00049989	553.41	177.68	0.00039881	0.00050955	196.37	56.879	63.144	19.903	0.00043202	25.119	146.812	360.942	258.141	108.115	384.288	430.170	106.665	113.500	260.447	443.824	110.772	116.065	118.164	123.727	224.920	120.585	-8191	255	
36072.996	1	1	0	0	0.11424	0.29482	0.13832	0.11592	0.27764	0.18422	0.10948	0.066012	0.21704	0.19577	0.18259	0.25549	0.19651	0.28817	0.26376	0.1784	-2.3229	-2.0604	-2.2167	-2.7687	-1.7667	-2.5938	-2.4042	-1.9937	-2.8063	-2.1188	-2.1125	-2.5375	-1.8292	-2.5292	-2.6312	-1.7542	147.869	153.988	328.909	275.756	276.630	204.222	117.619	184.715	381.180	126.407	434.684	402.086	366.546	212.747	167.593	132.008	0.00014303	0.0010106	0.00026473	495.3	7.6343e-06	1.2456e-05	471.34	150.51	4.5499e-06	1.2769e-05	155.58	43.527	42.881	15.159	7.8782e-06	18.629	0.018573	0.044358	0.012401	650.11	0.00044207	0.00050072	556.1	178.07	0.00039344	0.00049767	196.73	57.333	63.131	19.877	0.0004242	25.124	435.910	158.940	154.489	108.396	377.631	170.662	107.011	113.769	371.709	224.301	111.422	115.678	118.584	124.117	111.477	120.014	-8191	255	
36073.090	1	1	0	0	0.20383	0.088058	0.066682	0.21014	0.26719	0.20962	0.17926	0.21506	0.25465	0.31711	0.32947	0.1798	0.090618	0.15931	0.18326	0.21431	-2.3771	-2.0938	-1.925	-2.6083	-1.9021	-2.2771	-2.6021	-1.9604	-2.6688	-2.1625	-1.9875	-2.7104	-1.8958	-2.4167	-2.4521	-1.8917	419.513	251.813	114.750	107.090	443.613	213.733	191.704	97.435	420.673	248.005	297.005	451.513	438.297	185.548	417.679	173.030	0.00019647	0.00086114	0.00020491	492.96	1.1442e-05	8.5325e-06	471.79	149.86	6.6987e-06	8.9224e-06	154.16	43.962	43.248	15.197	5.2323e-06	18.843	0.01816	0.043151	0.012143	643.84	0.00042611	0.00048583	554.13	177.26	0.0003803	0.00048417	196.39	57.027	62.764	19.796	0.00041089	25.067	139.886	343.125	161.409	107.799	273.821	297.028	107.158	114.030	342.357	189.747	110.848	116.092	118.277	123.607	319.316	120.669	-8191	255	
36073.188	1	1	0	0	0.055341	0.13914	0.4235	0.06812	0.1702	0.012299	0.20471	0.24353	0.13157	0.20908	0.31628	0.191	0.23319	0.23037	0.19162	0.21713	-2.1896	-2.2396	-1.9083	-2.6417	-2.0792	-2.3563	-2.6083	-2.075	-2.5062	-2.4021	-1.8563	-2.7292	-2.1896	-2.0312	-2.8	-1.925	292.323	278.958	365.666	244.320	302.436	235.049	378.216	427.945	194.936	195.331	135.852	113.648	434.149	178.456	392.683	405.922	0.00027578	0.00051412	0.0001077	491.56	8.9227e-06	9.2258e-06	469.88	150.9	3.3262e-06	2.9558e-06	155.18	43.878	43.315	15.344	4.2949e-06	18.98	0.017678	0.041833	0.011914	642.07	0.00041867	0.0004782	551.86	177.39	0.00037079	0.00046766	195.33	56.83	62.156	19.766	0.00039714	25.01	117.878	120.709	99.523	108.614	224.736	346.926	106.766	113.717	185.802	383.656	111.269	116.114	118.604	123.754	352.152	120.435	-8191	255	
36073.309	1	1	0	0	0.04222	0.14199	0.089032	0.1356	0.098364	0.11999	0.30807	0.11065	0.15115	0.025439	0.090132	0.14651	0.19813	0.25417	0.27712	0.17466	-2.2562	-2.3979	-1.8	-2.625	-1.9854	-2.1042	-2.6271	-2.1688	-2.4625	-2.5625	-1.9646	-2.675	-2.1396	-2.0896	-2.8667	-2.0792	454.448	213.379	185.595	154.413	242.250	350.524	344.518	428.082	355.295	260.649	194.446	261.529	415.390	389.102	379.745	390.712	0.00034686	0.00052805	0.0001537	500.06	2.6518e-06	5.9163e-06	471.16	151.64	5.3086e-06	1.5156e-05	157.18	44.078	43.415	15.343	9.3513e-06	19.203	0.017025	0.040646	0.011476	639.87	0.00040478	0.00046146	550.49	176.99	0.00035801	0.00045942	195.51	56.885	62.097	19.824	0.00039413	25.175	142.275	260.646	429.753	107.933	160.047	196.788	106.770	113.276	169.289	190.333	111.194	116.087	118.555	124.148	406.167	120.646	-8191	255	
36073.402	1	1	0	0	0.19135	0.14047	0.19097	0.17689	0.32129	0.1739	0.31063	0.12159	0.23914	0.30649	0.10152	0.28212	0.18648	0.03995	0.22404	0.14683	-2.0646	-2.55	-1.8104	-2.7583	-2.2417	-1.9208	-2.6167	-2.0917	-2.3333	-2.5042	-2.0563	-2.7021	-2.4021	-1.9875	-2.6479	-2.1604	277.753	292.985	372.053	274.244	142.807	364.920	292.781	315.870	346.999	415.148	251.625	431.793	191.384	244.263	112.486	272.873	0.00032477	0.00046228	0.00021883	494.4	2.4083e-06	6.5088e-06	477.7	151.65	2.1998e-06	8.0219e-06	158.13	44.489	43.824	15.582	2.2743e-06	19.355	0.016875	0.040152	0.011361	636.61	0.00040306	0.00046236	554.53	177.62	0.00036039	0.00045856	196.98	57.376	62.589	20.005	0.00039508	25.327	153.969	127.542	232.551	108.439	389.103	325.775	106.695	113.918	411.102	335.263	111.204	116.276	117.699	124.017	302.426	120.313	-8191	255	
36073.500	1	1	0	0	0.14905	0.011085	0.20033	0.173	0.026934	0.25783	0.13703	0.29247	0.16744	0.2662	0.11277	0.21521	0.30902	0.22358	0.24854	0.17067	-1.9042	-2.6688	-1.8979	-2.6396	-2.325	-2.0479	-2.7792	-2.2458	-2.1	-2.5708	-2.0646	-2.5292	-2.4646	-1.8563	-2.5896	-2.2062	434.808	332.229	132.886	424.708	372.927	229.087	317.923	376.465	99.347	377.151	429.618	410.951	352.866	108.955	183.575	421.930	0.0002252	0.00092958	8.8435e-05	498.46	7.9545e-06	1.0883e-05	479.52	151.55	8.384e-06	1.0335e-05	159.17	45.706	43.82	15.564	2.7323e-06	19.197	0.017013	0.040673	0.011572	642.27	0.0004072	0.00047281	558.3	178.25	0.00036756	0.00046994	198.78	58.193	63.236	20.1	0.00040417	25.429	177.776	220.881	102.256	108.396	331.460	189.154	106.768	113.629	309.790	319.707	111.386	116.352	118.397	124.014	274.101	120.742	-8191	255	
