BOXY.EXE: ISS Imagent and Oximeter Data Acquisition Program Version 0.80
Ascii Record File

#ACQ INFORMATION
2  Detector Channels 
16  External MUX Channels 
1  Auxiliary Channels 
5000  Waveform (CCF) Frequency (Hz)
1  Waveforms Skipped 
30  Waveforms Averaged 
1  Cycles Averaged 
16  Acquisitions per Waveform 
10.0806  Updata Rate (Hz) 

#FILE INFORMATION
TRUE -- External MUX Channel results are PARSED.
FALSE -- AC DC and Phase are NOT grouped.
TRUE -- Companion Program Settings File CREATED.
FALSE -- AC data not excluded
FALSE -- DC data not excluded
FALSE -- Phase data not excluded
FALSE -- Auxillary Chn. data not excluded
Tab delimiters

#CALIBRATION STATE
TRUE -- Waveform Calibration Values APPLIED.


#AUX CALIBRATION VALUES
Val Type	aux-1	

Term	1.0000e+00	
Factor	0.0000e+00	


#WF CALIBRATION VALUES
A = Detector Channel
Val Type	A-AC1	A-AC2	A-AC3	A-AC4	A-AC5	A-AC6	A-AC7	A-AC8	A-AC9	A-AC10	A-AC11	A-AC12	A-AC13	A-AC14	A-AC15	A-AC16	A-DC1	A-DC2	A-DC3	A-DC4	A-DC5	A-DC6	A-DC7	A-DC8	A-DC9	A-DC10	A-DC11	A-DC12	A-DC13	A-DC14	A-DC15	A-DC16	A-Ph1	A-Ph2	A-Ph3	A-Ph4	A-Ph5	A-Ph6	A-Ph7	A-Ph8	A-Ph9	A-Ph10	A-Ph11	A-Ph12	A-Ph13	A-Ph14	A-Ph15	A-Ph16	

Term	0.00000e+00	0.00000e+00	0.00000e+00	0.00000e+00	0.00000e+00	0.00000e+00	0.00000e+00	0.00000e+00	0.00000e+00	0.00000e+00	0.00000e+00	0.00000e+00	0.00000e+00	0.00000e+00	0.00000e+00	0.00000e+00	0.00000e+00	0.00000e+00	0.00000e+00	0.00000e+00	0.00000e+00	0.00000e+00	0.00000e+00	0.00000e+00	0.00000e+00	0.00000e+00	0.00000e+00	0.00000e+00	0.00000e+00	0.00000e+00	0.00000e+00	0.00000e+00	0.00000e+00	0.00000e+00	0.00000e+00	0.00000e+00	0.00000e+00	0.00000e+00	0.00000e+00	0.00000e+00	0.00000e+00	0.00000e+00	0.00000e+00	0.00000e+00	0.00000e+00	0.00000e+00	0.00000e+00	0.00000e+00	
Factor	1.00000e+00	1.00000e+00	1.00000e+00	1.00000e+00	1.00000e+00	1.00000e+00	1.00000e+00	1.00000e+00	1.00000e+00	1.00000e+00	1.00000e+00	1.00000e+00	1.00000e+00	1.00000e+00	1.00000e+00	1.00000e+00	1.00000e+00	1.00000e+00	1.00000e+00	1.00000e+00	1.00000e+00	1.00000e+00	1.00000e+00	1.00000e+00	1.00000e+00	1.00000e+00	1.00000e+00	1.00000e+00	1.00000e+00	1.00000e+00	1.00000e+00	1.00000e+00	X	X	X	X	X	X	X	X	X	X	X	X	X	X	X	X	

B = Detector Channel
Val Type	B-AC1	B-AC2	B-AC3	B-AC4	B-AC5	B-AC6	B-AC7	B-AC8	B-AC9	B-AC10	B-AC11	B-AC12	B-AC13	B-AC14	B-AC15	B-AC16	B-DC1	B-DC2	B-DC3	B-DC4	B-DC5	B-DC6	B-DC7	B-DC8	B-DC9	B-DC10	B-DC11	B-DC12	B-DC13	B-DC14	B-DC15	B-DC16	B-Ph1	B-Ph2	B-Ph3	B-Ph4	B-Ph5	B-Ph6	B-Ph7	B-Ph8	B-Ph9	B-Ph10	B-Ph11	B-Ph12	B-Ph13	B-Ph14	B-Ph15	B-Ph16	

Term	0.00000e+00	0.00000e+00	0.00000e+00	0.00000e+00	0.00000e+00	0.00000e+00	0.00000e+00	0.00000e+00	0.00000e+00	0.00000e+00	0.00000e+00	0.00000e+00	0.00000e+00	0.00000e+00	0.00000e+00	0.00000e+00	0.00000e+00	0.00000e+00	0.00000e+00	0.00000e+00	0.00000e+00	0.00000e+00	0.00000e+00	0.00000e+00	0.00000e+00	0.00000e+00	0.00000e+00	0.00000e+00	0.00000e+00	0.00000e+00	0.00000e+00	0.00000e+00	-1.01651e+02	-1.31598e+02	-1.20738e+02	-1.91400e+02	-6.33302e+01	-6.26078e+01	-1.55998e+02	-1.62015e+02	-5.85124e+01	-6.34004e+01	-1.71242e+02	-1.69256e+02	-1.82252e+02	-1.76911e+02	-6.36124e+01	-1.48894e+02	
Factor	1.65450e-05	1.63506e-04	4.61476e-05	7.96256e-01	1.42743e-06	1.71502e-06	1.68508e-01	5.36599e-02	1.14399e-06	1.82088e-06	9.19581e-02	2.79579e-02	3.18351e-02	9.46751e-03	1.44351e-06	1.32714e-02	9.20689e-06	1.42985e-05	3.97790e-06	4.00663e-01	1.55516e-07	1.58660e-07	8.09809e-02	2.75310e-02	1.46786e-07	1.58617e-07	4.56486e-02	1.40073e-02	1.65838e-02	4.88813e-03	1.51075e-07	6.63547e-03	X	X	X	X	X	X	X	X	X	X	X	X	X	X	X	X	



#DISTANCE SETTINGS
A = Detector Channel
A-1	A-2	A-3	A-4	A-5	A-6	A-7	A-8	A-9	A-10	A-11	A-12	A-13	A-14	A-15	A-16	

2.5000e+00	3.0000e+00	2.5000e+00	3.0000e+00	2.0000e+00	3.0000e+00	1.5000e+00	3.0000e+00	3.0000e+00	3.0000e+00	3.0000e+00	3.0000e+00	3.0000e+00	3.0000e+00	1.5000e+00	3.0000e+00	

B = Detector Channel
B-1	B-2	B-3	B-4	B-5	B-6	B-7	B-8	B-9	B-10	B-11	B-12	B-13	B-14	B-15	B-16	

1.0000e+01	1.0000e+01	1.0000e+01	1.4400e+00	1.0000e+01	1.0000e+01	1.5100e+00	1.9400e+00	1.0000e+01	1.0000e+01	1.9900e+00	2.4900e+00	2.4100e+00	2.9000e+00	1.0000e+01	2.9800e+00	




#DATA BEGINS
time	group	step	mark	flag	A-AC1	A-AC2	A-AC3	A-AC4	A-AC5	A-AC6	A-AC7	A-AC8	A-AC9	A-AC10	A-AC11	A-AC12	A-AC13	A-AC14	A-AC15	A-AC16	A-DC1	A-DC2	A-DC3	A-DC4	A-DC5	A-DC6	A-DC7	A-DC8	A-DC9	A-DC10	A-DC11	A-DC12	A-DC13	A-DC14	A-DC15	A-DC16	A-Ph1	A-Ph2	A-Ph3	A-Ph4	A-Ph5	A-Ph6	A-Ph7	A-Ph8	A-Ph9	A-Ph10	A-Ph11	A-Ph12	A-Ph13	A-Ph14	A-Ph15	A-Ph16	B-AC1	B-AC2	B-AC3	B-AC4	B-AC5	B-AC6	B-AC7	B-AC8	B-AC9	B-AC10	B-AC11	B-AC12	B-AC13	B-AC14	B-AC15	B-AC16	B-DC1	B-DC2	B-DC3	B-DC4	B-DC5	B-DC6	B-DC7	B-DC8	B-DC9	B-DC10	B-DC11	B-DC12	B-DC13	B-DC14	B-DC15	B-DC16	B-Ph1	B-Ph2	B-Ph3	B-Ph4	B-Ph5	B-Ph6	B-Ph7	B-Ph8	B-Ph9	B-Ph10	B-Ph11	B-Ph12	B-Ph13	B-Ph14	B-Ph15	B-Ph16	aux-1	digaux	

790.636	1	1	0	256	0.16935	0.16035	0.14282	0.10438	0.18682	0.084949	0.18037	0.26915	0.11983	0.1344	0.17717	0.1434	0.17462	0.13223	0.1611	0.11171	-1.0812	-0.49375	-1.2771	-0.81667	-0.70417	-1.5333	-1.0562	-1.3417	-1.4979	-0.58125	-1.5875	-1.0792	-0.78125	-1.4562	-0.85417	-1.0583	294.209	238.817	365.761	91.446	275.792	318.181	217.992	288.629	136.127	308.281	282.983	203.823	228.332	71.758	115.295	84.880	0.00017066	0.00032499	6.6998e-05	1104.3	1.5605e-06	2.5027e-06	1198.4	234.17	2.0409e-06	2.9505e-06	295.73	82.354	64.855	19.367	1.3513e-06	26.896	0.00020167	0.00020923	4.9881e-05	1086.8	2.1857e-06	1.969e-06	1176.6	232.31	2.1376e-06	2.0432e-06	294.29	83.098	65.316	19.49	2.0524e-06	27.164	171.270	107.363	110.919	26.416	190.132	171.774	26.939	34.353	180.971	180.357	33.830	40.693	41.281	47.735	188.475	47.495	-8191	255	
790.733	1	1	0	0	0.15054	0.19802	0.24474	0.024946	0.072286	0.085723	0.27722	0.4165	0.2851	0.24171	0.11987	0.20189	0.25477	0.091816	0.089626	0.26452	-1.0167	-0.45208	-1.1646	-1.1146	-0.55	-1.7271	-1.0521	-1.0583	-1.3375	-0.55417	-1.3062	-1.0562	-0.67292	-1.3854	-0.90625	-0.96042	338.000	109.567	360.044	297.890	244.906	95.551	302.090	286.822	351.126	184.845	21.269	22.808	336.455	23.968	116.426	72.471	0.00015749	0.00039436	9.8977e-05	1114.9	2.0676e-06	3.405e-06	1196.8	234.59	2.007e-06	1.7815e-06	299.39	82.832	65.136	19.271	2.5879e-06	26.974	0.00019801	0.00019386	4.9633e-05	1089.9	2.0868e-06	1.9793e-06	1176.7	232.45	2.0608e-06	2.0045e-06	295.52	83.241	65.37	19.488	2.1506e-06	27.136	174.717	117.081	116.357	26.640	165.955	168.096	26.910	34.360	203.460	153.893	33.930	40.644	41.254	47.850	184.046	47.457	-8191	255	
790.829	1	1	0	0	0.15941	0.20358	0.036225	0.15599	0.1571	0.072627	0.11711	0.25026	0.18527	0.21639	0.060944	0.15795	0.16554	0.1307	0.21096	0.22481	-1.1333	-0.51458	-1.4021	-1.2938	-0.56875	-1.5063	-1.1667	-0.93958	-1.4625	-0.64792	-1.1396	-1.1562	-0.61042	-1.4062	-0.6875	-0.83958	60.579	233.686	140.625	103.519	137.271	125.502	343.470	345.467	86.845	359.476	286.367	325.345	115.142	364.323	60.973	56.171	0.00015193	0.00032795	8.2655e-05	1115.4	2.2918e-06	3.4887e-06	1196.5	233.49	1.9935e-06	3.9717e-06	296.05	82.168	65.005	19.361	3.4648e-06	26.834	0.00019802	0.00018993	5.1273e-05	1091	2.1652e-06	1.8196e-06	1174.3	231.69	1.9682e-06	2.0422e-06	294.29	82.97	65.293	19.464	2.0219e-06	27.095	172.542	95.973	105.058	26.540	176.285	176.718	26.825	34.360	192.637	189.064	34.006	41.023	41.073	47.833	193.278	47.454	-8191	255	
790.925	1	1	0	0	0.03369	0.16451	0.25936	0.208	0.27933	0.14486	0.30766	0.27251	0.14808	0.20572	0.27071	0.10562	0.092923	0.15725	0.23933	0.15708	-1.0771	-0.7125	-1.2437	-1.2854	-0.54375	-1.4646	-1.2042	-0.90417	-1.55	-0.91458	-1.0458	-1.3958	-0.54792	-1.5063	-1.0479	-0.67708	190.677	207.618	265.523	351.530	59.245	143.913	265.573	43.736	321.140	368.868	371.845	113.151	336.964	176.757	74.891	90.408	0.00016231	0.00024467	7.8196e-05	1121.5	2.8384e-06	3.4667e-06	1193.5	232.95	1.535e-06	3.6402e-06	295.77	82.393	64.558	19.136	3.6172e-06	26.726	0.00018479	0.00018356	5.0511e-05	1087.3	2.1008e-06	1.9492e-06	1171.9	230.95	2.0272e-06	2.1241e-06	292.98	82.925	64.937	19.361	1.9199e-06	27.008	177.257	126.154	127.426	26.534	157.758	191.785	27.141	34.227	197.531	181.751	34.034	40.678	41.212	47.518	173.206	47.158	-8191	255	
791.021	1	1	0	0	0.12438	0.086317	0.16674	0.08856	0.20118	0.083952	0.28792	0.1872	0.18198	0.15094	0.29651	0.13041	0.11274	0.18604	0.054922	0.031083	-1.2771	-0.68125	-0.90833	-1.4583	-0.62917	-1.2687	-1.4917	-0.70833	-1.4583	-1.0583	-0.83542	-1.6021	-0.86458	-1.4271	-1.3271	-0.88542	366.385	367.138	85.555	209.799	358.404	27.045	370.519	217.363	279.245	31.263	345.584	274.642	63.982	41.621	180.461	102.204	0.00014369	0.00027837	8.7168e-05	1104.9	2.3451e-06	3.2885e-06	1190	233.35	2.2629e-06	2.8825e-06	296.12	82.319	65.215	19.143	2.2426e-06	26.699	0.00018538	0.00018746	5.0188e-05	1080.6	2.0794e-06	1.9185e-06	1169	230.9	1.9709e-06	1.9728e-06	292.65	82.892	65.184	19.333	1.8862e-06	26.985	169.090	94.040	117.033	26.809	198.807	166.671	26.868	34.491	201.806	174.262	34.169	40.543	40.997	47.566	157.241	47.051	-8191	255	
791.117	1	1	0	0	0.23335	0.10804	0.039224	0.083762	0.13761	0.13785	0.22187	0.26451	0.1801	0.096468	0.25637	0.33936	0.097008	0.23118	0.11121	0.22685	-0.99792	-1.0771	-0.93958	-1.5271	-0.71458	-1.0917	-1.4125	-0.61875	-1.4417	-0.9375	-0.56458	-1.4042	-0.76458	-1.0292	-1.4417	-0.62708	25.590	375.025	108.759	185.684	188.426	112.986	237.514	240.121	332.678	43.216	52.953	328.713	338.292	48.175	25.838	66.537	0.00016196	0.00032394	9.5376e-05	1115	2.1891e-06	3.2893e-06	1190.8	232.45	2.1064e-06	2.968e-06	298.37	82.639	65.051	19.248	3.2526e-06	26.663	0.00018728	0.00019103	5.1439e-05	1086.5	1.954e-06	1.9211e-06	1168.7	230.64	2.1195e-06	2.0382e-06	294.01	83.157	64.964	19.4	1.8979e-06	27.021	172.552	107.507	96.794	26.060	192.140	194.310	26.848	34.187	189.815	152.171	33.859	40.533	41.157	47.804	188.858	47.246	-8191	255	
791.238	1	1	0	0	0.32748	0.13474	0.22755	0.12864	0.11773	0.10112	0.40764	0.12084	0.11507	0.21163	0.30341	0.21828	0.10209	0.41483	0.15897	0.103	-1.0375	-0.87083	-0.49583	-1.375	-0.79375	-1.0625	-1.6625	-0.54792	-1.3583	-1.2104	-0.77917	-1.4979	-0.87917	-0.86458	-1.3667	-0.63333	85.904	75.710	372.492	17.512	99.614	272.623	300.746	55.756	101.264	152.622	307.201	126.813	169.085	348.379	255.640	35.936	0.00016277	0.00027264	9.8948e-05	1115.1	2.3216e-06	1.5754e-06	1185.3	232.45	3.0476e-06	3.0293e-06	295.12	82.825	65.027	19.146	2.7946e-06	26.601	0.00018163	0.00017149	5.2401e-05	1084.2	1.9582e-06	1.8781e-06	1167.3	230.67	1.9345e-06	1.8773e-06	292.57	82.921	64.968	19.377	1.8249e-06	26.908	173.615	91.562	101.878	26.869	180.130	199.327	26.757	34.055	182.039	167.119	33.915	40.964	40.897	47.405	167.371	47.487	-8191	255	
791.334	1	1	0	0	0.047337	0.38674	0.094933	0.1003	0.22619	0.3381	0.3521	0.07365	0.13445	0.26373	0.17074	0.12732	0.30678	0.26563	0.16163	0.058941	-0.8875	-1.1042	-0.61458	-1.7875	-0.80625	-0.78125	-1.7542	-0.57292	-0.98542	-1.3646	-0.71875	-1.4312	-1.075	-0.8875	-1.5812	-0.92917	164.974	192.150	102.250	300.726	343.866	354.764	214.978	103.412	129.623	153.304	346.255	194.502	25.317	247.180	172.697	152.243	0.00015974	0.00019808	8.5164e-05	1103.4	2.7262e-06	2.6892e-06	1190.3	231.86	3.2505e-06	2.7569e-06	294.9	82.116	64.225	19.109	2.4117e-06	26.531	0.00018581	0.00017286	4.7718e-05	1079.3	1.9929e-06	1.9171e-06	1167.3	230.15	2.0003e-06	1.9008e-06	292.17	82.567	64.882	19.26	1.8497e-06	26.831	174.780	82.587	119.504	26.421	155.937	158.105	26.915	34.505	215.527	177.613	34.155	41.040	41.322	47.872	203.482	47.597	-8191	255	
791.430	1	1	0	0	0.1837	0.25327	0.11345	0.17337	0.28439	0.22698	0.26083	0.20463	0.05302	0.18407	0.34622	0.15437	0.23893	0.16909	0.084047	0.14684	-0.89583	-1.1896	-0.6375	-1.6521	-1.1021	-0.84375	-1.6917	-0.79792	-0.94167	-1.3625	-0.59375	-1.4438	-1.2313	-0.60625	-1.4333	-0.64583	17.020	127.424	267.285	146.486	87.921	131.253	323.916	289.767	71.371	32.238	376.492	53.746	47.406	163.628	62.829	325.991	0.00014792	0.00035811	0.00012362	1093.8	3.6966e-06	3.5709e-06	1183.9	230.84	2.4675e-06	3.2786e-06	294.58	82.292	64.143	19.101	1.9896e-06	26.546	0.00018003	0.00015496	4.9931e-05	1074.1	2.0062e-06	1.9614e-06	1163.7	229.36	2.01e-06	1.839e-06	291.2	82.554	64.524	19.234	1.7034e-06	26.846	174.957	92.765	109.684	26.481	175.065	165.927	26.977	34.492	190.591	181.692	34.049	41.041	41.416	47.942	182.123	47.439	-8191	255	
791.526	1	1	0	0	0.17822	0.019836	0.25561	0.20527	0.22859	0.196	0.31631	0.14661	0.065099	0.05998	0.016158	0.085526	0.086259	0.079722	0.11416	0.24764	-0.6	-1.4792	-0.52917	-1.3833	-1.1417	-0.62708	-1.925	-0.96875	-0.92083	-1.6854	-0.63958	-1.3396	-1.3062	-0.27292	-1.5271	-1.0854	239.590	349.020	258.921	359.664	194.517	207.040	44.877	346.342	75.394	96.027	363.307	296.470	338.264	70.922	270.757	36.602	0.00016002	0.00035992	0.00010697	1107.1	2.7358e-06	2.6738e-06	1181.6	230.2	2.2373e-06	2.5496e-06	293.96	81.823	64.065	19.009	2.9483e-06	26.667	0.00018625	0.00017209	4.9318e-05	1078.6	1.8497e-06	1.9806e-06	1161.4	228.39	2.0419e-06	1.7534e-06	291.13	82.357	64.435	19.207	1.7559e-06	26.847	169.839	95.298	107.772	27.070	176.292	170.110	26.959	34.484	187.516	177.154	34.296	40.870	41.274	48.154	175.808	47.427	-8191	255	
791.621	1	1	0	0	0.052923	0.11953	0.082305	0.085864	0.11018	0.142	0.13127	0.057366	0.22268	0.27354	0.24587	0.1333	0.22697	0.19488	0.062743	0.11591	-0.39792	-1.6458	-0.47083	-1.3333	-1.2625	-0.43125	-1.6375	-1.0833	-0.92708	-1.5792	-0.75417	-1.3312	-1.5771	-0.4625	-1.525	-1.05	309.351	305.861	161.909	165.209	215.412	68.395	283.031	369.158	19.496	21.523	254.626	270.327	366.263	72.540	70.544	21.996	0.00014167	0.00024655	8.268e-05	1109.1	2.9819e-06	1.8788e-06	1176.6	229.95	1.8967e-06	3.1061e-06	293.49	81.837	63.889	19.078	1.8939e-06	26.438	0.00019022	0.00016592	4.8298e-05	1077.6	1.9546e-06	1.7935e-06	1157.9	228.36	2.0614e-06	1.76e-06	290.4	82.174	64.176	19.138	1.7204e-06	26.67	175.981	59.469	106.330	26.945	182.645	185.431	27.095	34.215	176.734	155.000	34.480	40.731	41.179	48.017	183.906	47.289	-8191	255	
791.717	1	1	0	0	0.27634	0.058793	0.22569	0.16687	0.30623	0.16735	0.16734	0.2006	0.11153	0.073528	0.1385	0.19905	0.15062	0.26849	0.04814	0.30022	-0.39167	-1.5417	-0.66042	-0.90833	-1.525	-0.52292	-1.5208	-1.1854	-0.63542	-1.7708	-0.73958	-1.0375	-1.5312	-0.63333	-1.3417	-1.2729	72.806	368.179	187.090	203.742	277.195	130.329	189.849	347.315	217.295	65.465	111.133	222.947	299.427	57.949	108.677	312.907	0.00015257	0.00028573	8.6632e-05	1095.9	1.9188e-06	2.951e-06	1177.4	229.16	1.5769e-06	3.1821e-06	290.21	81.518	63.538	18.774	2.8649e-06	26.28	0.00018326	0.00016339	4.5066e-05	1072.2	1.8111e-06	1.8682e-06	1152.7	226.94	1.9321e-06	1.6655e-06	288.34	81.683	63.685	18.922	1.6253e-06	26.466	169.142	103.087	109.372	27.101	193.420	179.419	27.159	34.496	195.442	174.166	34.098	41.006	41.560	48.457	205.186	47.845	-8191	255	
791.837	1	1	0	0	0.11836	0.08241	0.11054	0.33663	0.25202	0.3224	0.16259	0.073275	0.028365	0.21914	0.25189	0.092425	0.19914	0.40251	0.11955	0.18915	-0.16458	-1.6187	-0.96875	-0.875	-1.6313	-0.89583	-1.3062	-1.4625	-0.78542	-1.6125	-1.05	-0.86458	-1.4667	-0.87708	-1.3125	-1.4333	302.052	21.826	97.458	374.025	172.717	158.458	321.938	252.070	109.713	339.233	63.139	78.062	309.163	95.072	40.524	347.262	0.00015395	0.00023322	7.0575e-05	1082.5	2.4537e-06	2.85e-06	1160	225.32	1.6053e-06	2.8772e-06	288.53	79.593	62.837	18.554	3.3667e-06	26.016	0.00017025	0.00013441	4.132e-05	1056.1	1.5279e-06	1.5506e-06	1140.8	223.63	1.8036e-06	1.5184e-06	285.09	80.167	62.793	18.668	1.648e-06	26.188	173.330	102.223	113.189	27.009	167.680	178.859	27.264	34.506	188.515	165.287	34.259	41.211	41.604	48.205	196.162	47.685	-8191	255	
791.934	1	1	0	0	0.16672	0.12332	0.25881	0.050356	0.090295	0.20643	0.30745	0.20662	0.38408	0.27133	0.23569	0.18135	0.16485	0.22105	0.14035	0.073455	-0.25833	-1.4208	-0.89167	-1.0083	-1.625	-0.78958	-1.2333	-1.4562	-0.50208	-1.4208	-1.2417	-0.65	-1.6562	-0.875	-0.86458	-1.6083	213.796	329.275	259.942	138.099	103.560	225.750	352.276	357.714	329.860	280.724	64.292	338.989	300.194	314.439	307.903	169.998	0.00015151	0.00030075	6.8565e-05	1078.7	1.991e-06	4.197e-06	1157	225.9	2.7502e-06	2.9646e-06	288.38	79.823	62.892	18.46	2.2372e-06	25.943	0.00016971	0.00014844	4.1552e-05	1052.3	1.6206e-06	1.6041e-06	1135.8	223.35	1.8434e-06	1.5997e-06	284.78	80.296	62.741	18.639	1.743e-06	26.134	174.158	112.019	97.513	26.880	177.273	172.882	27.147	34.367	188.015	167.057	33.977	41.195	41.120	47.849	189.966	47.744	-8191	255	
792.030	1	1	0	0	0.25023	0.10561	0.11014	0.37348	0.05561	0.097844	0.2196	0.21069	0.2238	0.28126	0.17146	0.12443	0.30071	0.28011	0.17273	0.42259	-0.175	-1.4042	-1.1792	-0.65417	-1.5646	-0.72917	-1.2104	-1.5375	-0.49375	-1.3708	-1.475	-0.46458	-1.425	-0.93333	-0.84167	-1.6604	348.696	243.797	344.978	329.193	217.777	250.703	301.196	347.688	187.045	216.539	229.983	338.178	364.348	330.426	61.009	326.980	0.00016561	0.00028365	8.4214e-05	1085	3.6451e-06	2.4172e-06	1162.1	225.56	1.6191e-06	3.5843e-06	289.11	80.299	62.595	18.587	2.3708e-06	25.921	0.00017752	0.00014546	4.2555e-05	1054.7	1.7664e-06	1.6785e-06	1139.2	223.86	1.7718e-06	1.5944e-06	285.47	80.363	62.681	18.658	1.6952e-06	26.126	169.855	96.464	128.296	26.470	172.813	180.248	27.090	34.522	211.491	175.321	34.024	41.341	41.606	48.098	176.066	47.864	-8191	255	
792.101	1	1	0	0	0.34594	0.20924	0.15814	0.12892	0.10833	0.1841	0.22021	0.09725	0.15798	0.091027	0.18118	0.19295	0.067359	0.03534	0.13052	0.11272	-0.21042	-1.225	-1.0979	-0.625	-1.725	-0.875	-1.0125	-1.6104	-0.60208	-1.2417	-1.25	-0.50208	-1.6604	-1.0479	-0.73333	-1.5896	353.603	306.951	225.774	246.126	310.366	336.887	340.215	24.954	346.847	198.979	359.385	334.835	259.237	88.621	313.262	271.388	0.00014615	0.00029604	6.6601e-05	1076.8	2.6712e-06	2.8529e-06	1158.3	225.51	2.1692e-06	1.6609e-06	286.62	79.962	62.777	18.55	2.8451e-06	25.948	0.00017384	0.00014537	4.0185e-05	1050.3	1.5487e-06	1.7575e-06	1137.8	223.58	1.7978e-06	1.7055e-06	284.65	80.318	62.807	18.639	1.6744e-06	26.244	169.129	118.104	122.622	27.340	173.885	174.935	27.238	34.474	208.589	183.108	34.198	41.249	42.065	48.601	176.595	47.663	-8191	255	
792.222	1	1	0	0	0.13741	0.31769	0.11629	0.12635	0.1499	0.14509	0.235	0.22484	0.14211	0.18946	0.28793	0.10601	0.17921	0.052938	0.16399	0.16784	-0.2125	-1.0187	-1.525	-0.55625	-1.4688	-1.0708	-0.8875	-1.5938	-0.62292	-1.25	-1.5979	-0.62708	-1.3896	-1.1292	-0.7	-1.6771	178.075	206.716	95.841	77.507	254.734	20.537	227.273	226.655	367.392	251.455	313.709	91.019	150.485	25.594	291.845	177.391	0.00015082	0.00035794	8.6691e-05	1085.4	2.7889e-06	3.3828e-06	1161.8	226.28	2.62e-06	3.0491e-06	287.08	79.671	62.476	18.493	3.2215e-06	25.981	0.00017278	0.00015317	4.2e-05	1053.9	1.745e-06	1.6577e-06	1138.9	224.24	1.8893e-06	1.8277e-06	285.25	80.319	62.875	18.659	1.9117e-06	26.187	169.346	108.332	110.901	27.419	183.283	166.405	27.345	34.298	188.422	164.552	34.107	40.833	41.778	47.930	185.616	47.806	-8191	255	
792.318	1	1	0	0	0.082337	0.13612	0.22418	0.098568	0.053806	0.049135	0.13917	0.19187	0.20767	0.25552	0.1591	0.098963	0.11136	0.2424	0.17183	0.15266	-0.54375	-0.78958	-1.5312	-0.53333	-1.2667	-1.2458	-0.70833	-1.6583	-0.94375	-1.0333	-1.6771	-0.79375	-1.2542	-1.4625	-0.6	-1.4583	279.385	215.364	329.154	35.694	319.643	20.892	208.378	310.795	181.743	287.678	332.588	30.430	27.216	111.775	348.763	74.555	0.00015593	0.0002406	8.706e-05	1082.3	2.3383e-06	2.6852e-06	1159.7	225.9	1.9326e-06	4.2631e-06	287.62	80.254	62.99	18.483	2.5528e-06	25.843	0.00018395	0.00016256	4.5224e-05	1053.6	1.701e-06	1.6481e-06	1139.2	224.26	1.9229e-06	1.7187e-06	285.42	80.331	62.88	18.623	1.7273e-06	26.135	166.551	108.777	99.633	26.807	161.668	154.588	27.040	34.854	193.688	178.281	33.852	41.278	41.687	48.204	150.126	47.614	-8191	255	
