BOXY.EXE: ISS Imagent and Oximeter Data Acquisition Program Version 0.80
Ascii Record File

#ACQ INFORMATION
2  Detector Channels 
16  External MUX Channels 
1  Auxiliary Channels 
5000  Waveform (CCF) Frequency (Hz)
1  Waveforms Skipped 
30  Waveforms Averaged 
1  Cycles Averaged 
16  Acquisitions per Waveform 
10.0806  Updata Rate (Hz) 

#FILE INFORMATION
TRUE -- External MUX Channel results are PARSED.
FALSE -- AC DC and Phase are NOT grouped.
TRUE -- Companion Program Settings File CREATED.
FALSE -- AC data not excluded
FALSE -- DC data not excluded
FALSE -- Phase data not excluded
FALSE -- Auxillary Chn. data not excluded
Tab delimiters

#CALIBRATION STATE
TRUE -- Waveform Calibration Values APPLIED.


#AUX CALIBRATION VALUES
Val Type	aux-1	

Term	1.0000e+00	
Factor	0.0000e+00	


#WF CALIBRATION VALUES
A = Detector Channel
Val Type	A-AC1	A-AC2	A-AC3	A-AC4	A-AC5	A-AC6	A-AC7	A-AC8	A-AC9	A-AC10	A-AC11	A-AC12	A-AC13	A-AC14	A-AC15	A-AC16	A-DC1	A-DC2	A-DC3	A-DC4	A-DC5	A-DC6	A-DC7	A-DC8	A-DC9	A-DC10	A-DC11	A-DC12	A-DC13	A-DC14	A-DC15	A-DC16	A-Ph1	A-Ph2	A-Ph3	A-Ph4	A-Ph5	A-Ph6	A-Ph7	A-Ph8	A-Ph9	A-Ph10	A-Ph11	A-Ph12	A-Ph13	A-Ph14	A-Ph15	A-Ph16	

Term	0.00000e+00	0.00000e+00	0.00000e+00	0.00000e+00	0.00000e+00	0.00000e+00	0.00000e+00	0.00000e+00	0.00000e+00	0.00000e+00	0.00000e+00	0.00000e+00	0.00000e+00	0.00000e+00	0.00000e+00	0.00000e+00	0.00000e+00	0.00000e+00	0.00000e+00	0.00000e+00	0.00000e+00	0.00000e+00	0.00000e+00	0.00000e+00	0.00000e+00	0.00000e+00	0.00000e+00	0.00000e+00	0.00000e+00	0.00000e+00	0.00000e+00	0.00000e+00	0.00000e+00	0.00000e+00	0.00000e+00	0.00000e+00	0.00000e+00	0.00000e+00	0.00000e+00	0.00000e+00	0.00000e+00	0.00000e+00	0.00000e+00	0.00000e+00	0.00000e+00	0.00000e+00	0.00000e+00	0.00000e+00	
Factor	1.00000e+00	1.00000e+00	1.00000e+00	1.00000e+00	1.00000e+00	1.00000e+00	1.00000e+00	1.00000e+00	1.00000e+00	1.00000e+00	1.00000e+00	1.00000e+00	1.00000e+00	1.00000e+00	1.00000e+00	1.00000e+00	1.00000e+00	1.00000e+00	1.00000e+00	1.00000e+00	1.00000e+00	1.00000e+00	1.00000e+00	1.00000e+00	1.00000e+00	1.00000e+00	1.00000e+00	1.00000e+00	1.00000e+00	1.00000e+00	1.00000e+00	1.00000e+00	X	X	X	X	X	X	X	X	X	X	X	X	X	X	X	X	

B = Detector Channel
Val Type	B-AC1	B-AC2	B-AC3	B-AC4	B-AC5	B-AC6	B-AC7	B-AC8	B-AC9	B-AC10	B-AC11	B-AC12	B-AC13	B-AC14	B-AC15	B-AC16	B-DC1	B-DC2	B-DC3	B-DC4	B-DC5	B-DC6	B-DC7	B-DC8	B-DC9	B-DC10	B-DC11	B-DC12	B-DC13	B-DC14	B-DC15	B-DC16	B-Ph1	B-Ph2	B-Ph3	B-Ph4	B-Ph5	B-Ph6	B-Ph7	B-Ph8	B-Ph9	B-Ph10	B-Ph11	B-Ph12	B-Ph13	B-Ph14	B-Ph15	B-Ph16	

Term	0.00000e+00	0.00000e+00	0.00000e+00	0.00000e+00	0.00000e+00	0.00000e+00	0.00000e+00	0.00000e+00	0.00000e+00	0.00000e+00	0.00000e+00	0.00000e+00	0.00000e+00	0.00000e+00	0.00000e+00	0.00000e+00	0.00000e+00	0.00000e+00	0.00000e+00	0.00000e+00	0.00000e+00	0.00000e+00	0.00000e+00	0.00000e+00	0.00000e+00	0.00000e+00	0.00000e+00	0.00000e+00	0.00000e+00	0.00000e+00	0.00000e+00	0.00000e+00	6.09306e+01	-1.28867e+02	-1.24252e+02	-1.83791e+02	-7.10263e+01	-6.44181e+01	-1.55111e+02	-1.62015e+02	-5.97362e+01	-7.09102e+01	-1.70545e+02	-1.70268e+02	-1.83573e+02	-1.76953e+02	-6.30865e+01	-1.49760e+02	
Factor	6.88653e-05	1.99114e-04	5.52351e-05	1.82487e-01	2.78844e-06	2.19230e-06	1.74721e-01	5.94271e-02	3.46584e-06	1.87842e-06	9.44179e-02	3.29784e-02	3.44525e-02	1.09698e-02	2.67653e-06	1.53179e-02	1.06372e-05	1.32956e-05	3.69939e-06	9.20757e-02	1.38416e-07	1.48277e-07	8.30070e-02	2.99589e-02	1.38529e-07	1.47423e-07	4.64028e-02	1.61447e-02	1.73924e-02	5.58577e-03	1.42191e-07	7.57640e-03	X	X	X	X	X	X	X	X	X	X	X	X	X	X	X	X	



#DISTANCE SETTINGS
A = Detector Channel
A-1	A-2	A-3	A-4	A-5	A-6	A-7	A-8	A-9	A-10	A-11	A-12	A-13	A-14	A-15	A-16	

2.5000e+00	3.0000e+00	2.5000e+00	3.0000e+00	2.0000e+00	3.0000e+00	1.5000e+00	3.0000e+00	3.0000e+00	3.0000e+00	3.0000e+00	3.0000e+00	3.0000e+00	3.0000e+00	1.5000e+00	3.0000e+00	

B = Detector Channel
B-1	B-2	B-3	B-4	B-5	B-6	B-7	B-8	B-9	B-10	B-11	B-12	B-13	B-14	B-15	B-16	

1.0000e+01	1.0000e+01	1.0000e+01	1.4400e+00	1.0000e+01	1.0000e+01	1.5100e+00	1.9400e+00	1.0000e+01	1.0000e+01	1.9900e+00	2.4900e+00	2.4100e+00	2.9000e+00	1.0000e+01	2.9800e+00	




#DATA BEGINS
time	group	step	mark	flag	A-AC1	A-AC2	A-AC3	A-AC4	A-AC5	A-AC6	A-AC7	A-AC8	A-AC9	A-AC10	A-AC11	A-AC12	A-AC13	A-AC14	A-AC15	A-AC16	A-DC1	A-DC2	A-DC3	A-DC4	A-DC5	A-DC6	A-DC7	A-DC8	A-DC9	A-DC10	A-DC11	A-DC12	A-DC13	A-DC14	A-DC15	A-DC16	A-Ph1	A-Ph2	A-Ph3	A-Ph4	A-Ph5	A-Ph6	A-Ph7	A-Ph8	A-Ph9	A-Ph10	A-Ph11	A-Ph12	A-Ph13	A-Ph14	A-Ph15	A-Ph16	B-AC1	B-AC2	B-AC3	B-AC4	B-AC5	B-AC6	B-AC7	B-AC8	B-AC9	B-AC10	B-AC11	B-AC12	B-AC13	B-AC14	B-AC15	B-AC16	B-DC1	B-DC2	B-DC3	B-DC4	B-DC5	B-DC6	B-DC7	B-DC8	B-DC9	B-DC10	B-DC11	B-DC12	B-DC13	B-DC14	B-DC15	B-DC16	B-Ph1	B-Ph2	B-Ph3	B-Ph4	B-Ph5	B-Ph6	B-Ph7	B-Ph8	B-Ph9	B-Ph10	B-Ph11	B-Ph12	B-Ph13	B-Ph14	B-Ph15	B-Ph16	aux-1	digaux	

839.577	1	1	0	512	0.12933	0.089968	0.11061	0.19471	0.23849	0.10986	0.16319	0.21398	0.1885	0.14171	0.15674	0.29144	0.27183	0.1232	0.32571	0.045995	-2.5354	-2.8896	-2.9938	-3.2208	-2.9167	-3.0854	-2.8896	-2.8542	-3.1229	-2.8063	-2.9271	-3.0625	-2.8708	-3.0917	-2.975	-2.9021	264.590	347.506	208.885	285.965	66.879	348.322	8.653	19.511	241.954	309.668	271.199	16.552	21.569	325.689	40.543	315.043	0.0021568	0.0012554	0.00017442	949.94	8.6096e-06	1.0199e-05	1014.9	322.8	1.9532e-05	9.8813e-06	429.66	193.11	132.88	65.846	1.546e-05	112.66	0.0024941	0.0028077	0.00077578	949.16	2.91e-05	3.0601e-05	1010.1	324.43	2.8737e-05	3.0572e-05	433.13	194.31	134.18	66.605	2.9437e-05	113.52	333.286	102.532	50.037	19.198	172.687	137.878	19.386	24.798	187.913	186.345	23.773	27.945	28.990	32.380	198.085	31.171	-8191	255	
839.673	1	1	0	0	0.28032	0.25451	0.072694	0.10001	0.2487	0.018456	0.056734	0.28669	0.10848	0.21717	0.21195	0.24308	0.27089	0.18333	0.14965	0.25266	-2.5875	-2.8146	-2.925	-3.1104	-2.6167	-2.8208	-2.9875	-2.8292	-2.9938	-2.8396	-3.05	-3.1188	-2.9521	-3.0896	-2.9437	-2.9	7.911	103.491	101.914	193.810	233.447	59.008	345.970	299.786	171.910	344.339	257.355	353.539	355.418	349.432	253.849	321.680	0.0019671	0.001253	0.00015813	943.17	8.7934e-06	8.8185e-07	1002.3	321.23	2.0121e-06	6.4967e-06	427.25	192.68	132.22	65.782	1.8741e-05	112.05	0.002522	0.0027566	0.00077292	944.06	2.882e-05	3.0311e-05	1001.1	321.8	2.8434e-05	2.9861e-05	431.08	193.23	133.25	66.458	2.9259e-05	112.88	338.729	121.857	133.039	19.243	152.575	146.049	19.286	24.431	219.030	136.327	23.840	27.915	29.006	32.555	163.764	31.153	-8191	255	
839.767	1	1	0	0	0.12661	0.14292	0.11956	0.22574	0.10593	0.1819	0.21694	0.39113	0.21162	0.10404	0.22112	0.18669	0.14369	0.36096	0.12285	0.17757	-2.6083	-2.575	-2.6917	-3.1625	-2.9188	-3.0542	-3.0625	-2.7417	-2.9479	-2.875	-3.0042	-3.2125	-3.0104	-3.1188	-2.9	-2.9521	182.895	95.524	269.854	307.675	229.728	347.779	198.023	297.873	51.184	211.471	321.246	8.610	242.185	348.757	62.738	360.633	0.002104	0.0010101	0.0003349	935.49	6.6585e-06	9.0411e-06	1003.6	319.7	1.6369e-05	5.5539e-06	425.34	192.07	132.46	65.514	1.694e-05	111.84	0.0024822	0.0027728	0.00077276	939.82	2.9224e-05	3.0874e-05	999.67	321.69	2.9396e-05	3.0752e-05	429.88	192.96	133.64	66.364	3.009e-05	112.59	334.716	120.287	82.458	19.396	111.427	160.852	19.341	24.569	195.753	92.517	23.790	28.117	28.661	32.509	113.761	30.929	-8191	255	
839.864	1	1	0	0	0.26398	0.22016	0.076504	0.25862	0.11049	0.079473	0.22701	0.15236	0.33066	0.16435	0.28921	0.18185	0.21293	0.16345	0.073014	0.2893	-2.5833	-2.925	-2.6458	-3.3125	-3.0479	-2.9333	-3.2771	-2.8479	-3.1854	-2.9479	-2.9562	-3.3229	-2.8667	-2.9646	-3.0187	-3.1604	61.613	336.884	343.849	26.820	76.082	96.506	195.641	21.846	239.797	15.367	213.915	359.939	44.148	364.657	216.260	280.217	0.001973	0.0008337	0.00010539	941.51	1.6295e-05	8.0942e-06	1001.5	320.26	1.4793e-05	7.9915e-06	425.94	191.98	132.48	65.274	1.7078e-05	111.54	0.0024611	0.0027229	0.00077648	940.3	2.8703e-05	3.1183e-05	998.44	321.73	2.9879e-05	3.1207e-05	429.41	192.67	133.98	66.254	3.032e-05	112.42	336.261	120.335	78.469	19.301	135.469	199.638	19.263	24.583	153.880	131.110	23.755	28.019	28.830	32.482	147.200	31.017	-8191	255	
839.984	1	1	0	0	0.23555	0.23116	0.32589	0.092423	0.11033	0.078204	0.058376	0.09138	0.11438	0.11566	0.24887	0.10045	0.31642	0.17758	0.22496	0.21692	-2.6229	-3.0104	-2.6875	-3.2646	-3.0083	-2.8646	-3.1437	-2.7667	-3.1771	-2.9333	-2.7833	-3.0167	-2.9271	-2.9979	-2.9333	-3.0229	298.303	86.231	77.038	306.661	319.057	82.966	93.757	289.385	235.272	311.140	306.590	314.991	48.737	346.899	333.058	294.090	0.0018781	0.00094412	0.0001306	943.42	1.0309e-05	9.9557e-06	1002.5	322	1.0195e-05	9.4491e-06	426.31	192.97	131.28	65.486	1.1642e-05	111.91	0.0025818	0.0028694	0.00080238	944.43	2.9726e-05	3.171e-05	999.94	322.19	2.9629e-05	3.0646e-05	429.66	193.06	133.01	66.237	2.9857e-05	112.79	334.982	121.923	104.743	19.301	181.974	157.263	19.250	24.464	134.247	160.738	23.842	28.140	28.483	32.471	134.229	31.014	-8191	255	
840.056	1	1	0	0	0.1814	0.10396	0.13681	0.13392	0.28039	0.034275	0.046912	0.24152	0.12779	0.059653	0.19403	0.10709	0.22121	0.20242	0.13953	0.38978	-2.3417	-2.8979	-2.6542	-3.0917	-2.7417	-2.7854	-3.1792	-3.0062	-2.9917	-2.9271	-2.9521	-3.0417	-2.8	-2.775	-2.9313	-2.9646	334.193	109.430	103.488	255.622	236.543	230.543	252.922	223.564	203.633	51.577	54.728	11.330	63.320	91.471	139.358	311.032	0.0016973	0.00065705	7.9736e-05	944.03	1.1676e-05	8.726e-06	1004	322.76	1.3985e-05	7.1291e-06	428.38	193.39	132.92	65.694	1.3218e-05	112.62	0.0025157	0.0027684	0.00078538	944.47	2.9503e-05	3.1503e-05	1003.7	323.05	2.9251e-05	3.0815e-05	431.91	194.2	133.64	66.386	2.9354e-05	113.58	339.216	100.728	82.664	19.466	158.180	149.735	18.985	24.697	164.410	166.606	23.904	27.988	28.990	32.648	160.469	31.130	-8191	255	
840.152	1	1	0	0	0.17463	0.23029	0.13859	0.2803	0.32914	0.22665	0.16862	0.1122	0.10034	0.088927	0.25703	0.33502	0.15943	0.31338	0.18726	0.076497	-2.3542	-3.1104	-2.7146	-3.0979	-2.9042	-2.9417	-3.2271	-2.8958	-2.9271	-3.1229	-2.875	-3.0604	-2.9708	-2.9417	-3.0708	-2.9313	102.025	140.872	269.009	351.733	151.120	207.726	191.092	230.610	127.902	123.047	343.892	14.235	339.885	20.471	256.781	270.588	0.0019234	0.00070933	0.00022631	945.69	1.7282e-05	6.0129e-06	1008.8	322.52	1.7451e-05	5.9693e-06	430.1	193.11	131.99	65.219	1.3725e-05	111.17	0.0024784	0.0026908	0.00075874	946.17	2.8207e-05	3.0416e-05	1007.9	322.9	2.8966e-05	2.9855e-05	432.68	193.73	133.39	65.986	2.9565e-05	112.27	336.213	92.600	116.726	19.149	176.072	204.102	19.361	24.458	211.478	164.304	23.640	28.085	28.670	32.734	161.369	31.260	-8191	255	
840.273	1	1	0	0	0.13406	0.22442	0.18901	0.060945	0.13191	0.16127	0.1708	0.26573	0.11945	0.047966	0.2263	0.34058	0.26844	0.11126	0.10615	0.2884	-2.4771	-2.8667	-2.8479	-3.0708	-2.8167	-2.7729	-3.2479	-3.1875	-2.8979	-2.9875	-2.6646	-2.9375	-3.0125	-2.7479	-2.8375	-3.0896	226.383	303.120	198.883	16.432	161.974	219.455	310.841	344.504	303.417	333.132	94.695	304.471	361.119	344.500	96.733	297.707	0.0020255	0.00051014	0.00026492	950.85	6.6887e-06	9.0752e-06	1001.1	320.86	1.937e-05	1.0284e-05	422.35	188.41	129.58	64.123	9.4752e-06	109.19	0.0024898	0.0026603	0.00074272	950.14	2.798e-05	2.9789e-05	1000.4	320.78	2.7705e-05	2.8859e-05	425.4	189.49	131.04	64.861	2.8545e-05	110.18	335.768	69.583	80.176	19.213	14.793	150.591	19.235	24.585	155.307	131.819	23.824	27.994	28.873	32.577	190.576	31.270	-8191	255	
840.369	1	1	0	0	0.31635	0.093432	0.13009	0.16793	0.19663	0.14173	0.29086	0.11626	0.077498	0.029341	0.40008	0.43823	0.043641	0.42408	0.17856	0.31778	-2.1292	-3.0312	-2.9229	-2.8667	-3.0917	-2.9354	-3.1312	-3.0354	-2.95	-3.2042	-3.0083	-3.1688	-2.9979	-2.8312	-3.0583	-2.8708	178.365	247.456	166.601	366.486	119.357	34.989	201.395	345.177	267.137	358.518	32.996	327.522	209.982	291.862	189.216	326.043	0.0019528	0.00088786	5.4422e-05	946.1	1.2263e-05	1.0994e-05	995.45	320.08	1.6253e-05	9.1135e-06	420.06	188.83	129.47	64.159	1.1678e-05	109.19	0.0024394	0.0026924	0.00075168	946	2.7961e-05	3.0044e-05	994.15	320.07	2.8533e-05	2.9725e-05	423.77	189.46	131.03	64.69	2.786e-05	110.01	333.712	96.631	65.840	19.248	200.962	157.530	19.434	24.663	167.816	126.238	23.380	27.957	28.779	32.461	145.707	30.917	-8191	255	
840.465	1	1	0	0	0.19627	0.091381	0.097211	0.18788	0.19273	0.16326	0.15171	0.29721	0.084997	0.28821	0.39829	0.13215	0.32442	0.23806	0.19418	0.12003	-2.4396	-2.9479	-3.075	-2.9479	-2.975	-2.875	-3.1979	-2.8104	-2.7938	-3.0187	-2.8229	-3.0771	-3.225	-2.8438	-2.7917	-3.0583	10.960	87.991	111.379	357.860	146.733	214.348	316.375	308.650	200.295	360.427	334.857	319.155	14.001	9.124	108.957	276.684	0.0018392	0.0007985	0.00017213	940.89	1.5588e-05	9.5306e-06	998.08	316.95	1.4193e-05	8.2655e-06	421.14	188.16	129.63	64.172	9.9796e-06	109.06	0.0023807	0.0026173	0.00072553	941.09	2.739e-05	2.9428e-05	992.51	318.4	2.8022e-05	2.9024e-05	423.32	189.58	131.19	64.841	2.8582e-05	110.12	338.818	85.896	83.501	19.615	168.215	156.286	19.304	24.465	241.663	96.182	23.582	27.962	28.756	32.528	209.778	30.993	-8191	255	
840.561	1	1	0	0	0.16986	0.071568	0.10388	0.14568	0.19988	0.21092	0.45059	0.34399	0.17348	0.045822	0.24573	0.20748	0.028927	0.20985	0.19257	0.29023	-2.3479	-2.9083	-2.9208	-2.8896	-3.0333	-3.0187	-3.1083	-3.1229	-2.8396	-2.9125	-3.0292	-2.9479	-3.3271	-2.9229	-2.8917	-3.2792	364.741	221.094	319.782	318.704	299.924	50.703	322.237	278.560	156.844	55.264	21.855	334.367	138.166	229.291	284.710	329.084	0.0018232	0.00025688	0.00018532	938.07	1.6904e-05	9.2923e-06	999.51	317.34	1.0805e-05	1.0812e-05	422.22	189.14	129.37	63.874	8.2388e-06	109.31	0.0023703	0.00257	0.00071384	939.89	2.6988e-05	2.8977e-05	993.02	318.51	2.721e-05	2.8446e-05	424.79	189.6	130.93	64.534	2.7702e-05	109.97	332.689	113.873	144.281	19.131	175.268	165.156	19.044	24.505	164.321	142.478	23.768	27.983	28.924	32.342	198.903	31.183	-8191	255	
840.657	1	1	0	0	0.12771	0.18432	0.14928	0.16231	0.14309	0.12553	0.12438	0.18994	0.19763	0.10535	0.093558	0.13362	0.15017	0.36785	0.089253	0.10795	-2.4167	-2.9917	-3.0729	-3.0042	-3.0229	-2.7687	-2.85	-3.1958	-2.825	-2.875	-2.9604	-2.9021	-3.1417	-3.0625	-2.9354	-3.2479	342.471	53.653	189.813	78.425	7.024	334.416	317.944	320.081	199.865	338.919	15.993	339.116	235.901	360.045	297.821	251.908	0.0018786	0.00074607	0.00039361	943.62	1.6374e-05	5.0261e-06	1002.4	319.3	1.8728e-05	9.8473e-06	421.43	189.32	129.43	63.936	1.5646e-05	109.74	0.0023229	0.002513	0.00070331	943.28	2.6449e-05	2.8241e-05	996.39	319.34	2.6311e-05	2.7491e-05	424.06	189.85	130.81	64.6	2.7235e-05	110.51	337.738	138.562	77.149	19.247	143.533	153.246	19.157	24.685	188.227	156.645	23.588	28.032	28.740	32.382	166.606	30.998	-8191	255	
840.753	1	1	0	0	0.076477	0.2263	0.058804	0.28232	0.1087	0.25339	0.069566	0.16226	0.16577	0.14555	0.19622	0.22466	0.20923	0.36111	0.075296	0.19551	-2.4062	-2.9958	-2.7625	-2.9771	-2.8896	-2.8917	-3.025	-3.0854	-2.8833	-2.8937	-3.0458	-2.6854	-3.0229	-3.1458	-2.9083	-3.2583	62.446	114.797	168.715	320.424	337.177	284.757	303.145	353.140	302.694	95.521	361.129	96.484	301.591	347.309	11.084	341.481	0.0017901	0.00062355	0.00022075	946.95	1.4863e-05	1.0484e-05	1004.4	319.95	1.4775e-05	1.1551e-05	425.51	190.69	130.49	64.348	9.127e-06	110.81	0.0022806	0.0025133	0.00069081	946.26	2.6736e-05	2.7647e-05	1000.6	320.7	2.6507e-05	2.7679e-05	428.06	191.48	131.6	64.903	2.6839e-05	111.43	337.791	73.968	52.897	19.248	166.169	108.609	19.135	24.566	182.648	110.525	23.578	28.074	28.874	32.458	176.428	31.226	-8191	255	
840.850	1	1	0	0	0.17806	0.11849	0.075299	0.14046	0.22626	0.23263	0.1152	0.19	0.021502	0.1096	0.15992	0.13042	0.096939	0.059219	0.14958	0.26197	-2.55	-2.7625	-3.0771	-2.9458	-2.8792	-2.95	-2.8646	-3.2333	-2.8646	-3.0333	-3.2062	-3.0479	-3.1625	-3.0354	-2.6896	-3.2188	165.767	120.020	120.896	334.432	65.889	80.460	287.946	13.091	124.323	79.697	294.044	28.669	130.208	275.536	280.148	315.707	0.0019113	0.00096588	0.00031138	948.26	1.391e-05	8.3502e-06	1008.4	319.9	7.2396e-06	5.8489e-06	425.03	190.73	130.32	64.216	4.2907e-06	110.05	0.0022474	0.0024796	0.00067014	948.71	2.5658e-05	2.7218e-05	1004.3	320.67	2.5948e-05	2.7438e-05	427.18	191.05	131.21	64.741	2.6739e-05	110.76	330.696	93.151	117.043	19.106	168.493	176.751	19.279	24.570	190.099	164.968	23.902	28.080	29.043	32.410	131.786	31.235	-8191	255	
840.946	1	1	0	0	0.16167	0.17343	0.13312	0.18759	0.21639	0.28999	0.17254	0.11148	0.11367	0.14778	0.067303	0.14679	0.040132	0.37834	0.13228	0.20076	-2.2083	-2.9167	-3.0292	-2.7812	-2.9646	-2.9333	-2.8563	-3.0938	-3.0458	-2.8979	-3.1521	-2.7562	-3.0854	-3.1833	-2.8333	-3.2812	201.006	70.571	221.528	346.555	136.518	293.937	327.263	258.146	60.871	335.818	68.266	297.853	300.800	267.771	281.606	341.493	0.001905	0.0010795	0.0002635	945.6	8.4068e-06	9.813e-06	1002.4	317.23	1.7829e-05	8.9435e-06	421.31	188.89	128.85	63.511	6.2012e-06	108.67	0.0022174	0.0024732	0.00068657	942.82	2.557e-05	2.7206e-05	996.41	318.42	2.5753e-05	2.6952e-05	423.58	189.04	129.96	64.09	2.6305e-05	109.14	335.604	90.091	111.989	19.373	153.838	118.461	18.783	24.443	166.686	136.762	23.667	27.927	28.871	32.691	183.586	31.109	-8191	255	
841.065	1	1	0	0	0.10913	0.21079	0.1138	0.23713	0.16661	0.08775	0.23555	0.19894	0.18531	0.16658	0.11087	0.30355	0.066754	0.21836	0.10079	0.098886	-2.5812	-2.7146	-3.0604	-2.8063	-3.0729	-3.0396	-2.8979	-3.1375	-2.8854	-2.8875	-3.0979	-2.9042	-3.0812	-3.1104	-2.6354	-3.2229	189.941	250.833	277.846	297.191	225.446	78.235	303.278	296.753	36.198	294.442	333.263	273.832	69.962	319.456	199.406	30.165	0.0018833	0.00037579	0.00028531	938.28	1.2262e-05	1.0451e-05	994.06	315.82	1.4645e-05	6.0791e-06	419.19	188.19	129.17	63.433	9.7479e-06	108.25	0.0022097	0.0024154	0.00066994	937.78	2.5496e-05	2.7114e-05	989.84	316.91	2.5431e-05	2.69e-05	421.25	188.51	130.15	64.004	2.6812e-05	108.97	338.256	73.759	92.568	19.170	164.104	165.216	19.312	24.476	164.160	175.150	23.380	27.940	28.632	32.580	166.787	30.954	-8191	255	
841.161	1	1	0	0	0.12686	0.21562	0.15429	0.089584	0.15899	0.1819	0.24902	0.41697	0.2482	0.2273	0.28942	0.15736	0.04963	0.22293	0.097499	0.11615	-2.4729	-2.7125	-3.0729	-2.9437	-2.9417	-3.1271	-2.8396	-2.9479	-2.95	-2.6354	-3.2292	-2.8667	-3.0125	-3.0604	-2.8125	-3.0375	202.161	238.745	46.863	231.049	128.739	105.995	219.125	324.019	142.956	341.856	318.870	294.746	305.815	36.813	207.618	233.021	0.0018998	0.000814	0.00034101	940.43	1.429e-05	1.1268e-05	994.98	316.59	1.6894e-05	9.5838e-06	421.31	187.5	128.65	63.538	5.2136e-06	108.67	0.0021929	0.0024443	0.00067779	937.79	2.5582e-05	2.6948e-05	988.96	316.9	2.5177e-05	2.6945e-05	422.05	188.4	129.91	64.085	2.629e-05	109.42	334.407	83.086	84.611	19.251	207.518	134.613	19.288	24.845	175.710	153.914	23.876	27.999	28.784	32.537	151.768	31.044	-8191	255	
841.257	1	1	0	0	0.11665	0.15915	0.046414	0.049367	0.06815	0.18265	0.21454	0.13343	0.2052	0.34474	0.29619	0.31096	0.2232	0.40437	0.19136	0.30724	-2.4792	-2.7104	-2.9458	-3.0583	-2.7938	-3.125	-2.9854	-2.9708	-2.8854	-2.7771	-3.0625	-3.1542	-2.9062	-3.2021	-2.8708	-3.0375	173.047	183.757	274.461	156.052	130.375	336.332	293.998	321.613	101.306	193.319	298.629	356.490	334.551	323.000	35.478	288.038	0.0020021	0.0009099	0.00014627	939.96	1.095e-05	4.9956e-06	998.8	318.82	1.1113e-05	4.6877e-06	421.68	190.12	129.09	64.043	9.8556e-06	109.73	0.0021959	0.0024348	0.00068103	939.26	2.5785e-05	2.6747e-05	993.18	318.51	2.504e-05	2.7331e-05	424.61	190.47	130.6	64.723	2.6164e-05	110.53	339.886	90.277	124.282	19.353	177.122	215.751	19.200	24.378	169.468	166.614	23.526	27.919	28.804	32.612	149.145	31.040	-8191	255	
