BOXY.EXE: ISS Imagent and Oximeter Data Acquisition Program Version 0.80
Ascii Record File

#ACQ INFORMATION
2  Detector Channels 
16  External MUX Channels 
1  Auxiliary Channels 
5000  Waveform (CCF) Frequency (Hz)
1  Waveforms Skipped 
30  Waveforms Averaged 
1  Cycles Averaged 
16  Acquisitions per Waveform 
10.0806  Updata Rate (Hz) 

#FILE INFORMATION
TRUE -- External MUX Channel results are PARSED.
FALSE -- AC DC and Phase are NOT grouped.
TRUE -- Companion Program Settings File CREATED.
FALSE -- AC data not excluded
FALSE -- DC data not excluded
FALSE -- Phase data not excluded
FALSE -- Auxillary Chn. data not excluded
Tab delimiters

#CALIBRATION STATE
TRUE -- Waveform Calibration Values APPLIED.


#AUX CALIBRATION VALUES
Val Type	aux-1	

Term	1.0000e+00	
Factor	0.0000e+00	


#WF CALIBRATION VALUES
A = Detector Channel
Val Type	A-AC1	A-AC2	A-AC3	A-AC4	A-AC5	A-AC6	A-AC7	A-AC8	A-AC9	A-AC10	A-AC11	A-AC12	A-AC13	A-AC14	A-AC15	A-AC16	A-DC1	A-DC2	A-DC3	A-DC4	A-DC5	A-DC6	A-DC7	A-DC8	A-DC9	A-DC10	A-DC11	A-DC12	A-DC13	A-DC14	A-DC15	A-DC16	A-Ph1	A-Ph2	A-Ph3	A-Ph4	A-Ph5	A-Ph6	A-Ph7	A-Ph8	A-Ph9	A-Ph10	A-Ph11	A-Ph12	A-Ph13	A-Ph14	A-Ph15	A-Ph16	

Term	0.00000e+00	0.00000e+00	0.00000e+00	0.00000e+00	0.00000e+00	0.00000e+00	0.00000e+00	0.00000e+00	0.00000e+00	0.00000e+00	0.00000e+00	0.00000e+00	0.00000e+00	0.00000e+00	0.00000e+00	0.00000e+00	0.00000e+00	0.00000e+00	0.00000e+00	0.00000e+00	0.00000e+00	0.00000e+00	0.00000e+00	0.00000e+00	0.00000e+00	0.00000e+00	0.00000e+00	0.00000e+00	0.00000e+00	0.00000e+00	0.00000e+00	0.00000e+00	0.00000e+00	0.00000e+00	0.00000e+00	0.00000e+00	0.00000e+00	0.00000e+00	0.00000e+00	0.00000e+00	0.00000e+00	0.00000e+00	0.00000e+00	0.00000e+00	0.00000e+00	0.00000e+00	0.00000e+00	0.00000e+00	
Factor	1.00000e+00	1.00000e+00	1.00000e+00	1.00000e+00	1.00000e+00	1.00000e+00	1.00000e+00	1.00000e+00	1.00000e+00	1.00000e+00	1.00000e+00	1.00000e+00	1.00000e+00	1.00000e+00	1.00000e+00	1.00000e+00	1.00000e+00	1.00000e+00	1.00000e+00	1.00000e+00	1.00000e+00	1.00000e+00	1.00000e+00	1.00000e+00	1.00000e+00	1.00000e+00	1.00000e+00	1.00000e+00	1.00000e+00	1.00000e+00	1.00000e+00	1.00000e+00	X	X	X	X	X	X	X	X	X	X	X	X	X	X	X	X	

B = Detector Channel
Val Type	B-AC1	B-AC2	B-AC3	B-AC4	B-AC5	B-AC6	B-AC7	B-AC8	B-AC9	B-AC10	B-AC11	B-AC12	B-AC13	B-AC14	B-AC15	B-AC16	B-DC1	B-DC2	B-DC3	B-DC4	B-DC5	B-DC6	B-DC7	B-DC8	B-DC9	B-DC10	B-DC11	B-DC12	B-DC13	B-DC14	B-DC15	B-DC16	B-Ph1	B-Ph2	B-Ph3	B-Ph4	B-Ph5	B-Ph6	B-Ph7	B-Ph8	B-Ph9	B-Ph10	B-Ph11	B-Ph12	B-Ph13	B-Ph14	B-Ph15	B-Ph16	

Term	0.00000e+00	0.00000e+00	0.00000e+00	0.00000e+00	0.00000e+00	0.00000e+00	0.00000e+00	0.00000e+00	0.00000e+00	0.00000e+00	0.00000e+00	0.00000e+00	0.00000e+00	0.00000e+00	0.00000e+00	0.00000e+00	0.00000e+00	0.00000e+00	0.00000e+00	0.00000e+00	0.00000e+00	0.00000e+00	0.00000e+00	0.00000e+00	0.00000e+00	0.00000e+00	0.00000e+00	0.00000e+00	0.00000e+00	0.00000e+00	0.00000e+00	0.00000e+00	-2.12444e+02	-1.41062e+02	-1.70892e+02	-1.83732e+02	-1.12109e+02	-1.05118e+02	-1.55012e+02	-1.62015e+02	-9.09407e+01	-9.85453e+01	-1.70533e+02	-1.70350e+02	-1.84933e+02	-1.77024e+02	-9.26801e+01	-1.49740e+02	
Factor	3.86930e-05	3.87587e-05	1.11420e-05	1.84525e-01	4.76322e-07	4.00243e-07	1.77227e-01	5.92448e-02	4.03067e-07	4.33660e-07	9.47737e-02	3.35258e-02	3.39684e-02	1.07113e-02	3.85728e-07	1.51601e-02	1.41076e-07	1.41361e-07	3.93248e-08	7.31989e-02	1.55024e-09	1.55026e-09	6.73368e-02	2.26348e-02	1.55356e-09	1.55040e-09	3.24457e-02	1.12648e-02	1.11019e-02	3.63347e-03	1.55221e-09	4.80811e-03	X	X	X	X	X	X	X	X	X	X	X	X	X	X	X	X	



#DISTANCE SETTINGS
A = Detector Channel
A-1	A-2	A-3	A-4	A-5	A-6	A-7	A-8	A-9	A-10	A-11	A-12	A-13	A-14	A-15	A-16	

2.5000e+00	3.0000e+00	2.5000e+00	3.0000e+00	2.0000e+00	3.0000e+00	1.5000e+00	3.0000e+00	3.0000e+00	3.0000e+00	3.0000e+00	3.0000e+00	3.0000e+00	3.0000e+00	1.5000e+00	3.0000e+00	

B = Detector Channel
B-1	B-2	B-3	B-4	B-5	B-6	B-7	B-8	B-9	B-10	B-11	B-12	B-13	B-14	B-15	B-16	

1.0000e+01	1.0000e+01	1.0000e+01	1.4400e+00	1.0000e+01	1.0000e+01	1.5100e+00	1.9400e+00	1.0000e+01	1.0000e+01	1.9900e+00	2.4900e+00	2.4100e+00	2.9000e+00	1.0000e+01	2.9800e+00	




#DATA BEGINS
time	group	step	mark	flag	A-AC1	A-AC2	A-AC3	A-AC4	A-AC5	A-AC6	A-AC7	A-AC8	A-AC9	A-AC10	A-AC11	A-AC12	A-AC13	A-AC14	A-AC15	A-AC16	A-DC1	A-DC2	A-DC3	A-DC4	A-DC5	A-DC6	A-DC7	A-DC8	A-DC9	A-DC10	A-DC11	A-DC12	A-DC13	A-DC14	A-DC15	A-DC16	A-Ph1	A-Ph2	A-Ph3	A-Ph4	A-Ph5	A-Ph6	A-Ph7	A-Ph8	A-Ph9	A-Ph10	A-Ph11	A-Ph12	A-Ph13	A-Ph14	A-Ph15	A-Ph16	B-AC1	B-AC2	B-AC3	B-AC4	B-AC5	B-AC6	B-AC7	B-AC8	B-AC9	B-AC10	B-AC11	B-AC12	B-AC13	B-AC14	B-AC15	B-AC16	B-DC1	B-DC2	B-DC3	B-DC4	B-DC5	B-DC6	B-DC7	B-DC8	B-DC9	B-DC10	B-DC11	B-DC12	B-DC13	B-DC14	B-DC15	B-DC16	B-Ph1	B-Ph2	B-Ph3	B-Ph4	B-Ph5	B-Ph6	B-Ph7	B-Ph8	B-Ph9	B-Ph10	B-Ph11	B-Ph12	B-Ph13	B-Ph14	B-Ph15	B-Ph16	aux-1	digaux	

3158.462	1	1	0	256	0.079643	0.30276	0.13012	0.24956	0.20793	0.17168	0.15214	0.27229	0.14733	0.13174	0.27651	0.22655	0.05406	0.2701	0.11961	0.10733	-3.8771	-3.7104	-3.6688	-4.2042	-3.6021	-3.9104	-3.9875	-3.4708	-4.1333	-3.6979	-3.8667	-4.3125	-3.6937	-3.9479	-4.0437	-3.7292	121.405	274.560	431.305	298.721	280.268	116.838	98.567	354.017	234.456	331.659	376.647	360.622	85.555	420.662	216.003	379.008	0.0015845	0.00039679	8.8941e-05	598.12	4.385e-06	3.2469e-06	668.89	227.45	4.9532e-06	4.2724e-06	289.13	133.63	99.002	50.976	4.8518e-07	71.96	0.00030811	0.00035235	9.0215e-05	614.01	3.0613e-06	3.5494e-06	668.65	212.59	2.934e-06	3.4114e-06	263.64	111.47	84.69	42.317	3.2811e-06	55.866	80.519	147.220	303.773	91.758	194.086	179.146	90.244	96.702	197.769	143.377	95.009	98.743	100.687	104.654	377.724	101.773	-8191	255	
3158.558	1	1	0	0	0.10729	0.19977	0.17604	0.078545	0.15954	0.22483	0.22823	0.057722	0.28455	0.12344	0.39566	0.23651	0.13134	0.092456	0.14985	0.053324	-3.7583	-3.7938	-3.6042	-4.1479	-3.7583	-3.8208	-4.2271	-3.7	-4.0646	-4.0375	-3.6646	-4.0729	-3.6667	-3.9292	-4.1417	-3.6188	401.597	381.020	352.671	167.151	122.023	213.021	377.854	359.250	220.476	89.738	386.087	261.609	396.314	132.736	410.373	409.552	0.0014465	6.014e-05	5.3985e-05	598.79	1.2186e-05	2.4181e-06	675.53	228.4	9.9105e-06	5.6241e-06	292.84	136.58	101	52.12	1.6143e-06	74.214	0.0003242	0.00037839	9.6767e-05	631.83	3.7488e-06	3.9655e-06	682.92	216.95	3.4029e-06	3.4946e-06	266.09	112.98	87.089	42.425	2.9453e-06	55.874	85.965	375.033	178.812	92.100	165.098	93.463	90.276	96.752	207.852	284.027	94.644	98.789	100.732	104.703	420.497	101.723	-8191	255	
3158.654	1	1	0	0	0.13331	0.1633	0.12139	0.15594	0.19783	0.16238	0.071759	0.12787	0.062966	0.11684	0.36935	0.21057	0.064578	0.1677	0.14686	0.16542	-3.6521	-3.9667	-3.4333	-4.2604	-3.7313	-3.6167	-4.2083	-3.6167	-3.9667	-3.9062	-3.6437	-4.175	-3.8958	-3.9062	-4.0521	-3.6833	288.675	198.604	323.117	148.982	150.543	386.815	378.017	286.973	384.977	202.490	396.333	92.952	115.253	306.931	350.621	404.798	0.0015351	0.00064472	3.1706e-05	603.84	5.4923e-06	3.4979e-06	677.65	232.7	3.5607e-06	6.0842e-06	293	137.9	100.83	52.597	2.6702e-06	74.969	0.00029987	0.00029971	7.622e-05	602.61	3.4825e-06	3.4496e-06	673.01	218.62	3.7234e-06	3.5407e-06	269.96	116	90.518	42.748	2.9784e-06	57.081	85.200	268.714	337.603	92.028	172.916	385.623	90.443	96.959	141.179	373.160	94.656	98.944	100.788	104.901	128.066	101.690	-8191	255	
3158.750	1	1	0	0	0.24018	0.11517	0.093304	0.31609	0.16961	0.25447	0.27226	0.23897	0.086436	0.22273	0.11064	0.10484	0.23913	0.23363	0.060108	0.13739	-3.7292	-3.8167	-3.4208	-4.2646	-3.7667	-3.7708	-4.2438	-3.7833	-3.8396	-4.0479	-3.6875	-4.0271	-3.9688	-3.7188	-4.0687	-3.8812	304.844	177.790	276.802	384.447	175.028	152.348	364.708	433.334	354.558	136.554	412.938	416.450	81.424	337.175	345.675	248.957	0.0014893	9.7388e-05	6.1276e-05	605.66	3.9746e-06	3.523e-06	683.58	235.66	1.2294e-06	2.311e-06	296.54	140.52	102.27	53.185	1.3553e-06	75.368	0.0003112	0.00027523	6.9257e-05	598.92	3.16e-06	2.8333e-06	651.92	216.38	3.151e-06	2.8751e-06	261.32	116.71	89.529	42.574	2.8872e-06	58.441	92.368	286.607	298.028	92.036	244.493	261.380	90.754	96.940	196.219	367.689	94.669	98.854	100.877	104.723	413.866	101.718	-8191	255	
3158.846	1	1	0	0	0.19174	0.10329	0.14624	0.10173	0.088464	0.062963	0.16229	0.20369	0.26332	0.096047	0.24426	0.24644	0.2567	0.12481	0.17967	0.36759	-3.6417	-4.1062	-3.6854	-4.0667	-3.85	-3.6417	-4.2667	-3.825	-3.7896	-4.1292	-3.7417	-4.1729	-3.9083	-3.8083	-4.0917	-3.7458	395.600	209.166	103.343	298.731	142.452	320.898	325.495	341.841	134.253	80.363	400.724	346.862	357.000	349.255	210.300	388.293	0.0010282	0.0005336	8.7288e-05	610.9	2.1431e-06	3.0455e-06	693.81	237.46	2.2015e-06	2.2026e-06	302.58	141.31	103.04	53.47	5.1094e-06	75.854	0.00032388	0.00028939	7.4269e-05	629.02	3.3582e-06	2.9741e-06	664.67	224.04	3.1435e-06	2.8209e-06	262.46	118.5	87.739	42.102	2.6436e-06	58.301	112.670	322.350	164.041	91.735	382.345	351.340	90.290	96.826	146.602	249.656	94.978	98.616	100.812	104.630	246.105	101.797	-8191	255	
3158.943	1	1	0	0	0.28792	0.30883	0.17657	0.26254	0.22285	0.20751	0.15312	0.082148	0.25867	0.14973	0.059808	0.12828	0.24554	0.11563	0.14458	0.066268	-3.3875	-4.0583	-3.5542	-3.8604	-3.9708	-3.6896	-4.1896	-3.9125	-3.7958	-4.2146	-3.8354	-3.9083	-4.2021	-3.725	-4.0375	-3.9833	289.905	396.625	341.398	432.889	398.758	404.606	357.008	359.888	312.920	290.960	139.659	381.419	215.459	375.124	138.472	179.453	0.00092622	0.00047311	0.00011446	622.38	1.8057e-06	3.2015e-06	696.49	236.41	5.629e-06	1.8623e-06	299.05	140.85	103.03	53.39	3.856e-06	75.608	0.00027757	0.00025203	6.9401e-05	633.61	3.109e-06	2.9166e-06	676.26	228.68	3.1726e-06	2.8739e-06	267.11	119.26	86.856	41.774	2.7691e-06	58.206	101.585	302.997	143.517	91.782	296.244	400.770	90.348	96.881	382.665	224.937	94.997	98.820	100.998	104.575	141.898	101.818	-8191	255	
3159.039	1	1	0	0	0.10388	0.06071	0.19925	0.12311	0.011333	0.058084	0.15275	0.080219	0.32072	0.12325	0.24907	0.090193	0.25999	0.073635	0.25719	0.14615	-3.3354	-4.0062	-3.6708	-3.8771	-4.1479	-3.575	-4.1813	-3.8083	-3.625	-4.2833	-3.6958	-3.9208	-4.1729	-3.6833	-4.1646	-4.0437	191.208	132.155	153.219	364.181	85.615	202.822	337.440	400.082	356.137	129.369	136.085	141.618	225.310	426.441	334.919	398.764	0.0011107	0.00034046	0.00022932	615.57	2.5649e-06	2.4687e-06	698.3	238.01	2.9442e-06	3.9814e-06	301.93	140.05	103.39	53.186	4.2256e-06	75.335	0.00025999	0.0002371	7.2559e-05	627.93	2.8794e-06	2.6833e-06	680.92	226.74	3.0236e-06	2.8534e-06	277.19	120.88	89.035	42.347	3.3762e-06	58.676	85.972	216.142	139.654	91.955	155.916	318.632	90.836	96.724	161.304	364.509	94.793	98.788	100.816	104.827	203.547	101.791	-8191	255	
3159.158	1	1	0	0	0.042765	0.066976	0.075063	0.21415	0.18176	0.078927	0.028258	0.16114	0.097472	0.16145	0.11402	0.16034	0.15013	0.010852	0.19669	0.050363	-3.2542	-4.0917	-3.6771	-3.9062	-3.9375	-3.6104	-4.0604	-4.025	-3.75	-4.1708	-3.7083	-3.8125	-4.1104	-3.8812	-3.8792	-4.1042	153.681	408.359	424.627	366.235	201.269	418.465	140.449	306.814	176.112	237.270	140.375	367.258	195.837	407.703	317.236	113.160	0.0011977	0.00024595	0.0001088	615.52	3.2987e-06	5.7826e-06	696.89	238.45	1.7159e-06	4.9769e-06	301.49	142.05	103.71	53.786	2.5316e-06	75.677	0.00027664	0.00025493	8.2704e-05	627.89	2.8282e-06	2.6792e-06	686.26	223.3	2.7722e-06	2.7328e-06	277.46	118.96	87.047	42.499	3.5124e-06	58.622	90.093	140.345	96.258	91.764	272.888	208.233	90.709	96.771	278.634	201.350	94.849	98.700	100.650	104.833	234.705	101.681	-8191	255	
3159.254	1	1	0	0	0.27286	0.097388	0.21565	0.078402	0.10625	0.049467	0.067208	0.24412	0.21798	0.060265	0.18885	0.13112	0.059829	0.095536	0.21777	0.26019	-3.35	-3.9188	-3.7354	-3.8729	-4.1312	-3.6625	-3.9646	-4.1625	-3.5062	-4.2438	-3.8271	-3.6	-4.1896	-3.7833	-3.8812	-4.2458	117.628	269.585	127.824	257.711	399.312	322.056	305.941	192.256	171.631	362.042	438.589	355.464	363.749	157.930	257.585	386.370	0.00081755	0.0006225	8.1094e-05	616.62	3.8194e-06	7.2612e-06	699.93	240.24	1.5484e-06	5.472e-06	307.5	144.67	106.69	55.153	4.4147e-06	77.716	0.00028318	0.00028669	9.1029e-05	629.02	2.8132e-06	2.8522e-06	691.01	220.78	2.4682e-06	2.6067e-06	271.12	116.19	84.01	42.398	2.6802e-06	57.143	90.555	143.780	151.079	91.656	289.850	153.073	90.455	96.578	370.569	183.564	94.903	99.094	100.830	104.601	341.858	101.480	-8191	255	
3159.325	1	1	0	0	0.048257	0.14105	0.25437	0.20637	0.041188	0.10546	0.19416	0.15482	0.2084	0.084376	0.13984	0.21222	0.11531	0.03705	0.10786	0.16441	-3.2958	-3.9667	-3.7354	-3.9062	-4.05	-3.6542	-3.9688	-4.0479	-3.6292	-3.9896	-3.9333	-3.8729	-4.1792	-3.8625	-3.6917	-4.15	422.834	310.940	254.605	359.975	237.337	102.741	368.628	350.975	89.091	410.163	198.530	390.004	285.769	366.661	221.236	356.894	0.001224	0.00045571	3.7672e-05	621.1	2.3747e-06	3.2406e-06	699.09	239.29	1.7093e-06	5.5399e-06	300.59	140.9	103.54	53.41	3.1e-06	75.404	0.00021121	0.00024365	7.3102e-05	607.5	2.5579e-06	3.0528e-06	692.9	223.83	2.9164e-06	3.546e-06	282.77	118.93	87.601	43.747	3.2543e-06	57.35	91.149	131.768	146.594	91.761	214.051	195.170	90.429	96.761	179.846	197.146	94.929	98.892	100.776	105.007	402.428	101.678	-8191	255	
3159.446	1	1	0	0	0.070226	0.20768	0.17987	0.14131	0.061654	0.027	0.16313	0.25736	0.12606	0.073398	0.078415	0.063841	0.19146	0.38367	0.053464	0.40603	-3.1271	-3.9688	-3.9604	-3.5708	-4.0833	-3.5854	-3.8458	-4.0437	-3.6	-3.9396	-4.1062	-3.7625	-4.1687	-3.825	-3.6375	-4.1854	202.107	84.607	146.902	94.451	181.709	265.308	128.780	388.317	217.281	225.193	358.024	270.000	433.251	393.305	438.944	406.938	0.0013807	0.00044175	0.00013241	622.97	2.3192e-06	4.8222e-06	700.34	240.31	7.2007e-06	4.3129e-06	298.99	140.6	104.05	52.805	2.0075e-06	74.161	0.00025107	0.00029049	7.4628e-05	607.56	2.6366e-06	3.1306e-06	678.58	219.34	2.7952e-06	3.3623e-06	273.4	116.93	88.882	44.052	3.4329e-06	57.594	438.515	196.294	306.316	91.995	207.332	136.124	90.576	96.989	202.028	190.466	94.968	98.880	100.633	104.770	394.401	102.000	-8191	255	
3159.542	1	1	0	0	0.12101	0.12263	0.16069	0.132	0.14538	0.39799	0.22784	0.30703	0.13471	0.09382	0.28482	0.20097	0.15912	0.21611	0.25591	0.0704	-3.3646	-3.7812	-4.0333	-3.5604	-4.0062	-3.85	-3.6583	-4.1083	-3.6562	-3.8708	-4.2625	-3.6479	-4.0417	-3.9813	-3.7188	-4.2542	282.144	245.717	404.666	371.518	318.995	131.798	83.463	429.948	250.193	229.011	428.427	98.404	384.810	85.095	309.684	370.703	0.0013902	0.00040956	0.00010843	618.72	1.0314e-05	2.7817e-06	696.38	238.33	9.5357e-06	5.2842e-07	302.74	142.56	105.56	53.671	1.5472e-06	76.379	0.00032167	0.00036174	8.9539e-05	632.81	3.4779e-06	3.7228e-06	690.73	221.26	3.2085e-06	3.3152e-06	270.93	116.07	89.227	43.418	2.8732e-06	57.14	436.389	201.198	303.019	91.672	188.750	327.754	90.524	96.628	199.809	333.610	94.921	98.700	100.886	104.787	232.500	101.718	-8191	255	
3159.638	1	1	0	0	0.20833	0.2678	0.16676	0.077578	0.16342	0.11714	0.22434	0.30874	0.090456	0.10198	0.28914	0.090759	0.11072	0.19095	0.25836	0.17998	-3.4875	-3.7125	-4.0229	-3.4896	-3.9354	-3.9958	-3.6521	-4.2354	-3.8604	-3.6333	-4.1583	-3.7125	-4.0375	-4.0333	-3.4813	-4.1167	183.313	223.319	334.440	128.220	354.605	294.228	430.726	336.471	319.149	352.217	93.074	121.237	81.461	394.681	114.152	390.903	0.0018128	0.00014513	8.9352e-05	619.24	9.6025e-06	1.7608e-06	699.68	240.06	3.308e-06	3.1841e-06	304.17	143.68	105.72	54.486	5.0363e-07	77.734	0.00029263	0.00029317	7.441e-05	612.29	3.3736e-06	3.3084e-06	683.66	222.37	3.4599e-06	3.2253e-06	271.1	117.6	90.64	43.223	2.6797e-06	57.849	86.593	250.566	360.209	91.995	179.918	120.782	90.404	96.920	273.115	344.079	94.980	98.828	100.880	104.708	393.798	102.011	-8191	255	
3159.759	1	1	0	0	0.13235	0.14935	0.17952	0.47864	0.16138	0.16757	0.23915	0.12904	0.026398	0.11283	0.037911	0.32206	0.1383	0.39777	0.087732	0.28162	-3.5438	-3.6625	-3.8854	-3.6417	-3.8479	-3.8667	-3.6521	-4.1542	-3.7021	-3.6458	-4.0625	-3.8625	-3.9146	-4.0521	-3.5417	-3.9938	93.860	333.898	93.531	382.234	247.625	233.739	412.052	389.286	199.003	431.750	336.741	388.929	153.300	82.608	143.085	414.016	0.0012027	0.0002278	1.6367e-05	617.83	2.8109e-06	2.3774e-06	702.27	242.56	2.0003e-06	4.0604e-06	304.06	144.14	105.3	53.501	2.1455e-06	76.102	0.00028613	0.00025626	6.5732e-05	606.17	3.1294e-06	2.8591e-06	668.56	223.45	3.3391e-06	3.0448e-06	270.32	120.49	92.913	43.515	3.0541e-06	59.292	82.310	382.379	206.964	91.875	437.799	370.780	90.175	97.146	352.615	409.930	94.620	98.783	100.641	104.785	198.278	101.779	-8191	255	
3159.855	1	1	0	0	0.091293	0.21909	0.13428	0.13877	0.085419	0.20329	0.16352	0.23079	0.13547	0.12274	0.042758	0.15955	0.20361	0.26679	0.31684	0.18785	-3.6	-3.7542	-4.1792	-3.7333	-3.8708	-4.1875	-3.7354	-3.9771	-3.9396	-3.4938	-4.1625	-3.9583	-3.8833	-4.0188	-3.4875	-4.1	170.787	164.581	300.592	358.700	90.328	426.640	83.017	426.538	206.045	209.694	132.407	414.821	422.029	402.246	396.422	335.070	0.0011493	0.00013244	4.5982e-05	620.79	6.5251e-06	1.7698e-06	701.62	240.95	2.4457e-06	2.7905e-06	301.54	141.82	103.56	53.077	3.8643e-06	74.628	0.00033066	0.0002893	7.4311e-05	638.96	3.4203e-06	3.0669e-06	675.52	228.98	3.3868e-06	3.0709e-06	270.66	121.77	91.447	43.204	3.2304e-06	60.282	430.221	400.698	182.631	91.763	381.382	332.349	90.346	96.585	380.556	106.963	94.987	99.176	100.955	104.834	197.926	101.680	-8191	255	
3159.927	1	1	0	0	0.065606	0.17724	0.10337	0.15577	0.15254	0.2511	0.093878	0.095642	0.32719	0.32067	0.10581	0.26733	0.18375	0.19081	0.11744	0.23336	-3.5771	-3.6188	-4.1333	-3.8229	-3.5667	-4.1958	-3.7854	-4.0708	-3.9271	-3.6958	-4.1562	-3.8771	-3.8292	-4.1375	-3.5646	-3.9688	317.804	324.207	282.146	385.329	135.251	104.732	163.236	350.099	400.146	373.899	292.165	120.474	383.996	80.650	157.528	402.678	0.00037487	0.00034581	0.0001008	619.45	5.0556e-06	8.5315e-07	688.7	236.18	3.743e-06	3.4717e-08	297.43	138.91	102.49	52.532	1.0007e-05	73.807	0.00036315	0.00034091	9.6262e-05	697.88	4.4938e-06	4.2155e-06	729.36	249.9	4.5529e-06	4.0947e-06	292.02	128.57	95.232	43.892	3.9469e-06	61.349	134.076	404.588	136.410	91.865	322.140	335.120	90.347	96.840	301.140	202.021	95.032	98.665	100.980	104.773	185.015	101.690	-8191	255	
3160.047	1	1	0	0	0.066856	0.1291	0.10533	0.051282	0.111	0.15207	0.12243	0.15702	0.094071	0.16284	0.11636	0.013041	0.092886	0.13382	0.21284	0.23004	-3.5479	-3.5625	-3.8354	-4.0125	-3.7667	-4.1479	-3.8896	-3.8708	-3.9833	-3.4625	-4.1479	-4.0354	-3.6458	-4.1021	-3.575	-4.0563	374.806	341.441	152.612	395.354	216.239	347.534	126.445	405.523	222.293	159.438	334.828	339.528	123.262	383.302	181.458	326.388	0.001033	0.00051909	0.00029123	616.78	4.3054e-06	9.585e-07	693.81	233.97	2.1225e-06	3.722e-06	294.78	136.56	100.68	51.448	3.4573e-06	72.957	0.00036848	0.00034109	0.00010499	701.32	4.2946e-06	4.1034e-06	751.34	252.43	4.8559e-06	4.5792e-06	316.58	134.49	100.93	45.529	5.4594e-06	63.973	107.527	301.485	116.629	91.456	350.185	200.030	90.647	96.497	418.560	384.304	94.807	98.687	100.693	104.697	205.712	101.664	-8191	255	
3160.142	1	1	0	0	0.15568	0.044882	0.17061	0.19577	0.1359	0.15897	0.11808	0.066602	0.19909	0.21665	0.20752	0.080443	0.23055	0.2237	0.13941	0.25005	-3.6125	-3.5667	-3.9854	-3.9104	-3.7521	-4.0083	-3.8438	-3.9188	-4.0833	-3.7521	-3.9771	-4.0312	-3.6937	-4.1438	-3.8417	-3.8646	166.288	141.005	285.323	102.899	257.739	232.154	352.580	415.294	389.265	81.788	428.430	126.789	415.093	400.776	432.238	431.458	0.0012053	0.00074151	0.00020328	612.84	1.1145e-06	3.6907e-06	689.49	232.1	4.2289e-06	5.0941e-06	296.26	136.79	100.97	52.219	4.9493e-06	73.397	0.00045152	0.000416	0.00013476	723.33	4.6643e-06	4.4507e-06	773.13	249.28	4.6133e-06	4.4612e-06	316.53	130.04	97.806	45.635	5.6057e-06	63.562	81.286	103.722	117.910	91.772	257.961	189.917	90.563	96.809	188.925	148.264	94.881	98.917	101.108	104.668	174.800	101.535	-8191	255	
