BOXY.EXE: ISS Imagent and Oximeter Data Acquisition Program Version 0.80
Ascii Record File

#ACQ INFORMATION
2  Detector Channels 
16  External MUX Channels 
1  Auxiliary Channels 
5000  Waveform (CCF) Frequency (Hz)
1  Waveforms Skipped 
30  Waveforms Averaged 
1  Cycles Averaged 
16  Acquisitions per Waveform 
10.0806  Updata Rate (Hz) 

#FILE INFORMATION
TRUE -- External MUX Channel results are PARSED.
FALSE -- AC DC and Phase are NOT grouped.
TRUE -- Companion Program Settings File CREATED.
FALSE -- AC data not excluded
FALSE -- DC data not excluded
FALSE -- Phase data not excluded
FALSE -- Auxillary Chn. data not excluded
Tab delimiters

#CALIBRATION STATE
TRUE -- Waveform Calibration Values APPLIED.


#AUX CALIBRATION VALUES
Val Type	aux-1	

Term	1.0000e+00	
Factor	0.0000e+00	


#WF CALIBRATION VALUES
A = Detector Channel
Val Type	A-AC1	A-AC2	A-AC3	A-AC4	A-AC5	A-AC6	A-AC7	A-AC8	A-AC9	A-AC10	A-AC11	A-AC12	A-AC13	A-AC14	A-AC15	A-AC16	A-DC1	A-DC2	A-DC3	A-DC4	A-DC5	A-DC6	A-DC7	A-DC8	A-DC9	A-DC10	A-DC11	A-DC12	A-DC13	A-DC14	A-DC15	A-DC16	A-Ph1	A-Ph2	A-Ph3	A-Ph4	A-Ph5	A-Ph6	A-Ph7	A-Ph8	A-Ph9	A-Ph10	A-Ph11	A-Ph12	A-Ph13	A-Ph14	A-Ph15	A-Ph16	

Term	0.00000e+00	0.00000e+00	0.00000e+00	0.00000e+00	0.00000e+00	0.00000e+00	0.00000e+00	0.00000e+00	0.00000e+00	0.00000e+00	0.00000e+00	0.00000e+00	0.00000e+00	0.00000e+00	0.00000e+00	0.00000e+00	0.00000e+00	0.00000e+00	0.00000e+00	0.00000e+00	0.00000e+00	0.00000e+00	0.00000e+00	0.00000e+00	0.00000e+00	0.00000e+00	0.00000e+00	0.00000e+00	0.00000e+00	0.00000e+00	0.00000e+00	0.00000e+00	0.00000e+00	0.00000e+00	0.00000e+00	0.00000e+00	0.00000e+00	0.00000e+00	0.00000e+00	0.00000e+00	0.00000e+00	0.00000e+00	0.00000e+00	0.00000e+00	0.00000e+00	0.00000e+00	0.00000e+00	0.00000e+00	
Factor	1.00000e+00	1.00000e+00	1.00000e+00	1.00000e+00	1.00000e+00	1.00000e+00	1.00000e+00	1.00000e+00	1.00000e+00	1.00000e+00	1.00000e+00	1.00000e+00	1.00000e+00	1.00000e+00	1.00000e+00	1.00000e+00	1.00000e+00	1.00000e+00	1.00000e+00	1.00000e+00	1.00000e+00	1.00000e+00	1.00000e+00	1.00000e+00	1.00000e+00	1.00000e+00	1.00000e+00	1.00000e+00	1.00000e+00	1.00000e+00	1.00000e+00	1.00000e+00	X	X	X	X	X	X	X	X	X	X	X	X	X	X	X	X	

B = Detector Channel
Val Type	B-AC1	B-AC2	B-AC3	B-AC4	B-AC5	B-AC6	B-AC7	B-AC8	B-AC9	B-AC10	B-AC11	B-AC12	B-AC13	B-AC14	B-AC15	B-AC16	B-DC1	B-DC2	B-DC3	B-DC4	B-DC5	B-DC6	B-DC7	B-DC8	B-DC9	B-DC10	B-DC11	B-DC12	B-DC13	B-DC14	B-DC15	B-DC16	B-Ph1	B-Ph2	B-Ph3	B-Ph4	B-Ph5	B-Ph6	B-Ph7	B-Ph8	B-Ph9	B-Ph10	B-Ph11	B-Ph12	B-Ph13	B-Ph14	B-Ph15	B-Ph16	

Term	0.00000e+00	0.00000e+00	0.00000e+00	0.00000e+00	0.00000e+00	0.00000e+00	0.00000e+00	0.00000e+00	0.00000e+00	0.00000e+00	0.00000e+00	0.00000e+00	0.00000e+00	0.00000e+00	0.00000e+00	0.00000e+00	0.00000e+00	0.00000e+00	0.00000e+00	0.00000e+00	0.00000e+00	0.00000e+00	0.00000e+00	0.00000e+00	0.00000e+00	0.00000e+00	0.00000e+00	0.00000e+00	0.00000e+00	0.00000e+00	0.00000e+00	0.00000e+00	-1.07286e+02	-1.33750e+02	-1.30724e+02	-1.82363e+02	-6.19824e+01	-6.62161e+01	-1.57848e+02	-1.62015e+02	-5.98885e+01	-6.91183e+01	-1.70843e+02	-1.70945e+02	-1.83296e+02	-1.76809e+02	-6.51458e+01	-1.49940e+02	
Factor	1.60289e-05	1.47158e-04	4.35422e-05	1.53391e-01	1.14493e-06	1.53336e-06	1.58280e-01	4.76737e-02	1.01461e-06	1.45935e-06	8.23878e-02	2.72771e-02	2.23222e-02	8.72536e-03	1.20848e-06	1.24093e-02	9.10509e-06	1.43128e-05	4.00729e-06	8.10904e-02	1.47627e-07	1.59585e-07	7.86080e-02	2.53910e-02	1.46793e-07	1.59995e-07	4.23457e-02	1.41041e-02	1.20320e-02	4.67646e-03	1.51879e-07	6.42207e-03	X	X	X	X	X	X	X	X	X	X	X	X	X	X	X	X	



#DISTANCE SETTINGS
A = Detector Channel
A-1	A-2	A-3	A-4	A-5	A-6	A-7	A-8	A-9	A-10	A-11	A-12	A-13	A-14	A-15	A-16	

2.5000e+00	3.0000e+00	2.5000e+00	3.0000e+00	2.0000e+00	3.0000e+00	1.5000e+00	3.0000e+00	3.0000e+00	3.0000e+00	3.0000e+00	3.0000e+00	3.0000e+00	3.0000e+00	1.5000e+00	3.0000e+00	

B = Detector Channel
B-1	B-2	B-3	B-4	B-5	B-6	B-7	B-8	B-9	B-10	B-11	B-12	B-13	B-14	B-15	B-16	

1.0000e+01	1.0000e+01	1.0000e+01	1.4400e+00	1.0000e+01	1.0000e+01	1.5100e+00	1.9400e+00	1.0000e+01	1.0000e+01	1.9900e+00	2.4900e+00	2.4100e+00	2.9000e+00	1.0000e+01	2.9800e+00	




#DATA BEGINS
time	group	step	mark	flag	A-AC1	A-AC2	A-AC3	A-AC4	A-AC5	A-AC6	A-AC7	A-AC8	A-AC9	A-AC10	A-AC11	A-AC12	A-AC13	A-AC14	A-AC15	A-AC16	A-DC1	A-DC2	A-DC3	A-DC4	A-DC5	A-DC6	A-DC7	A-DC8	A-DC9	A-DC10	A-DC11	A-DC12	A-DC13	A-DC14	A-DC15	A-DC16	A-Ph1	A-Ph2	A-Ph3	A-Ph4	A-Ph5	A-Ph6	A-Ph7	A-Ph8	A-Ph9	A-Ph10	A-Ph11	A-Ph12	A-Ph13	A-Ph14	A-Ph15	A-Ph16	B-AC1	B-AC2	B-AC3	B-AC4	B-AC5	B-AC6	B-AC7	B-AC8	B-AC9	B-AC10	B-AC11	B-AC12	B-AC13	B-AC14	B-AC15	B-AC16	B-DC1	B-DC2	B-DC3	B-DC4	B-DC5	B-DC6	B-DC7	B-DC8	B-DC9	B-DC10	B-DC11	B-DC12	B-DC13	B-DC14	B-DC15	B-DC16	B-Ph1	B-Ph2	B-Ph3	B-Ph4	B-Ph5	B-Ph6	B-Ph7	B-Ph8	B-Ph9	B-Ph10	B-Ph11	B-Ph12	B-Ph13	B-Ph14	B-Ph15	B-Ph16	aux-1	digaux	

1375.569	1	1	0	256	0.083777	0.22053	0.21955	0.24612	0.18346	0.15382	0.18955	0.079497	0.063965	0.10687	0.18092	0.25268	0.10378	0.19576	0.10027	0.2274	-1.1313	-2.4062	-1.6125	-2.0396	-2.5104	-1.5458	-2.4604	-2.1271	-1.6729	-2.6896	-1.7271	-2.0146	-2.4375	-1.4958	-2.3208	-2.4042	91.545	354.028	110.010	365.823	303.881	429.945	345.713	140.371	193.667	359.680	107.467	106.089	147.037	422.040	143.898	342.860	0.00037956	0.00076289	0.00047294	260.14	4.8814e-06	5.3219e-06	521.08	111.97	7.4119e-06	1.0441e-05	239.29	106.61	50.477	25.361	1.1458e-06	57.566	0.0041059	0.0061953	0.0017364	283.42	6.5902e-05	7.0765e-05	530.11	117.46	6.6818e-05	7.2704e-05	247.11	108.19	53.799	26.57	7.1007e-05	58.054	195.907	112.119	199.715	91.720	227.421	350.074	90.839	96.860	224.167	166.216	94.619	98.832	100.427	104.334	407.145	102.055	-8191	255	
1375.665	1	1	0	0	0.17116	0.20701	0.34292	0.093685	0.027741	0.18571	0.060698	0.19778	0.11929	0.14412	0.35127	0.23649	0.23011	0.30625	0.1936	0.097555	-1.1125	-2.5729	-1.8771	-1.6187	-2.3563	-1.5562	-2.2771	-2.2375	-1.4833	-2.2875	-2.0375	-1.7833	-2.4396	-1.5812	-1.975	-2.4542	405.714	397.172	249.525	332.613	133.682	275.403	282.303	342.195	400.896	209.855	396.923	387.624	278.362	94.471	160.592	280.476	0.0004514	0.00090112	0.00011666	261.84	7.9375e-06	4.0873e-06	520.1	109.53	4.6363e-06	8.3354e-06	237.44	105.76	50.733	25.727	1.6999e-06	57.396	0.004362	0.0065877	0.0018232	284.53	6.7769e-05	7.3013e-05	529.94	116.29	6.7095e-05	7.3098e-05	244.41	107.86	53.839	26.848	6.9201e-05	58.147	179.913	403.772	163.718	91.935	86.416	219.688	90.511	96.531	282.870	320.651	94.953	99.083	100.679	104.238	425.415	102.022	-8191	255	
1375.761	1	1	0	0	0.16676	0.23926	0.19042	0.18838	0.11925	0.19738	0.19028	0.28258	0.039621	0.19607	0.045359	0.15017	0.14965	0.15081	0.15818	0.1011	-1.1104	-2.35	-1.8521	-1.7854	-2.3688	-1.7625	-2.1333	-2.25	-1.5688	-2.3083	-2.0917	-1.6063	-2.3875	-1.5833	-1.8979	-2.4625	240.413	337.355	225.657	310.662	343.738	193.125	331.962	164.902	363.920	152.481	116.341	420.628	152.824	419.155	85.455	101.926	0.00041853	0.00058459	0.00023061	260.65	5.4624e-06	1.0438e-05	516.39	110.29	6.9209e-07	9.9453e-06	235.57	106.61	50.699	26.144	4.8207e-06	58.084	0.0043552	0.0065977	0.00184	283.83	6.8599e-05	7.2909e-05	526.96	115.88	6.7448e-05	7.3492e-05	242.76	108.33	53.976	27.128	6.9872e-05	58.493	188.682	361.849	92.434	92.109	158.993	244.188	91.174	96.552	253.777	228.471	95.193	98.690	100.638	104.668	188.786	102.184	-8191	255	
1375.857	1	1	0	0	0.093079	0.084644	0.34117	0.11981	0.15218	0.027629	0.27214	0.080155	0.065361	0.15719	0.13894	0.20931	0.34506	0.19989	0.23677	0.28566	-1.2437	-2.2229	-2.0896	-1.5521	-2.5333	-1.7458	-1.8188	-2.3187	-1.6979	-2.2313	-2.1729	-1.4688	-2.3417	-1.8667	-1.6021	-2.6458	79.935	201.197	312.196	154.051	121.267	406.521	366.768	87.693	404.242	256.180	158.717	103.488	365.291	86.074	333.427	357.596	0.00040905	0.00071945	0.00039995	257.32	3.4766e-06	5.1288e-06	518.26	108.9	6.3921e-06	1.0694e-05	235.11	105.94	51.125	26.202	7.2243e-06	58.379	0.0043533	0.006606	0.0018437	282.27	6.7773e-05	7.2456e-05	526.75	115.5	6.6806e-05	7.3625e-05	243.12	108.5	54.271	27.259	6.8983e-05	59.071	201.748	352.952	175.522	92.035	279.560	224.030	90.936	96.678	276.906	214.629	94.778	98.678	100.714	104.330	303.119	102.322	-8191	255	
1375.978	1	1	0	0	0.16551	0.18222	0.20034	0.17622	0.30853	0.16243	0.26537	0.20302	0.17571	0.19456	0.30315	0.36362	0.1239	0.10478	0.084854	0.27976	-1.2563	-2.1854	-1.9375	-1.4333	-2.3375	-1.8458	-1.6625	-2.3479	-1.5042	-2.2271	-2.2479	-1.6958	-2.275	-1.9729	-1.6292	-2.4437	411.004	240.505	145.005	226.928	111.070	108.964	266.567	357.884	187.190	343.959	110.008	303.230	282.267	427.507	140.520	356.344	0.00048891	0.00048684	0.00032842	264.31	9.3085e-06	7.8706e-06	520.47	109.32	2.9747e-06	5.5693e-06	238.1	107.73	51.339	26.007	6.2443e-06	58.033	0.004319	0.0065092	0.0017806	284.46	6.606e-05	7.1058e-05	527.41	115.42	6.4386e-05	6.9437e-05	243.38	108.73	54.044	27.011	6.5029e-05	58.645	180.625	142.776	423.898	91.968	214.443	249.197	90.831	96.829	265.531	239.473	95.234	98.928	100.414	104.604	162.110	102.378	-8191	255	
1376.072	1	1	0	0	0.14444	0.086045	0.2849	0.155	0.22084	0.18388	0.047073	0.35774	0.19001	0.049923	0.42875	0.032199	0.050462	0.21665	0.14377	0.28043	-1.1562	-1.7792	-2.1979	-1.5958	-2.2188	-2.1854	-1.6896	-2.425	-1.8458	-1.9562	-2.4083	-1.6292	-2.2792	-2.0396	-1.7375	-2.4979	113.373	294.361	350.240	138.844	431.208	162.332	350.482	398.952	246.047	83.836	386.561	138.807	355.499	306.465	90.305	358.672	0.00041771	0.00050529	0.00010885	263	8.2689e-06	1.5178e-05	520.07	109.43	4.7568e-06	8.2783e-06	234.88	106.72	51.512	26.277	1.8379e-06	58.208	0.0040492	0.0061363	0.0016739	282.41	6.1332e-05	6.7243e-05	525.22	114.38	5.9339e-05	6.4399e-05	240.44	108.02	53.716	26.809	6.0548e-05	58.14	185.074	417.199	281.263	91.562	153.132	212.918	91.226	97.058	173.781	248.366	95.043	99.224	100.790	104.924	422.537	102.558	-8191	255	
1376.146	1	1	0	0	0.30964	0.037341	0.227	0.13023	0.017555	0.058157	0.074423	0.18691	0.14027	0.045335	0.17636	0.32301	0.14878	0.16006	0.15929	0.26215	-1.2687	-1.7812	-2.1875	-1.7667	-2.1583	-2.1	-1.6042	-2.3937	-1.7021	-1.6521	-2.3833	-1.7292	-2.1042	-2.1354	-1.4396	-2.5083	86.272	283.037	258.358	284.848	100.879	163.001	373.348	400.708	190.922	189.627	413.993	381.543	101.469	114.309	151.662	362.207	0.00040018	0.00026448	0.00034857	264.95	2.0107e-06	6.5715e-06	518.92	109.69	3.7344e-06	1.9873e-06	237.47	107.29	51.599	26.038	2.1702e-06	58.156	0.0038267	0.005703	0.0015797	281.48	5.8147e-05	6.3528e-05	525.09	114.81	5.8621e-05	6.3317e-05	241.77	108.34	53.723	26.792	6.0427e-05	58.188	181.857	190.609	158.227	91.664	315.517	313.242	90.591	96.816	237.474	392.652	95.159	99.040	100.840	104.594	84.500	102.237	-8191	255	
1376.265	1	1	0	0	0.30282	0.30248	0.17502	0.073079	0.11887	0.08666	0.058375	0.10461	0.095661	0.10197	0.41176	0.29759	0.048133	0.23175	0.21526	0.10136	-1.4625	-1.5667	-2.3563	-1.8104	-2.1271	-2.1771	-1.4667	-2.2562	-1.8396	-1.7417	-2.5042	-1.9396	-2.1146	-2.3063	-1.425	-2.3396	282.559	230.907	168.521	129.908	114.009	369.895	275.755	285.213	83.287	141.503	427.470	395.327	397.509	308.676	247.474	301.991	0.00051601	0.00076227	0.00010752	265.77	5.3052e-06	6.4579e-06	525.59	110.46	9.3208e-06	9.6028e-06	238.11	107.74	51.144	25.988	2.7481e-06	58.315	0.0038076	0.0057167	0.0015942	283.63	5.8801e-05	6.3426e-05	528.81	115.46	5.8626e-05	6.3074e-05	243.2	108.49	53.705	26.787	6.0076e-05	58.307	186.927	115.403	376.356	92.026	250.286	253.054	91.227	97.005	214.187	207.694	95.427	99.054	100.970	104.640	198.263	102.589	-8191	255	
1376.361	1	1	0	0	0.036663	0.043278	0.1213	0.13406	0.30125	0.2692	0.13231	0.18047	0.10293	0.19003	0.27626	0.11164	0.21871	0.25965	0.059237	0.34003	-1.5083	-1.5979	-2.45	-1.725	-1.75	-2.3292	-1.5187	-2.2708	-2.0563	-1.6333	-2.4708	-1.9625	-1.6708	-2.2792	-1.4729	-2.2812	179.257	388.440	90.697	312.193	377.953	415.196	176.666	123.245	103.624	432.857	354.741	117.704	103.856	106.818	300.335	386.785	0.00043503	0.00076696	0.00039773	268.81	7.7844e-06	1.6867e-06	524.73	110.98	2.5353e-06	6.9277e-06	238.2	106.35	51.209	25.802	1.8615e-06	57.725	0.0038248	0.0057666	0.0016261	285.09	5.9509e-05	6.4964e-05	529.76	115.77	5.8894e-05	6.4204e-05	243.65	107.85	53.432	26.65	6.0293e-05	57.855	198.441	110.497	151.341	91.879	295.898	268.077	91.118	97.085	289.987	422.887	95.087	98.818	100.847	104.737	271.172	102.514	-8191	255	
1376.457	1	1	0	0	0.12079	0.11153	0.13018	0.018298	0.2324	0.13749	0.29484	0.17292	0.15634	0.16383	0.18976	0.15539	0.18392	0.074292	0.28193	0.44668	-1.7354	-1.3833	-2.4688	-1.8563	-1.6167	-2.4437	-1.6063	-1.9833	-2.2146	-1.4917	-2.4292	-1.95	-1.7437	-2.3854	-1.5792	-2.25	411.508	124.530	246.377	111.371	341.111	116.258	104.644	363.621	94.376	298.885	370.962	313.894	404.896	93.788	316.836	406.289	0.00049431	0.00075735	0.0002138	266.62	4.6493e-06	4.24e-06	521.48	112.01	7.8112e-06	2.6558e-06	238.44	105.94	51.031	25.708	4.4847e-06	57.128	0.0038255	0.0056264	0.0015881	283.5	5.8121e-05	6.2868e-05	526.6	115.98	5.8272e-05	6.2299e-05	242.48	107.09	53.304	26.484	5.9873e-05	57.195	196.272	160.258	184.349	91.654	253.809	84.178	90.401	97.191	244.040	188.754	95.271	98.863	101.027	104.915	194.281	102.461	-8191	255	
1376.553	1	1	0	0	0.078247	0.15865	0.042188	0.24506	0.15948	0.086383	0.38742	0.24151	0.34349	0.19814	0.1291	0.11991	0.1324	0.36759	0.21573	0.12461	-2.0792	-1.3583	-2.225	-1.9708	-1.5938	-2.3833	-1.6979	-1.8792	-2.35	-1.5917	-2.2854	-2.025	-1.6979	-2.4792	-1.6375	-1.8875	122.068	403.815	356.152	396.262	230.334	382.032	357.854	157.022	263.508	372.144	318.719	434.070	294.453	341.327	231.792	102.938	0.00042164	0.00065772	0.00023021	266.34	9.5802e-06	5.8553e-06	526.06	111.55	8.9848e-06	1.2212e-05	237.08	105.97	50.321	25.524	1.1802e-05	57.37	0.0037871	0.0056768	0.0015612	283.51	5.8304e-05	6.3368e-05	527.41	115.71	5.7841e-05	6.2437e-05	242.5	106.81	53.22	26.408	5.9333e-05	57.45	198.143	89.378	245.387	91.929	95.475	252.184	90.930	97.041	224.327	250.361	95.175	98.876	101.099	104.714	259.910	102.255	-8191	255	
1376.674	1	1	0	0	0.16729	0.15177	0.33169	0.2111	0.11664	0.1444	0.26576	0.10799	0.14981	0.22499	0.093533	0.076758	0.14286	0.27854	0.050178	0.29768	-2.0771	-1.4458	-2.2146	-1.9771	-1.6521	-2.2854	-1.7771	-1.8958	-2.3583	-1.5938	-2.3187	-2.3125	-1.5521	-2.3896	-1.8792	-1.8375	270.771	193.019	356.025	82.130	134.042	414.106	299.909	237.606	165.121	136.608	219.292	111.225	329.330	183.800	396.843	354.178	0.00046027	0.00037711	6.1122e-05	267.32	7.8755e-06	2.1049e-06	525.96	112.13	3.8725e-06	3.0909e-06	238.92	106.83	51.04	25.695	5.3701e-06	57.615	0.0037881	0.005638	0.0015886	284.31	5.7488e-05	6.3046e-05	529.03	116.25	5.8054e-05	6.2613e-05	243.85	107.86	53.411	26.404	5.9338e-05	57.747	194.253	147.196	433.579	91.949	228.888	160.374	90.404	97.038	347.468	398.631	95.525	99.012	101.346	105.184	173.588	102.417	-8191	255	
1376.770	1	1	0	0	0.028765	0.23925	0.12143	0.15253	0.30136	0.053227	0.13185	0.19558	0.12596	0.33185	0.18203	0.35821	0.22909	0.071875	0.030336	0.092785	-1.9771	-1.7375	-2.2125	-2.2771	-1.5271	-2.4042	-2.1771	-1.7188	-2.4167	-1.6417	-2.0896	-2.3146	-1.5542	-2.5354	-2.0125	-1.7479	116.400	291.354	96.494	301.512	224.161	275.161	337.054	275.588	250.355	122.983	370.389	378.087	427.520	315.842	153.777	311.116	0.00046824	0.00064013	0.00033385	268.21	3.3327e-06	4.1786e-06	526.88	112.1	2.2962e-06	1.0123e-05	240.27	106.98	51.221	25.937	8.1543e-06	57.985	0.0038342	0.0055881	0.0015721	284.78	5.8032e-05	6.3033e-05	529.26	116.59	5.7587e-05	6.33e-05	245	108.28	53.748	26.766	6.0604e-05	58.035	180.026	92.012	138.513	91.553	208.342	324.033	90.817	96.479	231.047	303.495	94.846	98.695	101.001	104.695	307.030	102.459	-8191	255	
1376.842	1	1	0	0	0.30914	0.27158	0.1031	0.15942	0.17086	0.27465	0.25195	0.14206	0.094237	0.17287	0.077293	0.064402	0.19795	0.073159	0.34675	0.30803	-2.175	-1.6167	-1.9875	-2.2	-1.5	-2.1917	-2.0812	-1.6292	-2.55	-1.6792	-1.9062	-2.5104	-1.4354	-2.3125	-2.1167	-1.7458	419.885	163.072	340.570	347.294	133.082	399.950	103.418	368.371	97.556	276.272	425.579	124.067	166.843	152.111	276.485	390.024	0.00049514	0.00062386	7.2951e-05	267.96	8.1332e-06	2.9308e-06	525.95	112.87	1.9397e-06	5.4315e-06	239.79	106.35	51.062	25.735	4.49e-06	57.938	0.0038548	0.0057202	0.0016127	285.41	6.011e-05	6.3816e-05	528.71	116.94	5.863e-05	6.3954e-05	244.3	107.75	53.681	26.604	5.9305e-05	57.788	193.087	248.943	296.022	91.915	196.216	135.636	91.045	97.065	376.264	239.350	95.069	98.997	100.803	105.030	417.190	102.145	-8191	255	
1376.938	1	1	0	0	0.12456	0.38027	0.007372	0.10011	0.2451	0.081283	0.23191	0.12638	0.1836	0.14274	0.22957	0.025244	0.28835	0.20697	0.19719	0.14888	-1.9562	-1.7125	-1.7333	-2.5229	-1.7292	-1.9937	-2.2438	-1.6313	-2.4083	-1.8438	-1.6313	-2.4688	-1.8062	-2.0896	-2.2542	-1.6396	350.234	363.568	391.683	380.520	81.142	249.380	376.448	360.910	91.869	421.887	419.155	137.383	146.480	81.623	374.392	91.390	0.0004937	0.00033094	0.00015234	267.91	6.3147e-06	4.0031e-06	526.43	112.99	3.9215e-06	4.1099e-06	240.92	106.87	51.851	25.535	4.2356e-06	57.256	0.0037521	0.0055087	0.0015182	282.42	5.5666e-05	5.9774e-05	526.84	116.39	5.4483e-05	5.8075e-05	243.99	107.31	53.492	26.165	5.3872e-05	56.962	197.972	269.731	243.186	92.301	282.822	323.857	91.045	97.116	162.361	192.967	95.286	99.064	100.817	104.923	173.744	102.469	-8191	255	
1377.058	1	1	0	0	0.20144	0.12923	0.27265	0.10743	0.19544	0.11875	0.19923	0.38875	0.084806	0.11186	0.13864	0.028517	0.21139	0.10367	0.25113	0.13515	-2.025	-1.9292	-1.6521	-2.2417	-1.6083	-2.0208	-2.2875	-1.5104	-2.1792	-1.8208	-1.6042	-2.4271	-1.6625	-1.8563	-2.2417	-1.6208	246.107	314.328	91.958	216.015	325.925	232.769	242.485	335.234	246.891	173.732	142.721	378.754	162.725	380.064	120.303	409.445	0.00038257	0.001223	0.00022003	268.72	2.12e-06	1.2323e-05	527.47	114.06	5.5568e-06	2.0979e-06	243.1	107.16	51.718	25.602	1.6489e-06	57.006	0.0034088	0.0050525	0.0014058	282.03	5.1834e-05	5.6264e-05	525.41	117.03	5.1177e-05	5.6113e-05	245.21	107.27	53.368	26.166	5.388e-05	56.744	196.052	154.364	151.971	92.331	384.821	205.765	91.224	97.491	273.408	139.531	95.691	98.975	100.998	104.905	177.135	102.339	-8191	255	
1377.155	1	1	0	0	0.20373	0.25498	0.31574	0.30472	0.19872	0.17616	0.057736	0.33076	0.20329	0.41305	0.07899	0.20036	0.21529	0.25258	0.0434	0.23401	-1.7979	-2.0208	-1.675	-2.4417	-1.4708	-1.7417	-2.325	-1.6292	-2.1875	-2.0458	-1.6417	-2.4125	-1.8062	-1.6583	-2.4375	-1.8583	434.042	81.104	116.699	281.050	237.493	351.665	411.732	365.033	420.818	153.649	248.203	413.536	324.861	273.426	236.175	105.808	0.0003908	4.3516e-05	0.0001288	270.18	3.4282e-06	5.8517e-06	526.4	113.07	3.1791e-06	4.411e-06	245.79	106.14	51.473	25.179	4.4669e-06	56.801	0.0033646	0.0049457	0.0013793	281.15	5.0794e-05	5.4506e-05	525.09	116.53	5.1147e-05	5.5229e-05	246.84	106.85	53.341	25.86	5.2974e-05	56.303	194.955	229.792	258.903	92.383	140.897	189.830	91.205	97.719	205.977	116.554	95.144	98.869	100.769	104.944	213.844	102.336	-8191	255	
1377.251	1	1	0	0	0.17288	0.055494	0.18675	0.20479	0.1859	0.33258	0.1042	0.20978	0.23588	0.060189	0.050045	0.050903	0.15104	0.27457	0.10148	0.055278	-1.6792	-2.3688	-1.3292	-2.4583	-1.8167	-1.7938	-2.5542	-1.7625	-2.2313	-2.2833	-1.725	-2.3583	-1.7812	-1.675	-2.4667	-1.7687	392.203	300.174	338.896	369.424	413.632	374.203	411.194	357.971	168.395	155.588	123.149	428.385	129.722	177.141	86.675	335.976	0.00049729	0.0008546	0.0001699	268.67	9.8112e-06	3.9319e-06	526.28	113.16	3.7935e-06	1.0326e-05	244.54	106.37	51.733	25.212	4.8647e-06	56.016	0.003342	0.0049627	0.0013815	281.36	5.065e-05	5.4313e-05	524.67	116.76	5.0246e-05	5.4413e-05	245.41	106.7	53.374	25.629	5.212e-05	55.924	191.925	81.229	385.044	92.079	207.210	253.401	90.932	97.084	290.492	298.998	95.242	98.541	100.694	105.241	349.327	102.577	-8191	255	
