BOXY.EXE: ISS Imagent and Oximeter Data Acquisition Program Version 0.80
Ascii Record File

#ACQ INFORMATION
2  Detector Channels 
16  External MUX Channels 
1  Auxiliary Channels 
5000  Waveform (CCF) Frequency (Hz)
1  Waveforms Skipped 
30  Waveforms Averaged 
1  Cycles Averaged 
16  Acquisitions per Waveform 
10.0806  Updata Rate (Hz) 

#FILE INFORMATION
TRUE -- External MUX Channel results are PARSED.
FALSE -- AC DC and Phase are NOT grouped.
TRUE -- Companion Program Settings File CREATED.
FALSE -- AC data not excluded
FALSE -- DC data not excluded
FALSE -- Phase data not excluded
FALSE -- Auxillary Chn. data not excluded
Tab delimiters

#CALIBRATION STATE
TRUE -- Waveform Calibration Values APPLIED.


#AUX CALIBRATION VALUES
Val Type	aux-1	

Term	1.0000e+00	
Factor	0.0000e+00	


#WF CALIBRATION VALUES
A = Detector Channel
Val Type	A-AC1	A-AC2	A-AC3	A-AC4	A-AC5	A-AC6	A-AC7	A-AC8	A-AC9	A-AC10	A-AC11	A-AC12	A-AC13	A-AC14	A-AC15	A-AC16	A-DC1	A-DC2	A-DC3	A-DC4	A-DC5	A-DC6	A-DC7	A-DC8	A-DC9	A-DC10	A-DC11	A-DC12	A-DC13	A-DC14	A-DC15	A-DC16	A-Ph1	A-Ph2	A-Ph3	A-Ph4	A-Ph5	A-Ph6	A-Ph7	A-Ph8	A-Ph9	A-Ph10	A-Ph11	A-Ph12	A-Ph13	A-Ph14	A-Ph15	A-Ph16	

Term	0.00000e+00	0.00000e+00	0.00000e+00	0.00000e+00	0.00000e+00	0.00000e+00	0.00000e+00	0.00000e+00	0.00000e+00	0.00000e+00	0.00000e+00	0.00000e+00	0.00000e+00	0.00000e+00	0.00000e+00	0.00000e+00	0.00000e+00	0.00000e+00	0.00000e+00	0.00000e+00	0.00000e+00	0.00000e+00	0.00000e+00	0.00000e+00	0.00000e+00	0.00000e+00	0.00000e+00	0.00000e+00	0.00000e+00	0.00000e+00	0.00000e+00	0.00000e+00	0.00000e+00	0.00000e+00	0.00000e+00	0.00000e+00	0.00000e+00	0.00000e+00	0.00000e+00	0.00000e+00	0.00000e+00	0.00000e+00	0.00000e+00	0.00000e+00	0.00000e+00	0.00000e+00	0.00000e+00	0.00000e+00	
Factor	1.00000e+00	1.00000e+00	1.00000e+00	1.00000e+00	1.00000e+00	1.00000e+00	1.00000e+00	1.00000e+00	1.00000e+00	1.00000e+00	1.00000e+00	1.00000e+00	1.00000e+00	1.00000e+00	1.00000e+00	1.00000e+00	1.00000e+00	1.00000e+00	1.00000e+00	1.00000e+00	1.00000e+00	1.00000e+00	1.00000e+00	1.00000e+00	1.00000e+00	1.00000e+00	1.00000e+00	1.00000e+00	1.00000e+00	1.00000e+00	1.00000e+00	1.00000e+00	X	X	X	X	X	X	X	X	X	X	X	X	X	X	X	X	

B = Detector Channel
Val Type	B-AC1	B-AC2	B-AC3	B-AC4	B-AC5	B-AC6	B-AC7	B-AC8	B-AC9	B-AC10	B-AC11	B-AC12	B-AC13	B-AC14	B-AC15	B-AC16	B-DC1	B-DC2	B-DC3	B-DC4	B-DC5	B-DC6	B-DC7	B-DC8	B-DC9	B-DC10	B-DC11	B-DC12	B-DC13	B-DC14	B-DC15	B-DC16	B-Ph1	B-Ph2	B-Ph3	B-Ph4	B-Ph5	B-Ph6	B-Ph7	B-Ph8	B-Ph9	B-Ph10	B-Ph11	B-Ph12	B-Ph13	B-Ph14	B-Ph15	B-Ph16	

Term	0.00000e+00	0.00000e+00	0.00000e+00	0.00000e+00	0.00000e+00	0.00000e+00	0.00000e+00	0.00000e+00	0.00000e+00	0.00000e+00	0.00000e+00	0.00000e+00	0.00000e+00	0.00000e+00	0.00000e+00	0.00000e+00	0.00000e+00	0.00000e+00	0.00000e+00	0.00000e+00	0.00000e+00	0.00000e+00	0.00000e+00	0.00000e+00	0.00000e+00	0.00000e+00	0.00000e+00	0.00000e+00	0.00000e+00	0.00000e+00	0.00000e+00	0.00000e+00	-1.33287e+02	-1.33058e+02	-1.22415e+02	-1.83602e+02	-6.63235e+01	-6.86494e+01	-1.58175e+02	-1.62015e+02	-6.98326e+01	-6.27199e+01	-1.70709e+02	-1.71243e+02	-1.78816e+02	-1.76819e+02	-7.21941e+01	-1.49827e+02	
Factor	1.98011e-05	1.68726e-04	4.68094e-05	1.72646e-01	1.25001e-06	1.72005e-06	1.91519e-01	5.90140e-02	1.19171e-06	1.73739e-06	9.70808e-02	3.25887e-02	3.02680e-02	1.03601e-02	1.44427e-06	1.45597e-02	1.17642e-05	1.95404e-05	5.41394e-06	8.28772e-02	1.95271e-07	2.18153e-07	8.65750e-02	2.84976e-02	1.98045e-07	2.18247e-07	4.54550e-02	1.53416e-02	1.48428e-02	5.03973e-03	2.04727e-07	6.86683e-03	X	X	X	X	X	X	X	X	X	X	X	X	X	X	X	X	



#DISTANCE SETTINGS
A = Detector Channel
A-1	A-2	A-3	A-4	A-5	A-6	A-7	A-8	A-9	A-10	A-11	A-12	A-13	A-14	A-15	A-16	

2.5000e+00	3.0000e+00	2.5000e+00	3.0000e+00	2.0000e+00	3.0000e+00	1.5000e+00	3.0000e+00	3.0000e+00	3.0000e+00	3.0000e+00	3.0000e+00	3.0000e+00	3.0000e+00	1.5000e+00	3.0000e+00	

B = Detector Channel
B-1	B-2	B-3	B-4	B-5	B-6	B-7	B-8	B-9	B-10	B-11	B-12	B-13	B-14	B-15	B-16	

1.0000e+01	1.0000e+01	1.0000e+01	1.4400e+00	1.0000e+01	1.0000e+01	1.5100e+00	1.9400e+00	1.0000e+01	1.0000e+01	1.9900e+00	2.4900e+00	2.4100e+00	2.9000e+00	1.0000e+01	2.9800e+00	




#DATA BEGINS
time	group	step	mark	flag	A-AC1	A-AC2	A-AC3	A-AC4	A-AC5	A-AC6	A-AC7	A-AC8	A-AC9	A-AC10	A-AC11	A-AC12	A-AC13	A-AC14	A-AC15	A-AC16	A-DC1	A-DC2	A-DC3	A-DC4	A-DC5	A-DC6	A-DC7	A-DC8	A-DC9	A-DC10	A-DC11	A-DC12	A-DC13	A-DC14	A-DC15	A-DC16	A-Ph1	A-Ph2	A-Ph3	A-Ph4	A-Ph5	A-Ph6	A-Ph7	A-Ph8	A-Ph9	A-Ph10	A-Ph11	A-Ph12	A-Ph13	A-Ph14	A-Ph15	A-Ph16	B-AC1	B-AC2	B-AC3	B-AC4	B-AC5	B-AC6	B-AC7	B-AC8	B-AC9	B-AC10	B-AC11	B-AC12	B-AC13	B-AC14	B-AC15	B-AC16	B-DC1	B-DC2	B-DC3	B-DC4	B-DC5	B-DC6	B-DC7	B-DC8	B-DC9	B-DC10	B-DC11	B-DC12	B-DC13	B-DC14	B-DC15	B-DC16	B-Ph1	B-Ph2	B-Ph3	B-Ph4	B-Ph5	B-Ph6	B-Ph7	B-Ph8	B-Ph9	B-Ph10	B-Ph11	B-Ph12	B-Ph13	B-Ph14	B-Ph15	B-Ph16	aux-1	digaux	

57960.574	1	1	0	768	0.17566	0.16341	0.11273	0.15128	0.057228	0.2075	0.18234	0.056547	0.43815	0.13951	0.16154	0.22125	0.22267	0.21186	0.1203	0.22779	-4.3375	-4.0875	-3.9333	-4.6979	-3.9083	-4.2917	-4.7562	-3.7875	-4.6021	-4.2146	-3.8875	-4.7708	-3.8792	-4.3458	-4.7021	-3.7521	216.125	95.049	347.624	367.247	434.625	438.314	427.060	145.513	159.628	197.666	431.020	383.752	218.705	311.197	405.631	337.467	0.00049439	0.0017664	0.0004372	1156.3	1.2825e-05	5.798e-06	1438.5	308.77	5.4879e-06	1.7341e-05	464.69	137.87	81.484	21.007	3.0782e-06	47.129	0.0060155	0.0096353	0.0026712	1142.8	9.728e-05	0.00010829	1415.4	308.04	9.8207e-05	0.00010717	466.88	139.59	85.263	22.588	0.00010093	48.675	181.556	236.714	151.739	95.140	244.163	334.395	95.170	98.792	258.439	268.185	98.153	102.493	103.049	107.192	181.294	106.596	-8191	255	
57960.668	1	1	0	0	0.091647	0.13269	0.18586	0.27683	0.18078	0.1243	0.31029	0.29519	0.092766	0.090038	0.039746	0.29621	0.12714	0.22848	0.20508	0.17679	-4.1188	-4.0729	-3.8417	-4.9292	-3.9646	-4.1729	-4.8771	-3.9729	-4.5083	-4.2937	-4.0729	-4.7833	-4.1979	-3.9521	-4.7375	-3.9604	328.219	192.134	301.864	84.646	157.011	326.936	372.280	329.587	345.318	153.705	84.903	429.554	175.749	91.381	103.681	412.727	0.00053275	0.00065228	0.00012953	1162.8	3.0396e-06	1.0706e-05	1434.4	306.62	3.8555e-06	7.6755e-06	461.51	136.11	81.081	20.53	5.5074e-06	46.291	0.0059163	0.0095006	0.0026353	1140.9	9.5029e-05	0.00010446	1409.1	306.48	9.5234e-05	0.00010374	461.74	137.75	84.18	22.095	9.4723e-05	47.699	156.204	99.043	359.865	95.499	189.811	295.193	95.295	98.850	225.179	266.724	98.020	102.406	102.980	107.237	282.644	106.428	-8191	255	
57960.766	1	1	0	0	0.12741	0.15275	0.23538	0.086997	0.096498	0.20079	0.27675	0.28569	0.0249	0.069384	0.21849	0.17829	0.095288	0.059191	0.11651	0.062868	-4.0042	-4.3292	-3.7354	-4.8229	-4.0333	-3.8896	-4.8104	-3.9479	-4.1979	-4.5125	-3.9354	-4.5042	-4.3417	-3.9062	-4.6625	-3.9604	332.296	408.982	330.276	164.587	148.075	105.055	372.996	360.802	144.093	431.273	431.324	366.382	375.750	361.181	215.678	100.581	0.00041654	0.0010099	0.00022082	1145.7	5.3762e-06	4.4109e-06	1426.5	306.95	1.0045e-05	5.4859e-06	463.54	137.42	81.349	20.865	2.5723e-06	46.387	0.0056425	0.0090609	0.0024703	1131.1	8.9936e-05	9.9468e-05	1398.6	305.67	9.0513e-05	9.8621e-05	462.76	138.4	84.522	22.171	9.3142e-05	47.965	156.150	160.192	271.850	95.213	332.594	161.342	95.293	99.012	223.820	155.642	98.032	102.702	103.182	107.790	268.249	106.419	-8191	255	
57960.859	1	1	0	0	0.084707	0.045206	0.064718	0.1225	0.24824	0.29177	0.049681	0.30178	0.14114	0.01083	0.29234	0.11124	0.20336	0.15236	0.098744	0.20353	-3.9813	-4.6292	-3.825	-4.8042	-4.2729	-4.0479	-4.8812	-4.0188	-4.2646	-4.5104	-3.9729	-4.6542	-4.2042	-3.8937	-4.6542	-4.1083	82.914	382.911	221.447	410.144	381.230	253.053	389.548	346.542	141.299	415.570	392.874	345.348	391.945	122.261	340.469	391.855	0.00043145	0.0013483	0.00014204	1152.1	4.6963e-06	5.8832e-06	1429	308.2	7.0283e-08	9.6116e-06	464.03	138.84	82.199	20.887	7.5457e-06	47.167	0.0056073	0.0089664	0.0024744	1133.9	9.098e-05	0.00010026	1402.2	307.89	9.1638e-05	0.00010045	465.71	139.91	85.348	22.412	9.4933e-05	48.844	169.630	200.613	169.698	95.423	403.884	89.585	94.908	99.578	360.173	168.055	98.172	102.345	103.074	107.751	300.434	106.946	-8191	255	
57960.957	1	1	0	0	0.12286	0.16108	0.23631	0.23449	0.076669	0.069179	0.31852	0.1348	0.030909	0.10997	0.066299	0.14925	0.17434	0.20833	0.23225	0.12034	-3.9125	-4.5854	-3.8021	-4.6354	-4.25	-3.8271	-4.9208	-4.1292	-4.1021	-4.6562	-3.9396	-4.5146	-4.4104	-3.7667	-4.7146	-4.2	162.090	186.313	248.505	397.500	323.612	203.341	334.508	145.158	172.503	123.187	97.176	377.406	143.851	337.976	100.515	145.932	0.00043711	0.00024579	0.00025404	1153.7	9.6864e-06	5.9845e-06	1435.1	311.72	6.8101e-06	2.0697e-06	470.09	138.7	82.626	20.77	5.4049e-06	47.108	0.0057832	0.0092679	0.0025925	1139.3	9.6492e-05	0.0001061	1409.6	310.34	9.58e-05	0.00010369	468.27	140.06	85.264	22.341	9.465e-05	48.349	157.528	114.870	219.852	95.183	211.246	227.616	94.804	98.935	294.932	392.954	98.256	102.429	102.917	107.527	312.899	106.307	-8191	255	
57961.051	1	1	0	0	0.28576	0.25299	0.028546	0.13434	0.22752	0.27147	0.19761	0.19322	0.038103	0.022234	0.013525	0.14544	0.2886	0.08941	0.15922	0.1074	-3.6542	-4.65	-3.7083	-4.4583	-4.5375	-3.6854	-4.9604	-4.1646	-3.8979	-4.6833	-4.0917	-4.3542	-4.5292	-3.8396	-4.5917	-4.2229	94.254	366.919	251.113	203.143	328.781	350.192	390.778	299.147	282.202	288.707	349.031	286.688	341.845	298.487	265.166	377.445	0.00050684	0.0010986	8.4015e-05	1151.1	3.36e-06	9.9224e-06	1413.1	306.89	2.3974e-06	1.3332e-05	461.36	135.34	81.257	20.562	9.9435e-06	46.214	0.0055511	0.0088726	0.0024915	1129.3	9.0306e-05	0.00010064	1393.2	306.01	9.2547e-05	9.9752e-05	461.62	137.43	84.246	22.034	9.5284e-05	47.652	173.210	152.251	358.650	95.052	102.403	253.540	94.981	99.083	372.725	209.874	98.187	102.631	103.351	107.753	228.140	106.519	-8191	255	
57961.172	1	1	0	0	0.009184	0.020789	0.060426	0.18149	0.1649	0.022695	0.17747	0.034444	0.20475	0.15862	0.24045	0.098793	0.096966	0.031809	0.1385	0.26964	-3.5125	-4.7312	-3.8937	-4.3313	-4.5542	-3.7729	-4.8688	-4.4583	-3.8979	-4.7083	-4.0458	-4.2312	-4.7417	-3.7979	-4.5333	-4.4479	114.386	372.196	406.877	407.792	395.344	128.701	361.463	90.691	184.078	395.734	385.361	179.932	395.511	180.241	332.465	124.200	0.00033341	0.0006513	0.0001993	1144	4.8556e-06	9.9347e-06	1419.4	308.4	3.1066e-06	7.4832e-06	460.97	136.81	82.245	20.608	9.7649e-06	46.97	0.0055685	0.0089707	0.0025072	1126.4	8.8354e-05	9.8402e-05	1390.5	306.21	8.8884e-05	9.8921e-05	463.7	138.51	84.724	22.222	9.4522e-05	48.11	183.757	260.772	186.031	95.211	189.340	242.288	95.151	99.004	186.761	233.180	98.846	102.169	103.084	107.655	201.401	106.553	-8191	255	
57961.270	1	1	0	0	0.1893	0.10793	0.18972	0.34665	0.24747	0.12081	0.0905	0.30133	0.081212	0.17757	0.092914	0.026557	0.063797	0.18924	0.11363	0.21636	-3.4458	-4.6021	-4.0896	-4.1	-4.5125	-3.9	-4.625	-4.4354	-3.85	-4.5396	-4.2083	-3.9437	-4.7188	-3.7375	-4.3229	-4.7125	264.066	409.560	208.268	395.355	391.869	309.300	367.365	106.445	248.725	92.081	430.951	139.862	204.148	308.950	228.623	431.835	0.00048084	0.0013219	0.00033389	1145.1	5.1306e-06	1.5612e-06	1425.7	309.88	1.0251e-05	2.2771e-06	468.46	138.02	82.132	20.997	1.2304e-05	47.287	0.0055931	0.0090864	0.0025469	1133	9.0093e-05	0.00010341	1400.8	308.9	9.2805e-05	0.0001027	466.63	139.47	85.361	22.477	9.6749e-05	48.693	173.490	253.668	424.194	95.326	238.663	276.184	95.226	98.959	248.116	303.910	98.403	102.815	103.189	107.815	267.751	106.637	-8191	255	
57961.363	1	1	0	0	0.21149	0.15361	0.033616	0.17956	0.029393	0.027357	0.37502	0.26585	0.17081	0.12594	0.11018	0.35947	0.28878	0.16445	0.17366	0.12714	-3.4521	-4.7167	-4.175	-4.1062	-4.6583	-3.8917	-4.3187	-4.7417	-3.7479	-4.5229	-4.4146	-3.8375	-4.7	-3.8875	-4.0333	-4.5146	354.128	401.600	406.677	398.589	439.744	232.180	375.242	382.236	145.914	219.958	395.297	439.603	136.880	200.595	105.457	301.276	0.0004653	0.00033525	0.00021425	1156.1	2.1116e-06	2.8749e-06	1422.6	308.71	3.6701e-06	4.158e-06	464.03	137.49	81.626	20.553	4.3089e-06	46.288	0.0057364	0.0092631	0.002624	1138	9.2551e-05	0.00010627	1400.5	308.98	9.502e-05	0.00010568	466.15	138.69	85.005	22.225	9.9934e-05	47.707	159.186	88.293	231.133	95.426	188.998	262.317	94.948	98.960	230.307	220.062	98.666	102.586	102.960	107.963	346.420	106.372	-8191	255	
57961.461	1	1	0	0	0.074513	0.26589	0.1034	0.38598	0.25721	0.10611	0.20088	0.072056	0.18709	0.074713	0.1882	0.10012	0.20606	0.1211	0.21959	0.13891	-3.2521	-4.4313	-4.2958	-4.0188	-4.6333	-3.9125	-4.2792	-4.7417	-3.8271	-4.5729	-4.5271	-3.9167	-4.5521	-4.0062	-3.8812	-4.8667	441.125	191.089	206.691	93.241	261.006	267.401	401.281	422.063	145.682	352.496	155.318	343.537	414.074	361.464	169.107	357.412	0.00047945	0.00039352	0.00028618	1149.3	1.4789e-06	4.2595e-06	1423.1	310.35	1.4268e-05	2.9107e-06	461.06	137.01	81.98	20.68	3.7368e-06	46.411	0.0058404	0.0095977	0.002613	1133.3	9.4822e-05	0.00010823	1399	309.2	9.9878e-05	0.00011065	465.93	139.4	85.79	22.519	0.00010683	48.333	169.166	369.504	150.178	95.429	358.038	159.486	95.012	99.143	250.816	162.539	98.262	102.642	103.226	107.842	371.456	106.686	-8191	255	
57961.559	1	1	0	0	0.10312	0.10762	0.091215	0.13931	0.11635	0.091776	0.23119	0.24337	0.23108	0.062918	0.13002	0.13162	0.17506	0.23684	0.18787	0.19721	-3.3854	-4.3521	-4.4333	-3.8688	-4.6208	-3.975	-4.1562	-4.8021	-3.6979	-4.325	-4.5542	-3.7562	-4.7646	-4.1188	-3.8208	-4.8104	262.055	95.897	317.395	101.272	157.778	198.183	321.896	394.021	248.397	364.470	336.732	393.490	245.078	101.018	218.083	108.499	0.0004792	0.00014384	6.3737e-05	1151.5	9.893e-06	7.1873e-06	1423.5	309.66	7.1743e-06	1.0753e-05	465.86	138.11	82.339	20.889	6.1203e-06	47.407	0.0064362	0.010268	0.002817	1138.6	0.00010029	0.00011456	1403.3	309.59	0.00010103	0.00011004	468.43	139.94	86.182	22.607	0.00010238	48.84	169.374	147.854	320.589	95.152	214.317	190.186	94.790	99.042	235.809	210.932	98.622	101.996	102.770	108.079	141.159	106.919	-8191	255	
57961.652	1	1	0	0	0.062336	0.14201	0.097888	0.32155	0.12285	0.25018	0.18541	0.097515	0.38087	0.13621	0.22358	0.19336	0.15973	0.20668	0.10008	0.18386	-3.5896	-4.2792	-4.5208	-3.8063	-4.4646	-4.1583	-4.1312	-4.6479	-3.8563	-4.2875	-4.6312	-3.8458	-4.6	-4.2	-3.7979	-4.6792	91.103	328.583	370.640	95.183	143.948	303.415	387.933	136.782	140.431	212.522	195.123	118.063	421.250	106.752	328.971	363.455	0.00055153	0.00062001	0.00032192	1155.4	5.4612e-06	1.2068e-05	1426.4	312.52	1.353e-05	5.2682e-06	468.51	138.81	82.456	20.795	7.1606e-06	47.028	0.0062156	0.010025	0.0027502	1141.8	9.9698e-05	0.00011212	1406	311.53	0.00010061	0.00010946	468.99	140.35	86.013	22.514	9.8419e-05	48.452	157.371	86.388	198.319	95.409	177.191	186.690	95.041	99.096	177.493	284.239	98.563	102.775	103.329	107.774	206.666	106.849	-8191	255	
57961.773	1	1	0	0	0.072392	0.1815	0.28642	0.12683	0.13238	0.07886	0.21139	0.10181	0.15482	0.086746	0.22367	0.11904	0.31815	0.1876	0.09557	0.15383	-3.6583	-4.1479	-4.7333	-3.9354	-4.3625	-4.3	-3.9188	-4.7312	-3.9667	-4.0167	-4.6458	-3.8833	-4.3458	-4.4167	-3.8187	-4.675	284.331	325.791	108.181	427.787	376.492	334.192	384.791	422.316	171.833	250.005	410.787	379.312	403.054	110.417	177.715	297.578	0.00048232	0.0011178	0.0003168	1148.4	6.2754e-06	8.583e-06	1410.5	308.39	6.6481e-06	5.9039e-06	461.73	136.27	81.723	20.562	5.0325e-06	46.323	0.0058068	0.0093759	0.0025307	1131.3	9.2401e-05	0.00010245	1386.4	306.69	9.501e-05	0.0001024	460.61	137.8	84.706	22.062	9.423e-05	47.585	152.946	328.628	207.616	95.083	398.664	236.318	94.844	99.009	177.338	399.800	98.463	102.427	103.125	108.020	103.231	106.480	-8191	255	
57961.867	1	1	0	0	0.22973	0.19865	0.17502	0.33268	0.15831	0.1624	0.25544	0.071465	0.10859	0.26873	0.18639	0.066304	0.075638	0.03393	0.10798	0.32783	-3.6854	-3.9437	-4.4125	-3.9188	-4.2229	-4.6604	-3.9854	-4.8375	-4.0896	-4.0292	-4.6958	-3.7438	-4.1167	-4.4896	-3.7125	-4.6125	234.069	313.057	389.111	106.644	146.492	375.412	369.773	98.778	86.084	83.203	398.907	424.685	406.217	104.497	405.290	411.653	0.00045995	0.00034765	0.00011737	1140.1	1.9892e-06	1.0406e-05	1424.6	307.4	4.4579e-06	2.6978e-05	462.58	135.94	81.383	20.709	7.184e-06	46.439	0.0055307	0.0087767	0.0024023	1124.1	8.665e-05	9.5569e-05	1388.2	306.09	8.678e-05	9.2824e-05	460.9	137.56	84.288	22.047	8.9011e-05	47.761	178.157	423.171	148.244	95.365	296.148	230.169	94.795	99.213	194.115	223.146	98.219	102.856	102.646	107.970	255.036	106.466	-8191	255	
57961.965	1	1	0	0	0.26119	0.26756	0.13105	0.29537	0.26035	0.1768	0.18521	0.13778	0.22948	0.13026	0.021495	0.14569	0.13634	0.079191	0.15696	0.19722	-3.9062	-3.7562	-4.6687	-3.9979	-4.1042	-4.6833	-3.8688	-4.6854	-4.1854	-3.7083	-4.7937	-3.9062	-4.0542	-4.6104	-3.5917	-4.4896	300.904	320.154	278.975	395.078	363.488	289.527	391.156	184.887	198.264	178.462	408.719	209.155	416.616	300.727	99.733	289.072	0.00053875	0.00077974	0.00027593	1155	6.3171e-07	1.2835e-05	1421.6	308.1	8.0113e-06	4.947e-06	464.68	138.6	82.521	20.993	4.4597e-06	46.994	0.0052623	0.0082297	0.0023332	1133.3	8.3884e-05	9.2955e-05	1395.5	306.74	8.5091e-05	9.2321e-05	463.89	139.07	84.914	22.236	8.9404e-05	48.274	159.843	127.306	211.754	95.693	131.637	179.385	94.813	98.928	192.057	368.851	98.653	102.242	102.935	107.997	404.974	106.470	-8191	255	
57962.062	1	1	0	0	0.17869	0.050284	0.029129	0.081818	0.061392	0.17173	0.12707	0.26256	0.12416	0.077746	0.25346	0.38997	0.16536	0.069391	0.082497	0.20806	-3.9417	-3.6875	-4.7083	-4.125	-4.0375	-4.5938	-4.0104	-4.4729	-4.2417	-3.7938	-4.6229	-4.1375	-4.1896	-4.7208	-3.9417	-4.6167	85.421	158.937	383.021	421.235	116.522	125.458	404.548	369.304	158.578	312.065	90.104	432.644	400.799	404.031	261.653	222.611	0.00054585	0.0002678	0.00025779	1154.6	1.1149e-05	3.6148e-06	1414.7	307.34	9.0656e-06	9.3556e-06	461.25	136.52	81.724	20.569	4.2094e-06	46.326	0.0052902	0.0083814	0.002353	1135.3	8.4374e-05	9.2499e-05	1389.9	306.06	8.4408e-05	9.2805e-05	460.59	137.62	84.106	21.846	8.6165e-05	47.165	168.356	183.029	141.920	95.229	234.191	422.632	94.852	98.880	254.651	267.413	98.526	102.512	102.690	107.687	250.575	106.473	-8191	255	
57962.133	1	1	0	0	0.057663	0.16271	0.020458	0.18943	0.096235	0.087502	0.23292	0.23216	0.28428	0.17001	0.060131	0.2999	0.21498	0.086931	0.061324	0.036696	-4.1521	-3.8667	-4.5729	-4.3562	-3.8854	-4.6021	-4.05	-4.2646	-4.5146	-3.8146	-4.7083	-4.1208	-3.8563	-4.7583	-3.8083	-4.1708	238.181	365.935	260.115	298.696	150.681	199.514	325.109	365.126	123.181	266.734	345.541	437.524	438.597	319.879	371.381	163.401	0.0004081	0.00097428	0.00034644	1146.2	5.0795e-06	4.1114e-06	1405.7	306.71	6.6065e-06	1.1544e-05	459.4	135.99	80.943	20.68	4.2691e-06	46.387	0.0049535	0.0079801	0.0022175	1124.7	7.7427e-05	8.6358e-05	1382.2	303.66	7.7904e-05	8.5885e-05	458.08	136.61	83.311	21.819	8.0752e-05	47.263	153.046	162.220	200.435	95.570	247.261	429.098	95.173	99.071	226.681	239.453	98.850	102.559	103.087	107.601	271.707	106.844	-8191	255	
57962.254	1	1	0	0	0.087932	0.19201	0.22083	0.25369	0.26691	0.1326	0.16084	0.098662	0.18604	0.18079	0.14905	0.14126	0.17142	0.1654	0.30307	0.09045	-4.3417	-3.6583	-4.3854	-4.4	-4.0354	-4.7604	-4.3333	-4.2396	-4.6896	-3.6583	-4.4333	-4.5271	-3.6917	-4.6562	-4.1	-3.9375	406.178	101.142	85.934	374.100	160.551	364.048	357.006	86.244	289.451	358.495	346.864	359.165	247.140	90.703	276.812	285.616	0.00047837	0.0012543	0.00016575	1155	9.5488e-06	4.6603e-06	1419.3	308.7	4.2214e-06	3.7767e-06	464.07	137.17	81.73	20.679	2.5494e-06	46.967	0.0047297	0.0075844	0.0021156	1128.9	7.5408e-05	8.3981e-05	1387.4	305.06	7.57e-05	8.5474e-05	460.33	137.87	83.817	21.888	7.9964e-05	47.847	161.486	110.043	203.525	95.465	171.283	178.157	95.094	98.848	270.290	124.241	98.191	102.692	103.229	107.919	92.840	106.541	-8191	255	
