BOXY.EXE: ISS Imagent and Oximeter Data Acquisition Program Version 0.80
Ascii Record File

#ACQ INFORMATION
2  Detector Channels 
16  External MUX Channels 
1  Auxiliary Channels 
5000  Waveform (CCF) Frequency (Hz)
1  Waveforms Skipped 
30  Waveforms Averaged 
1  Cycles Averaged 
16  Acquisitions per Waveform 
10.0806  Updata Rate (Hz) 

#FILE INFORMATION
TRUE -- External MUX Channel results are PARSED.
FALSE -- AC DC and Phase are NOT grouped.
TRUE -- Companion Program Settings File CREATED.
FALSE -- AC data not excluded
FALSE -- DC data not excluded
FALSE -- Phase data not excluded
FALSE -- Auxillary Chn. data not excluded
Tab delimiters

#CALIBRATION STATE
TRUE -- Waveform Calibration Values APPLIED.


#AUX CALIBRATION VALUES
Val Type	aux-1	

Term	1.0000e+00	
Factor	0.0000e+00	


#WF CALIBRATION VALUES
A = Detector Channel
Val Type	A-AC1	A-AC2	A-AC3	A-AC4	A-AC5	A-AC6	A-AC7	A-AC8	A-AC9	A-AC10	A-AC11	A-AC12	A-AC13	A-AC14	A-AC15	A-AC16	A-DC1	A-DC2	A-DC3	A-DC4	A-DC5	A-DC6	A-DC7	A-DC8	A-DC9	A-DC10	A-DC11	A-DC12	A-DC13	A-DC14	A-DC15	A-DC16	A-Ph1	A-Ph2	A-Ph3	A-Ph4	A-Ph5	A-Ph6	A-Ph7	A-Ph8	A-Ph9	A-Ph10	A-Ph11	A-Ph12	A-Ph13	A-Ph14	A-Ph15	A-Ph16	

Term	0.00000e+00	0.00000e+00	0.00000e+00	0.00000e+00	0.00000e+00	0.00000e+00	0.00000e+00	0.00000e+00	0.00000e+00	0.00000e+00	0.00000e+00	0.00000e+00	0.00000e+00	0.00000e+00	0.00000e+00	0.00000e+00	0.00000e+00	0.00000e+00	0.00000e+00	0.00000e+00	0.00000e+00	0.00000e+00	0.00000e+00	0.00000e+00	0.00000e+00	0.00000e+00	0.00000e+00	0.00000e+00	0.00000e+00	0.00000e+00	0.00000e+00	0.00000e+00	0.00000e+00	0.00000e+00	0.00000e+00	0.00000e+00	0.00000e+00	0.00000e+00	0.00000e+00	0.00000e+00	0.00000e+00	0.00000e+00	0.00000e+00	0.00000e+00	0.00000e+00	0.00000e+00	0.00000e+00	0.00000e+00	
Factor	1.00000e+00	1.00000e+00	1.00000e+00	1.00000e+00	1.00000e+00	1.00000e+00	1.00000e+00	1.00000e+00	1.00000e+00	1.00000e+00	1.00000e+00	1.00000e+00	1.00000e+00	1.00000e+00	1.00000e+00	1.00000e+00	1.00000e+00	1.00000e+00	1.00000e+00	1.00000e+00	1.00000e+00	1.00000e+00	1.00000e+00	1.00000e+00	1.00000e+00	1.00000e+00	1.00000e+00	1.00000e+00	1.00000e+00	1.00000e+00	1.00000e+00	1.00000e+00	X	X	X	X	X	X	X	X	X	X	X	X	X	X	X	X	

B = Detector Channel
Val Type	B-AC1	B-AC2	B-AC3	B-AC4	B-AC5	B-AC6	B-AC7	B-AC8	B-AC9	B-AC10	B-AC11	B-AC12	B-AC13	B-AC14	B-AC15	B-AC16	B-DC1	B-DC2	B-DC3	B-DC4	B-DC5	B-DC6	B-DC7	B-DC8	B-DC9	B-DC10	B-DC11	B-DC12	B-DC13	B-DC14	B-DC15	B-DC16	B-Ph1	B-Ph2	B-Ph3	B-Ph4	B-Ph5	B-Ph6	B-Ph7	B-Ph8	B-Ph9	B-Ph10	B-Ph11	B-Ph12	B-Ph13	B-Ph14	B-Ph15	B-Ph16	

Term	0.00000e+00	0.00000e+00	0.00000e+00	0.00000e+00	0.00000e+00	0.00000e+00	0.00000e+00	0.00000e+00	0.00000e+00	0.00000e+00	0.00000e+00	0.00000e+00	0.00000e+00	0.00000e+00	0.00000e+00	0.00000e+00	0.00000e+00	0.00000e+00	0.00000e+00	0.00000e+00	0.00000e+00	0.00000e+00	0.00000e+00	0.00000e+00	0.00000e+00	0.00000e+00	0.00000e+00	0.00000e+00	0.00000e+00	0.00000e+00	0.00000e+00	0.00000e+00	3.94855e+01	-1.32128e+02	-1.27181e+02	-1.84490e+02	-6.72028e+01	-7.11501e+01	-1.59062e+02	-1.62015e+02	-4.80925e+01	-6.50300e+01	-1.70682e+02	-1.71722e+02	-1.81139e+02	-1.78172e+02	-6.66378e+01	-1.50327e+02	
Factor	6.14565e-05	1.43988e-04	4.12154e-05	2.02262e-01	1.95690e-06	1.65095e-06	1.56930e-01	5.15347e-02	2.54719e-06	1.60944e-06	8.43913e-02	3.21709e-02	2.84674e-02	9.18122e-03	1.99602e-06	1.31396e-02	2.11529e-05	3.98913e-05	1.12962e-05	1.08715e-01	3.85736e-07	4.59041e-07	7.93570e-02	2.79075e-02	3.67363e-07	4.60695e-07	4.42269e-02	1.68013e-02	1.55642e-02	5.02853e-03	4.02019e-07	6.94216e-03	X	X	X	X	X	X	X	X	X	X	X	X	X	X	X	X	



#DISTANCE SETTINGS
A = Detector Channel
A-1	A-2	A-3	A-4	A-5	A-6	A-7	A-8	A-9	A-10	A-11	A-12	A-13	A-14	A-15	A-16	

2.5000e+00	3.0000e+00	2.5000e+00	3.0000e+00	2.0000e+00	3.0000e+00	1.5000e+00	3.0000e+00	3.0000e+00	3.0000e+00	3.0000e+00	3.0000e+00	3.0000e+00	3.0000e+00	1.5000e+00	3.0000e+00	

B = Detector Channel
B-1	B-2	B-3	B-4	B-5	B-6	B-7	B-8	B-9	B-10	B-11	B-12	B-13	B-14	B-15	B-16	

1.0000e+01	1.0000e+01	1.0000e+01	1.4400e+00	1.0000e+01	1.0000e+01	1.5100e+00	1.9400e+00	1.0000e+01	1.0000e+01	1.9900e+00	2.4900e+00	2.4100e+00	2.9000e+00	1.0000e+01	2.9800e+00	




#DATA BEGINS
time	group	step	mark	flag	A-AC1	A-AC2	A-AC3	A-AC4	A-AC5	A-AC6	A-AC7	A-AC8	A-AC9	A-AC10	A-AC11	A-AC12	A-AC13	A-AC14	A-AC15	A-AC16	A-DC1	A-DC2	A-DC3	A-DC4	A-DC5	A-DC6	A-DC7	A-DC8	A-DC9	A-DC10	A-DC11	A-DC12	A-DC13	A-DC14	A-DC15	A-DC16	A-Ph1	A-Ph2	A-Ph3	A-Ph4	A-Ph5	A-Ph6	A-Ph7	A-Ph8	A-Ph9	A-Ph10	A-Ph11	A-Ph12	A-Ph13	A-Ph14	A-Ph15	A-Ph16	B-AC1	B-AC2	B-AC3	B-AC4	B-AC5	B-AC6	B-AC7	B-AC8	B-AC9	B-AC10	B-AC11	B-AC12	B-AC13	B-AC14	B-AC15	B-AC16	B-DC1	B-DC2	B-DC3	B-DC4	B-DC5	B-DC6	B-DC7	B-DC8	B-DC9	B-DC10	B-DC11	B-DC12	B-DC13	B-DC14	B-DC15	B-DC16	B-Ph1	B-Ph2	B-Ph3	B-Ph4	B-Ph5	B-Ph6	B-Ph7	B-Ph8	B-Ph9	B-Ph10	B-Ph11	B-Ph12	B-Ph13	B-Ph14	B-Ph15	B-Ph16	aux-1	digaux	

1685.302	1	1	0	512	0.15707	0.22183	0.092985	0.11005	0.076104	0.30602	0.056248	0.026301	0.2607	0.23032	0.28168	0.1632	0.10729	0.284	0.25891	0.22758	-1.1958	-1.5667	-1.0208	-2.0646	-1.1479	-1.1333	-1.95	-1.0396	-1.6437	-1.7437	-1.125	-1.9021	-1.3271	-1.3146	-1.9438	-0.92708	316.084	54.084	75.027	382.978	256.467	94.390	72.702	353.840	210.615	92.615	292.829	44.960	148.086	361.276	365.779	386.784	0.0011448	0.0016857	0.00092125	387.03	5.3236e-05	7.8763e-06	624.94	123.97	5.4686e-05	2.0419e-05	244.01	91.907	43.544	15.114	1.3411e-05	41.039	0.084232	0.15849	0.04495	819.99	0.0015205	0.0017933	935.88	230.95	0.0013689	0.0016981	406.64	152.81	98.908	32.923	0.0013929	65.801	319.967	86.407	122.286	49.240	272.802	165.293	48.946	54.529	170.163	250.180	53.426	57.770	57.976	62.655	341.106	60.640	-8191	255	
1685.398	1	1	0	0	0.25284	0.34193	0.10742	0.1498	0.054613	0.20853	0.20842	0.23239	0.15708	0.085939	0.096694	0.27027	0.31074	0.10053	0.17883	0.25934	-1.2354	-1.8521	-0.65625	-1.8667	-1.3979	-1.0063	-1.8792	-0.96667	-1.3229	-1.9104	-1.0854	-1.7542	-1.4813	-1.0875	-1.7396	-1.4188	40.508	211.705	350.010	51.119	250.693	249.034	371.389	257.185	366.774	387.747	363.725	245.601	259.058	270.719	92.736	379.159	0.0012645	0.00057817	0.00042343	387.4	1.4e-05	9.6181e-06	628.27	126.55	1.3241e-05	3.4457e-05	246.25	93.378	43.737	15.122	1.6213e-05	41.778	0.072695	0.13559	0.038144	752.58	0.0012796	0.0015009	884.43	215.16	0.0011487	0.0014123	381.82	144.22	89.747	30.031	0.0011488	62.048	342.425	348.810	69.887	48.765	249.445	361.883	48.988	54.450	273.685	182.597	52.972	57.402	57.609	62.357	274.806	60.715	-8191	255	
1685.519	1	1	0	0	0.1732	0.050653	0.25933	0.1179	0.18362	0.082231	0.2419	0.13465	0.090598	0.12039	0.20173	0.23352	0.11181	0.1417	0.34841	0.19421	-0.88958	-1.7458	-0.86458	-1.6104	-1.5167	-1.0542	-2.0979	-1.0979	-1.0958	-1.775	-1.0479	-1.5604	-1.5396	-0.96458	-1.8083	-1.3563	288.792	173.629	303.266	291.755	290.576	253.589	269.051	240.117	271.659	225.079	332.693	361.024	192.216	234.565	161.690	97.694	0.0017755	0.0017761	0.0005641	385.78	1.8966e-05	1.0504e-05	625.19	126.44	1.761e-05	1.2372e-05	249.19	94.416	44.348	15.343	1.3197e-05	41.867	0.059897	0.11303	0.031991	698.11	0.0011026	0.0013202	859.48	207.89	0.0010669	0.0013531	380.58	144.64	91.166	30.66	0.0012134	63.739	280.391	219.555	164.221	49.507	247.586	317.863	49.028	54.006	234.188	171.386	52.920	57.741	58.089	62.468	393.960	60.935	-8191	255	
1685.615	1	1	0	0	0.30916	0.24427	0.1431	0.084238	0.020103	0.16555	0.18281	0.18274	0.058328	0.21665	0.11228	0.21994	0.059881	0.24932	0.10308	0.25855	-0.70208	-1.8333	-1.1208	-1.5417	-1.7062	-0.95833	-1.9667	-1.4062	-1.1083	-1.9188	-1.0688	-1.3375	-1.65	-1	-1.85	-1.4958	276.416	100.037	259.342	335.038	48.477	43.416	351.409	290.031	365.803	190.135	232.512	383.401	45.362	88.918	247.646	373.627	0.00052481	0.00067788	0.00034856	393.57	3.7112e-05	3.174e-05	632.03	126.47	3.471e-06	2.6674e-05	249.97	94.699	44.816	15.406	4.2829e-05	41.806	0.064946	0.12233	0.034829	726.48	0.0011895	0.0014168	879.54	214.26	0.0011397	0.0014405	389.9	147.88	94.205	31.696	0.0012888	64.873	248.178	194.402	228.390	49.645	258.033	145.727	48.953	54.188	207.238	170.902	52.818	58.003	58.432	62.623	167.943	60.832	-8191	255	
1685.687	1	1	0	0	0.18237	0.12429	0.089964	0.099449	0.034824	0.062679	0.17674	0.02865	0.32246	0.023152	0.28465	0.2407	0.16182	0.10008	0.12175	0.10431	-0.64792	-1.8021	-0.99167	-1.5083	-1.8062	-1.0396	-1.75	-1.3167	-0.93958	-1.825	-1.1729	-1.3958	-1.6521	-0.85208	-1.6104	-1.7396	200.374	219.251	169.231	394.571	146.389	137.903	316.469	294.200	269.444	217.034	64.449	316.771	290.626	389.017	208.535	61.274	0.00073642	0.0013789	0.00031257	384.67	8.5241e-06	3.043e-05	630.29	125.77	2.858e-05	2.6821e-05	245.07	93.016	44.569	14.99	1.4193e-05	41.079	0.069114	0.13036	0.037107	750.57	0.0012901	0.0015443	898.19	221.81	0.0012642	0.0016052	404.67	153.63	100.9	33.916	0.0015013	68.098	290.251	175.961	191.790	49.241	149.065	217.953	49.223	54.204	278.499	81.608	53.266	57.753	58.291	62.638	292.660	61.156	-8191	255	
1685.783	1	1	0	0	0.22893	0.057656	0.10821	0.17139	0.27593	0.18051	0.014123	0.18939	0.17457	0.073333	0.31784	0.020358	0.16583	0.062444	0.27829	0.3127	-0.78542	-1.9125	-1.1833	-1.375	-1.8708	-1.0083	-1.65	-1.7125	-1.0812	-1.8021	-1.35	-1.1521	-1.8375	-1.1833	-1.4208	-1.7021	348.205	338.648	60.291	79.427	357.109	205.559	221.404	42.659	307.197	282.841	265.390	75.638	311.313	380.106	231.844	348.950	0.00044122	0.00092397	0.00018813	385.94	1.1587e-05	1.9077e-05	626.26	124.57	3.5329e-05	1.8251e-05	245.35	92.76	43.627	14.866	3.9454e-05	41.181	0.080453	0.15237	0.043206	804.18	0.0014881	0.0017854	940.94	236.99	0.0014866	0.0018852	429.73	162.79	109.08	36.265	0.0016866	70.811	316.806	51.142	75.927	49.519	187.467	215.431	48.854	53.577	93.971	116.605	52.993	57.880	58.163	62.049	233.945	60.849	-8191	255	
1685.879	1	1	0	0	0.066009	0.28634	0.16232	0.45618	0.061441	0.19154	0.22811	0.19167	0.099035	0.17951	0.10964	0.079924	0.13873	0.18248	0.15077	0.13487	-0.54375	-1.6729	-1.3625	-1.125	-1.9854	-0.9375	-1.4458	-1.6688	-1.0854	-1.6771	-1.6167	-1.0229	-1.9375	-1.1167	-1.3604	-2.0146	261.443	344.672	138.592	370.512	84.222	182.367	313.108	307.505	246.806	65.333	217.111	377.708	46.018	85.270	226.447	343.037	0.0026169	0.0011039	0.00052179	384.18	1.862e-05	4.3456e-05	625.58	124	2.1042e-05	1.87e-05	243.76	92.23	43.517	14.868	1.2206e-05	40.91	0.089712	0.16917	0.048246	853.88	0.0016615	0.0019896	975.29	247.17	0.0016209	0.0020395	444.32	167.97	114.14	37.998	0.0018365	73.352	313.208	164.794	113.206	49.752	325.257	131.999	49.109	53.859	127.857	372.714	52.812	57.656	58.057	62.546	60.506	60.916	-8191	255	
1686.000	1	1	0	0	0.31086	0.21431	0.11384	0.27611	0.15232	0.21925	0.054441	0.23842	0.15873	0.30343	0.24218	0.29628	0.16582	0.29175	0.23674	0.35847	-0.7	-1.85	-1.4854	-0.97708	-1.9208	-1.2583	-1.4979	-1.8354	-0.91667	-1.6583	-1.7062	-1.0833	-2.0146	-1.2646	-1.3625	-1.8312	101.572	269.685	342.411	120.360	132.211	85.889	263.656	43.229	265.712	366.980	309.514	224.224	173.575	384.803	324.956	236.095	0.0011385	0.00062543	0.00051236	383.9	2.3732e-05	1.6202e-05	625.31	124.32	2.419e-05	1.0583e-05	242.56	91.338	42.854	14.726	3.9599e-06	40.595	0.097025	0.18214	0.051367	882.25	0.0017416	0.0020599	986.26	250.16	0.0016397	0.0020497	441.65	166.41	111.32	36.845	0.001733	71.197	380.816	270.566	118.666	48.756	231.318	52.538	48.707	53.598	203.359	136.144	53.261	57.316	58.136	62.899	61.434	61.552	-8191	255	
1686.094	1	1	0	0	0.069193	0.1119	0.19557	0.12	0.10817	0.17857	0.13009	0.096783	0.34759	0.033863	0.04283	0.38691	0.3023	0.078629	0.2328	0.14852	-0.69167	-1.3833	-1.6875	-1.1083	-1.6875	-1.2208	-1.2229	-2.025	-1.2396	-1.5083	-1.6938	-1.025	-1.7271	-1.3937	-0.9625	-2.0771	61.526	128.555	149.862	319.603	318.570	93.913	368.081	179.425	211.788	298.638	145.773	37.258	239.149	225.503	101.273	340.877	0.00090711	0.002936	0.00057391	387.9	7.0579e-06	1.7289e-05	624.5	124.46	2.6059e-05	2.3859e-05	245.54	91.815	43.645	14.873	1.4164e-05	41.002	0.090136	0.16911	0.047474	840.66	0.001595	0.0018899	954.71	240.81	0.0015152	0.0019117	431.75	163.03	109.13	36.259	0.0016785	70.528	345.340	77.611	233.855	49.370	189.210	92.674	49.431	54.318	235.128	61.368	53.679	57.611	57.916	62.298	59.507	60.738	-8191	255	
1686.192	1	1	0	0	0.13229	0.2645	0.05603	0.018225	0.26235	0.22066	0.40023	0.20993	0.26468	0.29297	0.25181	0.13394	0.17363	0.060315	0.24582	0.2164	-0.63125	-1.5208	-1.8521	-0.94167	-1.5	-1.6187	-1.3333	-1.8333	-1.2583	-1.4729	-1.8729	-0.96667	-1.7146	-1.5729	-0.88542	-2.0479	203.361	338.484	165.702	224.226	282.589	127.198	395.345	241.691	57.901	53.666	66.190	59.741	267.519	240.780	154.449	253.455	0.001029	0.0018777	0.00087603	381.95	1.3084e-05	9.2581e-06	627.9	125.88	1.5912e-05	2.9478e-05	244.84	92.538	44.317	15.044	5.8495e-06	41.158	0.088214	0.16599	0.046928	835.55	0.0015955	0.0018919	955.79	241.29	0.0015029	0.0018841	428.54	161.62	107.39	35.627	0.0016287	69.851	344.764	75.396	356.242	48.674	177.980	52.880	48.668	53.360	209.153	112.274	52.460	57.300	57.430	61.963	229.169	60.700	-8191	255	
1686.286	1	1	0	0	0.19316	0.22706	0.12289	0.25384	0.35484	0.14352	0.25741	0.24838	0.27015	0.012782	0.040664	0.19624	0.19615	0.078634	0.11019	0.2936	-0.82292	-1.1313	-1.8188	-1.1292	-1.4729	-1.5021	-1.0979	-1.7437	-1.2542	-1.1979	-2	-1.0542	-1.6708	-1.8021	-1.0667	-1.8542	146.642	385.367	242.890	92.337	359.926	375.769	371.655	46.428	166.190	102.076	212.361	293.543	273.889	350.291	376.653	364.015	0.0011031	0.0012084	0.00044513	388.51	4.9992e-05	3.2682e-05	625.32	125.89	3.0092e-05	2.208e-05	247.59	92.698	44.101	15.201	2.4587e-05	41.12	0.085633	0.16093	0.045565	822.55	0.0015495	0.0018393	946.24	238.39	0.0014631	0.0018334	424.93	160.38	106.26	35.224	0.0015812	69.313	289.235	215.442	153.036	48.528	337.642	285.125	48.602	53.945	157.941	381.404	53.027	57.722	58.383	62.364	269.556	61.056	-8191	255	
1686.382	1	1	0	0	0.10798	0.13434	0.073456	0.15605	0.20999	0.19768	0.13296	0.1144	0.20761	0.14793	0.19884	0.15916	0.1301	0.044304	0.32561	0.14677	-1.0729	-1.1417	-1.7521	-1.1833	-1.3	-1.725	-1.0125	-1.9042	-1.2208	-0.86458	-2.0208	-1.2083	-1.5063	-1.8792	-1	-1.7313	96.058	226.500	260.553	50.365	387.931	391.242	68.892	343.692	59.509	324.216	292.155	332.484	240.456	198.423	175.105	318.366	0.0014683	0.0022124	0.00086361	388.75	1.1017e-05	3.2336e-05	627.99	126.08	2.4222e-05	1.5676e-05	246.74	92.414	43.624	14.937	7.0505e-06	40.941	0.083185	0.15701	0.044528	818.63	0.0015394	0.0018429	950.5	239.32	0.0014854	0.0018657	428.64	161.95	107.51	35.653	0.0016346	69.733	321.575	284.288	377.772	48.498	372.492	153.714	48.000	53.770	267.441	166.672	52.375	57.400	57.546	61.474	311.238	59.916	-8191	255	
1686.479	1	1	0	0	0.027545	0.26246	0.13931	0.17734	0.22132	0.13208	0.045948	0.29516	0.2646	0.079621	0.034593	0.065155	0.36718	0.11857	0.19933	0.13054	-1.0938	-1.0271	-1.8354	-1.2437	-1.25	-1.8021	-1.2208	-1.5333	-1.4896	-0.95208	-1.9062	-1.2583	-1.2458	-1.7625	-1.0583	-1.6792	324.734	302.625	278.582	129.625	122.561	143.871	135.259	389.656	209.100	88.591	213.980	120.765	297.665	240.160	123.131	341.533	0.00031651	0.004753	0.00084503	380.02	9.1014e-06	2.5968e-05	623.55	125.01	3.8377e-05	1.7835e-05	246.78	92.34	43.257	14.845	1.0496e-05	40.637	0.086049	0.16101	0.045523	823.18	0.0015611	0.0018599	948.74	239.31	0.0014944	0.0018794	427.7	161.01	107.2	35.654	0.0016412	69.841	321.396	382.049	294.581	49.077	218.846	202.988	47.899	53.625	356.428	132.919	52.362	57.332	58.432	61.665	200.547	60.725	-8191	255	
1686.599	1	1	0	0	0.19949	0.11541	0.20541	0.12604	0.18832	0.11757	0.24122	0.2754	0.054215	0.35	0.26522	0.079241	0.40164	0.11442	0.19734	0.24496	-1.025	-0.9125	-1.9479	-1.2271	-1.1354	-1.9146	-0.92708	-1.6562	-1.6417	-0.89375	-1.7917	-1.5646	-1.3188	-1.9375	-1.1646	-1.7021	75.624	353.318	124.634	327.834	284.562	329.740	328.057	309.181	223.556	259.216	272.408	384.537	273.858	277.863	69.413	115.109	0.0013555	0.00097023	0.00048692	383.91	3.4455e-05	1.3031e-05	621.65	125.02	3.6916e-05	2.8844e-05	245.68	92.03	43.575	14.736	2.0687e-05	40.545	0.08696	0.16313	0.046167	827.6	0.0015656	0.0018571	947.23	238.36	0.0014842	0.0018616	426.8	160.91	107.31	35.589	0.0016403	69.795	327.140	97.035	150.333	49.131	164.407	70.802	48.780	53.565	103.249	147.360	52.779	57.225	57.726	61.999	178.311	60.573	-8191	255	
1686.695	1	1	0	0	0.17273	0.22244	0.21268	0.24063	0.096404	0.002691	0.14854	0.094535	0.21831	0.24506	0.089134	0.28787	0.2334	0.060228	0.26735	0.12853	-1.5729	-1.1958	-1.6396	-1.5375	-1.2104	-1.7542	-1.2604	-1.4667	-1.8917	-1.05	-1.8438	-1.5833	-0.95625	-1.9333	-1.0896	-1.2229	100.134	357.618	47.617	281.156	323.042	180.000	311.348	272.358	175.615	242.870	44.696	48.360	322.338	338.787	275.116	259.344	0.00062297	0.0038396	0.00052114	381.87	1.9377e-05	2.214e-05	626.83	123.98	5.0913e-05	4.1445e-06	242.12	91.779	43.871	14.954	2.1759e-05	41.035	0.08635	0.16256	0.046151	826.01	0.0015696	0.001865	952.59	238.99	0.0014969	0.0018713	426.65	161.13	106.61	35.541	0.0016187	69.713	317.993	201.301	384.845	48.168	264.286	275.630	48.507	53.643	350.046	51.457	52.990	57.159	58.543	62.379	244.013	60.518	-8191	255	
1686.792	1	1	0	0	0.23695	0.14064	0.13829	0.091176	0.13278	0.052632	0.1193	0.16289	0.11523	0.12601	0.23208	0.2013	0.17543	0.23725	0.15546	0.22576	-1.4375	-0.95625	-1.5938	-1.5604	-0.83333	-1.9438	-1.2708	-1.2	-1.7021	-1.05	-1.4229	-1.575	-1.0583	-1.7875	-1.3542	-1.3354	241.979	78.361	306.241	342.677	228.989	218.971	234.177	127.968	345.142	296.821	385.297	129.798	287.545	395.391	377.782	134.924	0.0014893	0.001865	0.00027948	382.89	2.1838e-05	1.3507e-05	628.51	125.14	3.2033e-05	1.2659e-05	247.3	92.172	43.816	14.796	3.6575e-05	40.642	0.086074	0.16338	0.046721	841.7	0.0016221	0.0019502	968.06	245.67	0.0015735	0.0019806	438.72	165.3	110.96	36.924	0.0017417	71.582	327.028	82.454	121.889	48.383	194.163	125.251	48.306	54.166	140.248	121.180	52.467	56.748	57.518	61.555	66.320	60.050	-8191	255	
1686.912	1	1	0	0	0.091208	0.21378	0.16409	0.14844	0.19141	0.32686	0.12274	0.13409	0.35818	0.3035	0.17758	0.25844	0.201	0.41271	0.14438	0.17584	-1.25	-0.93125	-1.5333	-1.7854	-1.0875	-1.9125	-1.3271	-1.0771	-1.8708	-1.1854	-1.5063	-1.7979	-0.80417	-1.6437	-1.5917	-0.88958	162.188	83.766	204.895	263.545	303.141	226.352	361.990	371.197	380.176	180.654	350.587	248.830	387.237	56.344	395.640	352.695	0.001382	0.0014534	0.00042441	382.65	6.1604e-06	2.8141e-05	620.87	124.4	6.4284e-05	1.774e-05	243.13	91.455	43.355	14.741	2.6384e-05	40.238	0.092824	0.17587	0.050154	870.95	0.0017298	0.0020666	984.31	251.54	0.001663	0.00209	445.66	168.48	114.6	38.214	0.00187	73.5	362.645	289.848	264.524	48.829	202.438	225.713	48.695	53.686	267.474	79.412	52.720	56.869	57.806	61.746	348.126	60.571	-8191	255	
1686.984	1	1	0	0	0.062879	0.234	0.11809	0.093954	0.14221	0.17409	0.096233	0.14602	0.34414	0.21681	0.17731	0.080751	0.1539	0.079489	0.12387	0.090663	-1.5042	-1.25	-1.3604	-1.9083	-0.97292	-1.6271	-1.5417	-1.1292	-1.8146	-1.4	-1.2625	-2	-1.1125	-1.6521	-1.7292	-1.0812	354.229	252.619	248.927	261.398	119.914	149.164	257.674	374.108	381.455	232.528	152.337	307.602	286.045	95.106	318.214	390.116	0.00099484	0.00023032	0.00048106	384.05	4.7691e-06	1.3967e-05	623.17	123.24	1.9823e-05	2.1646e-05	243.64	90.98	43.11	14.646	1.5606e-05	40.004	0.1002	0.1889	0.053534	900.95	0.0018317	0.002188	1004.2	257.25	0.0017488	0.0022071	457.3	172.99	118.72	39.388	0.0019704	74.979	314.321	235.441	206.294	48.798	266.015	247.593	48.214	53.846	83.854	199.091	52.521	57.375	57.577	61.896	42.210	60.629	-8191	255	
1687.080	1	1	0	0	0.21356	0.12507	0.32611	0.062619	0.091768	0.17099	0.25196	0.22349	0.11641	0.071468	0.16383	0.13623	0.45291	0.22101	0.12859	0.28467	-1.5021	-1.3354	-1.3	-2.0854	-1.0312	-1.5521	-1.7708	-1.1021	-1.7167	-1.5	-1.2896	-1.9542	-1.1187	-1.3042	-1.7354	-0.87708	372.108	103.885	184.540	383.095	337.345	287.723	347.594	54.758	148.542	234.367	355.919	162.828	48.963	101.835	134.797	108.385	0.0010415	0.0027204	0.00036123	380.35	3.5198e-05	1.9645e-05	627.09	124.08	6.1663e-05	8.1003e-07	241.81	91.049	43.046	14.397	9.4691e-06	39.771	0.1043	0.19718	0.055889	925.26	0.0019123	0.0022833	1026.4	263.54	0.0018313	0.0022855	464.32	175.07	120.01	39.661	0.0019798	74.814	339.096	47.147	89.394	48.302	333.918	104.977	48.494	54.186	203.451	107.086	53.044	56.942	57.792	62.479	196.179	60.696	-8191	255	
