BOXY.EXE: ISS Imagent and Oximeter Data Acquisition Program Version 0.80
Ascii Record File

#ACQ INFORMATION
2  Detector Channels 
16  External MUX Channels 
1  Auxiliary Channels 
5000  Waveform (CCF) Frequency (Hz)
1  Waveforms Skipped 
30  Waveforms Averaged 
1  Cycles Averaged 
16  Acquisitions per Waveform 
10.0806  Updata Rate (Hz) 

#FILE INFORMATION
TRUE -- External MUX Channel results are PARSED.
FALSE -- AC DC and Phase are NOT grouped.
TRUE -- Companion Program Settings File CREATED.
FALSE -- AC data not excluded
FALSE -- DC data not excluded
FALSE -- Phase data not excluded
FALSE -- Auxillary Chn. data not excluded
Tab delimiters

#CALIBRATION STATE
TRUE -- Waveform Calibration Values APPLIED.


#AUX CALIBRATION VALUES
Val Type	aux-1	

Term	1.0000e+00	
Factor	0.0000e+00	


#WF CALIBRATION VALUES
A = Detector Channel
Val Type	A-AC1	A-AC2	A-AC3	A-AC4	A-AC5	A-AC6	A-AC7	A-AC8	A-AC9	A-AC10	A-AC11	A-AC12	A-AC13	A-AC14	A-AC15	A-AC16	A-DC1	A-DC2	A-DC3	A-DC4	A-DC5	A-DC6	A-DC7	A-DC8	A-DC9	A-DC10	A-DC11	A-DC12	A-DC13	A-DC14	A-DC15	A-DC16	A-Ph1	A-Ph2	A-Ph3	A-Ph4	A-Ph5	A-Ph6	A-Ph7	A-Ph8	A-Ph9	A-Ph10	A-Ph11	A-Ph12	A-Ph13	A-Ph14	A-Ph15	A-Ph16	

Term	0.00000e+00	0.00000e+00	0.00000e+00	0.00000e+00	0.00000e+00	0.00000e+00	0.00000e+00	0.00000e+00	0.00000e+00	0.00000e+00	0.00000e+00	0.00000e+00	0.00000e+00	0.00000e+00	0.00000e+00	0.00000e+00	0.00000e+00	0.00000e+00	0.00000e+00	0.00000e+00	0.00000e+00	0.00000e+00	0.00000e+00	0.00000e+00	0.00000e+00	0.00000e+00	0.00000e+00	0.00000e+00	0.00000e+00	0.00000e+00	0.00000e+00	0.00000e+00	0.00000e+00	0.00000e+00	0.00000e+00	0.00000e+00	0.00000e+00	0.00000e+00	0.00000e+00	0.00000e+00	0.00000e+00	0.00000e+00	0.00000e+00	0.00000e+00	0.00000e+00	0.00000e+00	0.00000e+00	0.00000e+00	
Factor	1.00000e+00	1.00000e+00	1.00000e+00	1.00000e+00	1.00000e+00	1.00000e+00	1.00000e+00	1.00000e+00	1.00000e+00	1.00000e+00	1.00000e+00	1.00000e+00	1.00000e+00	1.00000e+00	1.00000e+00	1.00000e+00	1.00000e+00	1.00000e+00	1.00000e+00	1.00000e+00	1.00000e+00	1.00000e+00	1.00000e+00	1.00000e+00	1.00000e+00	1.00000e+00	1.00000e+00	1.00000e+00	1.00000e+00	1.00000e+00	1.00000e+00	1.00000e+00	X	X	X	X	X	X	X	X	X	X	X	X	X	X	X	X	

B = Detector Channel
Val Type	B-AC1	B-AC2	B-AC3	B-AC4	B-AC5	B-AC6	B-AC7	B-AC8	B-AC9	B-AC10	B-AC11	B-AC12	B-AC13	B-AC14	B-AC15	B-AC16	B-DC1	B-DC2	B-DC3	B-DC4	B-DC5	B-DC6	B-DC7	B-DC8	B-DC9	B-DC10	B-DC11	B-DC12	B-DC13	B-DC14	B-DC15	B-DC16	B-Ph1	B-Ph2	B-Ph3	B-Ph4	B-Ph5	B-Ph6	B-Ph7	B-Ph8	B-Ph9	B-Ph10	B-Ph11	B-Ph12	B-Ph13	B-Ph14	B-Ph15	B-Ph16	

Term	0.00000e+00	0.00000e+00	0.00000e+00	0.00000e+00	0.00000e+00	0.00000e+00	0.00000e+00	0.00000e+00	0.00000e+00	0.00000e+00	0.00000e+00	0.00000e+00	0.00000e+00	0.00000e+00	0.00000e+00	0.00000e+00	0.00000e+00	0.00000e+00	0.00000e+00	0.00000e+00	0.00000e+00	0.00000e+00	0.00000e+00	0.00000e+00	0.00000e+00	0.00000e+00	0.00000e+00	0.00000e+00	0.00000e+00	0.00000e+00	0.00000e+00	0.00000e+00	-8.19620e+01	-1.31387e+02	-1.23947e+02	-1.82180e+02	-6.73124e+01	-7.06461e+01	-1.57453e+02	-1.62015e+02	-5.26248e+01	-5.03545e+01	-1.74207e+02	-1.70246e+02	-1.81558e+02	-1.76604e+02	-6.38946e+01	-1.49731e+02	
Factor	1.74277e-05	1.42447e-04	4.46277e-05	1.46431e-01	1.15311e-06	1.52853e-06	1.67333e-01	5.49476e-02	1.18619e-06	1.77604e-06	9.88515e-02	2.93754e-02	2.77491e-02	9.55186e-03	1.29905e-06	1.36949e-02	3.85813e-06	4.49126e-06	1.24776e-06	7.72237e-02	4.81768e-08	4.92794e-08	8.25847e-02	2.90232e-02	4.80511e-08	4.91379e-08	5.01668e-02	1.50227e-02	1.47801e-02	5.06767e-03	4.82509e-08	7.00746e-03	X	X	X	X	X	X	X	X	X	X	X	X	X	X	X	X	



#DISTANCE SETTINGS
A = Detector Channel
A-1	A-2	A-3	A-4	A-5	A-6	A-7	A-8	A-9	A-10	A-11	A-12	A-13	A-14	A-15	A-16	

2.5000e+00	3.0000e+00	2.5000e+00	3.0000e+00	2.0000e+00	3.0000e+00	1.5000e+00	3.0000e+00	3.0000e+00	3.0000e+00	3.0000e+00	3.0000e+00	3.0000e+00	3.0000e+00	1.5000e+00	3.0000e+00	

B = Detector Channel
B-1	B-2	B-3	B-4	B-5	B-6	B-7	B-8	B-9	B-10	B-11	B-12	B-13	B-14	B-15	B-16	

1.0000e+01	1.0000e+01	1.0000e+01	1.4400e+00	1.0000e+01	1.0000e+01	1.5100e+00	1.9400e+00	1.0000e+01	1.0000e+01	1.9900e+00	2.4900e+00	2.4100e+00	2.9000e+00	1.0000e+01	2.9800e+00	




#DATA BEGINS
time	group	step	mark	flag	A-AC1	A-AC2	A-AC3	A-AC4	A-AC5	A-AC6	A-AC7	A-AC8	A-AC9	A-AC10	A-AC11	A-AC12	A-AC13	A-AC14	A-AC15	A-AC16	A-DC1	A-DC2	A-DC3	A-DC4	A-DC5	A-DC6	A-DC7	A-DC8	A-DC9	A-DC10	A-DC11	A-DC12	A-DC13	A-DC14	A-DC15	A-DC16	A-Ph1	A-Ph2	A-Ph3	A-Ph4	A-Ph5	A-Ph6	A-Ph7	A-Ph8	A-Ph9	A-Ph10	A-Ph11	A-Ph12	A-Ph13	A-Ph14	A-Ph15	A-Ph16	B-AC1	B-AC2	B-AC3	B-AC4	B-AC5	B-AC6	B-AC7	B-AC8	B-AC9	B-AC10	B-AC11	B-AC12	B-AC13	B-AC14	B-AC15	B-AC16	B-DC1	B-DC2	B-DC3	B-DC4	B-DC5	B-DC6	B-DC7	B-DC8	B-DC9	B-DC10	B-DC11	B-DC12	B-DC13	B-DC14	B-DC15	B-DC16	B-Ph1	B-Ph2	B-Ph3	B-Ph4	B-Ph5	B-Ph6	B-Ph7	B-Ph8	B-Ph9	B-Ph10	B-Ph11	B-Ph12	B-Ph13	B-Ph14	B-Ph15	B-Ph16	aux-1	digaux	

1875.727	1	1	0	768	0.17907	0.1079	0.074037	0.24629	0.32057	0.10166	0.10086	0.36816	0.11845	0.21382	0.21383	0.057279	0.078329	0.25316	0.2134	0.20249	-0.95417	-2.1	-1.225	-1.7104	-2.0917	-1.3188	-2.1521	-2.0312	-1.175	-2.2958	-1.6854	-1.6458	-2.3979	-1.3729	-1.7062	-1.975	296.792	324.937	259.217	129.721	311.720	198.138	427.186	437.456	368.231	292.154	395.941	464.838	137.226	415.706	163.765	338.885	0.00055665	0.0011263	0.0010751	689.18	2.8991e-05	2.9699e-05	856.54	233.79	2.1694e-05	2.0072e-05	342.13	118.61	75.966	30.221	2.4525e-05	51.095	0.016645	0.019215	0.005361	991.28	0.00020757	0.00021247	1166.1	349.64	0.0002081	0.0002129	541.06	178.42	136.1	50.795	0.00020821	79.281	201.289	430.813	184.779	124.287	137.874	237.190	124.012	129.002	320.364	271.967	128.386	132.783	133.500	138.641	205.531	136.684	-8191	255	
1875.823	1	1	0	0	0.037653	0.037056	0.048563	0.27695	0.09052	0.3898	0.11026	0.15486	0.052653	0.22494	0.20338	0.26153	0.11901	0.47939	0.18458	0.27264	-1.0562	-2.2354	-1.4729	-1.5562	-2.1396	-1.3729	-1.9458	-2.0729	-1.2062	-2.1125	-1.8792	-1.5521	-2.425	-1.6354	-1.6854	-2.1104	389.596	284.610	265.667	465.297	457.455	453.845	268.092	118.722	468.904	161.186	391.563	160.869	402.502	446.297	122.604	116.294	0.00069914	0.00193	0.00020318	691.57	1.262e-05	1.5031e-05	855.9	236.04	1.399e-05	2.4973e-05	345.51	120.65	76.696	30.272	5.6788e-06	51.318	0.016685	0.019275	0.0053726	991.33	0.00020607	0.00020939	1165	347.67	0.00020289	0.00020759	539.65	178.37	135.45	50.684	0.00020545	79.213	231.583	233.254	355.601	124.384	468.421	303.762	124.144	129.220	237.919	411.661	127.604	133.246	133.822	138.531	234.837	136.505	-8191	255	
1875.919	1	1	0	0	0.2368	0.08592	0.20963	0.067964	0.23231	0.14211	0.15814	0.14038	0.0995	0.11006	0.27512	0.011569	0.31968	0.26733	0.11109	0.30515	-0.93958	-2.0687	-1.8667	-1.3062	-2.2604	-1.4354	-1.7417	-2.1396	-1.2042	-1.9833	-1.7708	-1.2563	-2.2604	-1.4771	-1.7375	-2.2271	271.884	358.417	192.525	118.039	174.241	140.603	396.543	135.612	310.886	252.042	446.908	154.489	162.307	294.715	146.706	427.073	0.00036207	0.0010926	0.00050263	694.32	1.6583e-05	2.4012e-05	850.79	234.37	1.615e-05	4.6466e-05	339.2	117.92	75.651	30.067	1.1035e-05	50.533	0.016622	0.01919	0.0054048	992.23	0.00020762	0.00021243	1168.3	349.37	0.00020616	0.00021181	540.15	178.25	135.7	50.633	0.00020804	78.675	206.167	169.216	274.517	124.391	241.089	297.875	123.637	129.735	223.795	340.939	128.147	132.975	133.499	138.736	313.166	136.564	-8191	255	
1876.015	1	1	0	0	0.027679	0.22849	0.17501	0.19186	0.22951	0.1693	0.039504	0.17714	0.13305	0.037693	0.22857	0.27096	0.10619	0.23949	0.086694	0.14647	-0.90625	-2.0542	-1.7542	-1.2792	-2.2833	-1.5562	-1.5812	-2.1042	-1.3417	-2.0875	-1.975	-1.2625	-2.1667	-1.6104	-1.6125	-2.2542	325.855	239.803	334.779	454.866	276.424	421.504	191.331	386.128	384.967	242.559	459.509	431.901	296.208	460.296	411.250	247.085	0.0005601	0.0025964	0.00098118	693.14	1.5875e-05	1.7917e-05	850.65	232.88	3.4495e-06	1.0931e-05	340.24	117.68	75.355	30.193	2.1331e-05	50.289	0.016733	0.019248	0.0053833	987.08	0.00020358	0.0002092	1158.4	345.36	0.00020267	0.00020682	534.9	175.73	133.74	49.966	0.00020277	77.768	248.864	137.995	241.134	124.669	313.671	401.495	123.960	129.569	233.666	411.336	127.678	133.252	134.013	138.465	172.248	136.650	-8191	255	
1876.111	1	1	0	0	0.21212	0.11709	0.17385	0.1763	0.1426	0.28827	0.14651	0.085642	0.046345	0.14158	0.29243	0.3444	0.12891	0.17968	0.1842	0.24217	-1.0521	-1.9583	-1.9625	-1.4167	-2.1542	-1.7313	-1.6583	-2.4104	-1.4396	-1.8208	-2.1875	-1.3125	-1.9958	-1.7229	-1.4792	-2.4208	295.594	357.181	136.899	379.737	432.956	404.452	457.686	412.859	241.074	165.707	352.976	354.561	295.082	237.290	311.520	426.455	0.00044798	0.00099833	0.00092638	693.91	4.7541e-06	2.4494e-05	861.75	234.32	3.4972e-05	1.8371e-05	341.65	119.48	75.765	29.95	7.3163e-06	50.978	0.016219	0.018815	0.0052566	981.49	0.00019892	0.00020491	1156.4	343.71	0.00019786	0.00020261	533.13	175.52	132.9	49.786	0.00019937	77.676	236.247	167.965	206.706	124.220	401.402	189.115	124.185	129.139	245.205	131.902	127.687	133.151	133.528	138.432	447.347	136.287	-8191	255	
1876.208	1	1	0	0	0.18175	0.31087	0.24126	0.016254	0.15444	0.076216	0.14812	0.13066	0.24845	0.11987	0.10268	0.12701	0.10714	0.17026	0.27717	0.21047	-0.9	-1.8417	-2.1437	-1.4979	-2.1625	-1.8937	-1.4188	-2.1896	-1.4729	-1.8062	-2.2167	-1.2854	-1.9625	-1.8958	-1.1521	-2.3125	376.522	317.926	364.665	297.533	437.616	376.788	193.944	446.466	182.363	455.944	208.281	157.398	174.061	410.664	414.462	413.255	0.00098542	0.0020247	0.0012809	695.11	1.9905e-05	9.4456e-06	859.16	238.97	1.9152e-05	4.9169e-05	351.21	119.87	76.889	30.889	1.4613e-05	51.702	0.01598	0.018463	0.0051484	979.74	0.00019654	0.00020317	1160.5	345.02	0.00019499	0.00019992	533.04	175.56	132.25	49.738	0.00019345	77.761	216.539	301.751	226.376	124.182	222.989	129.975	124.202	129.816	277.766	197.670	128.378	133.578	134.322	138.796	246.647	136.491	-8191	255	
1876.328	1	1	0	0	0.22049	0.19581	0.094704	0.11307	0.39231	0.26659	0.25522	0.24854	0.23798	0.20909	0.15217	0.31675	0.17802	0.20702	0.11423	0.31436	-1.075	-1.6208	-1.9854	-1.475	-1.8396	-1.9937	-1.4958	-2.275	-1.65	-1.4417	-2.3479	-1.5438	-2.025	-2.0958	-1.2771	-2.3167	238.441	430.129	266.488	367.034	262.503	148.148	442.359	404.953	131.195	174.111	195.655	434.938	459.515	424.023	425.482	441.123	0.00062389	0.0010862	0.00019254	701.26	2.6064e-05	1.5727e-05	866.35	238.02	1.3679e-05	2.397e-05	347.38	120.83	76.199	30.283	1.4812e-05	51.184	0.015547	0.018159	0.0050405	979.25	0.00019399	0.00020029	1163.2	344.41	0.00019591	0.00020096	535.47	176.65	133.77	50.074	0.00019951	77.863	235.086	420.634	231.487	124.763	373.857	179.154	123.734	129.685	223.194	256.429	128.525	132.727	134.379	138.534	359.597	137.103	-8191	255	
1876.423	1	1	0	0	0.142	0.15916	0.28368	0.20937	0.20772	0.18623	0.34251	0.14821	0.029987	0.026654	0.3066	0.19245	0.23496	0.14479	0.17247	0.22047	-1.4229	-1.3667	-2.0917	-1.525	-1.6688	-2.1104	-1.3625	-2.1833	-1.6583	-1.2271	-2.2854	-1.4958	-1.6521	-2.1125	-1.1396	-2.05	287.776	200.947	372.818	414.752	159.314	361.397	395.704	395.448	373.885	283.630	288.633	172.562	261.033	150.717	274.168	401.759	0.00041539	0.0015564	0.0013125	704.77	1.4765e-05	2.6608e-05	864.1	236.98	1.131e-05	1.7557e-05	340.91	118.26	76.536	30.053	4.3404e-06	50.56	0.016101	0.018619	0.0051582	985.93	0.00019844	0.00020383	1161.9	345.09	0.00019888	0.00020364	532.78	175.63	133.78	49.88	0.000203	77.902	222.828	232.928	219.020	124.742	261.608	207.501	123.748	129.694	254.634	470.368	128.041	132.868	134.503	138.156	389.783	136.687	-8191	255	
1876.519	1	1	0	0	0.27931	0.1312	0.19683	0.2638	0.074009	0.22178	0.27171	0.12866	0.4359	0.03938	0.097514	0.19843	0.21808	0.25602	0.15394	0.10283	-1.3458	-1.2437	-2.2104	-1.5187	-1.6542	-2.1396	-1.4667	-2.1083	-1.9562	-1.3	-2.2854	-1.6375	-1.6396	-2.35	-1.1625	-2.2625	439.944	437.262	441.201	126.172	227.200	360.827	350.158	433.257	114.687	344.798	163.730	459.834	435.498	119.459	450.574	405.563	0.00084073	0.0014966	0.00031049	702.93	1.3812e-05	1.2164e-05	866.55	235.61	1.7667e-06	3.2665e-05	343.2	119.71	76.175	30.033	3.841e-05	51.242	0.01644	0.019154	0.0053053	996.01	0.00020511	0.00021041	1170.7	347.13	0.00020333	0.00020669	536.12	176.89	134.24	50.106	0.00020152	78.445	232.793	222.220	174.426	124.568	135.401	414.341	124.080	129.811	248.534	143.914	128.270	133.194	134.295	138.484	272.478	136.675	-8191	255	
1876.617	1	1	0	0	0.15918	0.24003	0.12986	0.19813	0.33545	0.23311	0.10656	0.2247	0.20827	0.077524	0.20864	0.24462	0.35589	0.19755	0.18322	0.22651	-1.6812	-1.4021	-2.3333	-1.6875	-1.6104	-2.2917	-1.4479	-2.0354	-1.9917	-1.2104	-2.1521	-1.6417	-1.4917	-2.3063	-1.3958	-1.7729	126.755	180.518	358.114	400.455	257.458	164.068	153.772	466.362	142.619	383.168	177.773	454.284	404.376	386.013	199.099	445.109	0.00039749	0.0019326	0.00052787	704.88	2.5172e-05	1.1148e-05	866.87	239.58	1.3693e-05	3.0911e-05	350.18	119.45	77.25	30.403	1.567e-05	51.95	0.016399	0.019152	0.0053301	999.59	0.00020661	0.00021187	1178.8	352.32	0.00020741	0.00021154	545.77	179.46	136.35	50.653	0.00020503	79.295	237.682	227.182	367.180	124.453	165.011	253.507	123.801	129.432	146.510	177.993	128.415	132.258	133.741	138.256	239.520	136.179	-8191	255	
1876.711	1	1	0	0	0.090714	0.066202	0.11475	0.14527	0.23881	0.041988	0.24678	0.17605	0.14143	0.15549	0.17371	0.067325	0.14647	0.13912	0.10026	0.26217	-1.6042	-1.2375	-2.0687	-1.7875	-1.3604	-2.4	-1.5625	-1.8875	-2.0667	-1.4062	-2.2083	-1.8563	-1.5521	-2.1646	-1.5187	-1.7521	381.603	248.933	230.836	385.029	114.466	231.825	374.355	133.775	141.848	319.055	349.693	227.957	454.428	342.232	362.887	456.510	0.00034383	0.00028638	0.00096837	707.77	2.2832e-05	6.7415e-06	873.89	240.39	1.1646e-05	2.7436e-05	349.09	121.36	78.562	30.629	8.221e-06	51.577	0.016616	0.0191	0.0052889	999.73	0.00020405	0.00020871	1179.2	350.2	0.00020338	0.00020727	542.4	179.22	135.92	50.512	0.00020332	79.161	201.563	319.287	302.807	124.170	287.634	152.296	124.049	129.692	289.491	372.747	128.499	132.650	133.755	138.981	218.999	136.380	-8191	255	
1876.807	1	1	0	0	0.14738	0.16057	0.20598	0.079636	0.2081	0.18102	0.2822	0.096452	0.21204	0.23302	0.31711	0.2753	0.16914	0.061823	0.056653	0.12897	-1.7229	-1.1958	-2.1063	-2.0563	-1.3625	-2.2417	-1.4438	-1.9021	-2.1792	-1.3292	-2.1208	-1.9813	-1.4021	-2.3167	-1.5938	-1.7188	292.548	399.851	302.993	402.249	369.638	411.454	388.658	355.640	432.927	329.644	452.350	406.901	389.878	148.954	175.255	442.282	0.0004248	0.00042233	0.0010141	703.97	1.8824e-05	2.0429e-05	873.88	237.99	2.4177e-06	4.7085e-05	346.71	119.57	76.598	30.259	3.2448e-05	50.807	0.016443	0.018932	0.0052422	996.29	0.0002024	0.00020641	1173.2	348.78	0.00019992	0.00020414	537.46	176.82	133.86	49.743	0.00019902	77.435	232.334	138.201	296.711	124.105	242.526	391.435	123.433	129.415	368.711	305.021	127.810	132.837	133.900	138.495	249.590	136.579	-8191	255	
1876.928	1	1	0	0	0.14213	0.10442	0.069158	0.24151	0.10911	0.11997	0.12129	0.19883	0.24841	0.12019	0.19764	0.051671	0.2196	0.10897	0.153	0.24569	-1.6771	-1.5	-1.7313	-2.175	-1.1708	-2.1667	-1.6938	-1.3521	-2.1333	-1.4125	-1.7833	-2.1479	-1.4	-2.1854	-1.7979	-1.3687	450.666	244.587	193.100	370.308	443.328	191.698	144.075	128.745	352.664	274.017	137.997	349.212	114.076	222.056	380.725	368.539	0.00053889	0.00094009	0.00097094	698.16	7.3254e-06	1.1868e-05	870.42	237.13	8.9513e-06	4.3218e-05	343.55	119.67	75.512	30.057	3.2366e-05	50.443	0.015944	0.018395	0.0050949	983.02	0.00019504	0.00019878	1157.5	343.68	0.00019571	0.00020029	531.7	174.9	132.33	49.146	0.0001977	77.161	209.541	251.849	182.442	124.137	398.907	416.397	123.513	129.386	142.546	316.456	128.436	132.588	133.764	138.179	255.854	136.323	-8191	255	
1877.024	1	1	0	0	0.24303	0.21337	0.12203	0.16251	0.12529	0.061057	0.23161	0.21245	0.17857	0.11086	0.21704	0.1467	0.22635	0.039078	0.28875	0.14001	-1.9125	-1.2271	-1.9333	-2.2125	-1.3	-2.2042	-1.7979	-1.5688	-2.2667	-1.4562	-1.7771	-2.2896	-1.2479	-2.0292	-1.775	-1.5854	252.920	341.802	256.984	434.702	460.031	355.686	420.169	355.618	120.571	428.249	432.302	430.988	228.928	372.577	383.075	410.792	0.00037843	0.0023646	0.00033314	702.9	2.4178e-05	2.3218e-05	862.16	236.17	3.3454e-05	7.2639e-06	342.47	119.23	76.495	29.753	8.3918e-06	50.87	0.015957	0.018453	0.0051296	986.33	0.0001975	0.00020119	1161.8	344.21	0.00019632	0.00020202	532.39	175.65	133.23	49.665	0.00020067	77.641	269.830	118.320	373.793	124.126	264.642	188.291	123.706	129.376	302.496	275.212	127.532	132.594	133.301	138.550	420.789	135.893	-8191	255	
1877.120	1	1	0	0	0.27759	0.11518	0.14321	0.19778	0.13519	0.086582	0.30753	0.1566	0.15626	0.18302	0.08132	0.39116	0.023064	0.18027	0.43955	0.1299	-1.9083	-1.4604	-1.5417	-2.1792	-1.3917	-1.9833	-2.0938	-1.3062	-2.2229	-1.4917	-1.5729	-2.2208	-1.1812	-1.7354	-2.0187	-1.4208	456.616	233.797	147.470	407.931	298.937	164.936	378.850	286.531	349.042	329.943	148.373	416.050	333.519	396.072	224.682	391.982	0.00039287	0.00076303	0.0007226	702.28	5.3942e-06	1.4852e-05	875.35	238.86	2.3519e-05	3.3735e-05	345.75	119.48	77.007	30.111	2.9932e-05	51.522	0.016017	0.018641	0.0051708	991.36	0.00019831	0.00020191	1169.9	346.05	0.00019478	0.00020005	533.39	175.92	132.66	49.381	0.00019567	77.696	240.142	149.199	251.077	123.960	385.698	190.897	123.335	129.240	135.366	155.405	127.937	132.624	133.037	137.807	277.721	136.472	-8191	255	
1877.216	1	1	0	0	0.22679	0.52317	0.11712	0.13591	0.068727	0.16149	0.12622	0.19129	0.093281	0.1837	0.11748	0.26613	0.17622	0.33701	0.16634	0.16194	-1.7417	-1.7333	-1.4958	-2.35	-1.1938	-1.925	-1.9792	-1.3062	-2.1104	-1.6646	-1.4125	-2.3083	-1.4771	-1.8375	-2.0604	-1.2062	222.720	300.207	142.951	325.853	160.739	223.584	447.075	376.448	135.817	146.570	403.616	461.582	406.341	452.428	412.129	276.160	0.00042593	0.0025479	0.00046518	707.98	1.5451e-05	3.7591e-05	873.81	237.78	1.889e-05	5.0657e-05	347.25	120.19	76.465	30.2	3.2658e-05	50.689	0.015606	0.018273	0.0050792	989.95	0.00019503	0.00020053	1168.4	346.39	0.0001946	0.00020037	536.73	176.71	133.59	49.672	0.0001988	77.507	228.061	460.388	456.181	123.877	467.726	232.740	123.539	129.061	249.400	175.275	127.947	132.423	132.932	138.388	350.765	136.077	-8191	255	
1877.288	1	1	0	0	0.091441	0.19979	0.34342	0.094326	0.17374	0.061541	0.26878	0.2134	0.1335	0.22043	0.056143	0.10215	0.25122	0.0041686	0.099773	0.019179	-1.8083	-1.5417	-1.3312	-2.1521	-1.5146	-1.6292	-2.225	-1.3542	-2.0312	-1.975	-1.5625	-2.0604	-1.4667	-1.5896	-2.0833	-1.3937	117.233	330.847	226.923	380.630	458.390	117.387	414.499	414.022	300.809	235.940	193.394	420.119	383.391	450.693	366.899	437.635	0.00053127	0.0022879	0.00021042	699.57	3.761e-06	1.9149e-05	865.75	236.25	1.4737e-05	1.4175e-05	343.09	119.58	75.578	29.65	1.7111e-05	50.652	0.015783	0.01838	0.005114	982.35	0.0001956	0.00019978	1162.5	343.5	0.00019415	0.00020072	531.52	174.87	132.78	49.377	0.000199	77.096	226.197	205.188	436.341	124.167	112.118	273.947	123.699	129.480	252.245	311.716	127.990	132.249	133.349	138.136	267.276	135.812	-8191	255	
1877.409	1	1	0	0	0.26791	0.14687	0.11728	0.28278	0.05685	0.39873	0.1553	0.22812	0.13455	0.064867	0.2598	0.2752	0.28028	0.33914	0.18321	0.081003	-1.7333	-1.9521	-1.2292	-2.2812	-1.4542	-1.5896	-2.4375	-1.4583	-1.8604	-2.0708	-1.4625	-2.2854	-1.6104	-1.6896	-2.3063	-1.2854	297.262	348.746	271.400	123.695	265.211	130.696	428.493	342.252	419.543	122.016	113.594	346.108	111.869	307.102	428.214	397.887	0.0007837	0.002339	0.00035207	705.6	1.4335e-05	1.9906e-05	868.89	236.45	1.218e-05	4.1376e-05	341.88	118.69	76.155	29.764	4.9594e-05	50.487	0.015874	0.018651	0.0051917	986.13	0.00019905	0.00020299	1164.7	344.6	0.0001974	0.00020342	534.29	175.76	133.8	49.752	0.00020074	77.451	223.657	460.155	373.872	123.323	182.227	214.148	123.676	129.227	316.897	298.567	127.798	132.228	133.172	138.303	336.745	136.428	-8191	255	
