BOXY.EXE: ISS Imagent and Oximeter Data Acquisition Program Version 0.80
Ascii Record File

#ACQ INFORMATION
2  Detector Channels 
16  External MUX Channels 
1  Auxiliary Channels 
5000  Waveform (CCF) Frequency (Hz)
1  Waveforms Skipped 
30  Waveforms Averaged 
1  Cycles Averaged 
16  Acquisitions per Waveform 
10.0806  Updata Rate (Hz) 

#FILE INFORMATION
TRUE -- External MUX Channel results are PARSED.
FALSE -- AC DC and Phase are NOT grouped.
TRUE -- Companion Program Settings File CREATED.
FALSE -- AC data not excluded
FALSE -- DC data not excluded
FALSE -- Phase data not excluded
FALSE -- Auxillary Chn. data not excluded
Tab delimiters

#CALIBRATION STATE
TRUE -- Waveform Calibration Values APPLIED.


#AUX CALIBRATION VALUES
Val Type	aux-1	

Term	1.0000e+00	
Factor	0.0000e+00	


#WF CALIBRATION VALUES
A = Detector Channel
Val Type	A-AC1	A-AC2	A-AC3	A-AC4	A-AC5	A-AC6	A-AC7	A-AC8	A-AC9	A-AC10	A-AC11	A-AC12	A-AC13	A-AC14	A-AC15	A-AC16	A-DC1	A-DC2	A-DC3	A-DC4	A-DC5	A-DC6	A-DC7	A-DC8	A-DC9	A-DC10	A-DC11	A-DC12	A-DC13	A-DC14	A-DC15	A-DC16	A-Ph1	A-Ph2	A-Ph3	A-Ph4	A-Ph5	A-Ph6	A-Ph7	A-Ph8	A-Ph9	A-Ph10	A-Ph11	A-Ph12	A-Ph13	A-Ph14	A-Ph15	A-Ph16	

Term	0.00000e+00	0.00000e+00	0.00000e+00	0.00000e+00	0.00000e+00	0.00000e+00	0.00000e+00	0.00000e+00	0.00000e+00	0.00000e+00	0.00000e+00	0.00000e+00	0.00000e+00	0.00000e+00	0.00000e+00	0.00000e+00	0.00000e+00	0.00000e+00	0.00000e+00	0.00000e+00	0.00000e+00	0.00000e+00	0.00000e+00	0.00000e+00	0.00000e+00	0.00000e+00	0.00000e+00	0.00000e+00	0.00000e+00	0.00000e+00	0.00000e+00	0.00000e+00	0.00000e+00	0.00000e+00	0.00000e+00	0.00000e+00	0.00000e+00	0.00000e+00	0.00000e+00	0.00000e+00	0.00000e+00	0.00000e+00	0.00000e+00	0.00000e+00	0.00000e+00	0.00000e+00	0.00000e+00	0.00000e+00	
Factor	1.00000e+00	1.00000e+00	1.00000e+00	1.00000e+00	1.00000e+00	1.00000e+00	1.00000e+00	1.00000e+00	1.00000e+00	1.00000e+00	1.00000e+00	1.00000e+00	1.00000e+00	1.00000e+00	1.00000e+00	1.00000e+00	1.00000e+00	1.00000e+00	1.00000e+00	1.00000e+00	1.00000e+00	1.00000e+00	1.00000e+00	1.00000e+00	1.00000e+00	1.00000e+00	1.00000e+00	1.00000e+00	1.00000e+00	1.00000e+00	1.00000e+00	1.00000e+00	X	X	X	X	X	X	X	X	X	X	X	X	X	X	X	X	

B = Detector Channel
Val Type	B-AC1	B-AC2	B-AC3	B-AC4	B-AC5	B-AC6	B-AC7	B-AC8	B-AC9	B-AC10	B-AC11	B-AC12	B-AC13	B-AC14	B-AC15	B-AC16	B-DC1	B-DC2	B-DC3	B-DC4	B-DC5	B-DC6	B-DC7	B-DC8	B-DC9	B-DC10	B-DC11	B-DC12	B-DC13	B-DC14	B-DC15	B-DC16	B-Ph1	B-Ph2	B-Ph3	B-Ph4	B-Ph5	B-Ph6	B-Ph7	B-Ph8	B-Ph9	B-Ph10	B-Ph11	B-Ph12	B-Ph13	B-Ph14	B-Ph15	B-Ph16	

Term	0.00000e+00	0.00000e+00	0.00000e+00	0.00000e+00	0.00000e+00	0.00000e+00	0.00000e+00	0.00000e+00	0.00000e+00	0.00000e+00	0.00000e+00	0.00000e+00	0.00000e+00	0.00000e+00	0.00000e+00	0.00000e+00	0.00000e+00	0.00000e+00	0.00000e+00	0.00000e+00	0.00000e+00	0.00000e+00	0.00000e+00	0.00000e+00	0.00000e+00	0.00000e+00	0.00000e+00	0.00000e+00	0.00000e+00	0.00000e+00	0.00000e+00	0.00000e+00	-2.62276e+01	-1.15878e+02	-1.08409e+02	-1.83494e+02	-6.33589e+01	-7.54221e+01	-1.57928e+02	-1.62015e+02	-5.48854e+01	-9.11149e+01	-1.72828e+02	-1.71611e+02	-1.77707e+02	-1.75907e+02	-7.81365e+01	-1.49620e+02	
Factor	2.61661e-05	9.26201e-05	2.46974e-05	1.98797e-01	9.62366e-07	8.91135e-07	1.79104e-01	5.14304e-02	1.05170e-06	1.02584e-06	1.02012e-01	2.95886e-02	2.20963e-02	8.96045e-03	1.07712e-06	1.32210e-02	5.86835e-07	5.95880e-07	1.65773e-07	9.66592e-02	6.53574e-09	6.52599e-09	8.24644e-02	2.52020e-02	6.53566e-09	6.54143e-09	4.62961e-02	1.36781e-02	1.07972e-02	4.30996e-03	6.51163e-09	6.04044e-03	X	X	X	X	X	X	X	X	X	X	X	X	X	X	X	X	



#DISTANCE SETTINGS
A = Detector Channel
A-1	A-2	A-3	A-4	A-5	A-6	A-7	A-8	A-9	A-10	A-11	A-12	A-13	A-14	A-15	A-16	

2.5000e+00	3.0000e+00	2.5000e+00	3.0000e+00	2.0000e+00	3.0000e+00	1.5000e+00	3.0000e+00	3.0000e+00	3.0000e+00	3.0000e+00	3.0000e+00	3.0000e+00	3.0000e+00	1.5000e+00	3.0000e+00	

B = Detector Channel
B-1	B-2	B-3	B-4	B-5	B-6	B-7	B-8	B-9	B-10	B-11	B-12	B-13	B-14	B-15	B-16	

1.0000e+01	1.0000e+01	1.0000e+01	1.4400e+00	1.0000e+01	1.0000e+01	1.5100e+00	1.9400e+00	1.0000e+01	1.0000e+01	1.9900e+00	2.4900e+00	2.4100e+00	2.9000e+00	1.0000e+01	2.9800e+00	




#DATA BEGINS
time	group	step	mark	flag	A-AC1	A-AC2	A-AC3	A-AC4	A-AC5	A-AC6	A-AC7	A-AC8	A-AC9	A-AC10	A-AC11	A-AC12	A-AC13	A-AC14	A-AC15	A-AC16	A-DC1	A-DC2	A-DC3	A-DC4	A-DC5	A-DC6	A-DC7	A-DC8	A-DC9	A-DC10	A-DC11	A-DC12	A-DC13	A-DC14	A-DC15	A-DC16	A-Ph1	A-Ph2	A-Ph3	A-Ph4	A-Ph5	A-Ph6	A-Ph7	A-Ph8	A-Ph9	A-Ph10	A-Ph11	A-Ph12	A-Ph13	A-Ph14	A-Ph15	A-Ph16	B-AC1	B-AC2	B-AC3	B-AC4	B-AC5	B-AC6	B-AC7	B-AC8	B-AC9	B-AC10	B-AC11	B-AC12	B-AC13	B-AC14	B-AC15	B-AC16	B-DC1	B-DC2	B-DC3	B-DC4	B-DC5	B-DC6	B-DC7	B-DC8	B-DC9	B-DC10	B-DC11	B-DC12	B-DC13	B-DC14	B-DC15	B-DC16	B-Ph1	B-Ph2	B-Ph3	B-Ph4	B-Ph5	B-Ph6	B-Ph7	B-Ph8	B-Ph9	B-Ph10	B-Ph11	B-Ph12	B-Ph13	B-Ph14	B-Ph15	B-Ph16	aux-1	digaux	

7711.978	1	1	0	256	0.21833	0.12837	0.19625	0.17462	0.13657	0.14608	0.18051	0.20198	0.073461	0.16314	0.38306	0.10878	0.12901	0.016413	0.061978	0.069634	-1.8854	-1.625	-1.4521	-2.4458	-1.2479	-1.6604	-2.4042	-1.3896	-1.8375	-1.7958	-1.4896	-2.2083	-1.75	-1.8708	-2.1083	-1.475	313.111	384.990	180.867	385.950	175.284	193.380	400.598	321.742	280.735	173.224	404.130	90.170	269.510	148.527	420.302	243.971	0.00050268	0.00015859	6.8999e-05	1114.5	1.0643e-05	1.6964e-06	1210.4	224.6	8.6107e-06	6.2884e-07	283.39	78.854	63.351	18.095	1.9123e-06	25.395	0.00066787	0.00064358	0.00016598	1128.7	7.2542e-06	6.8509e-06	1211.7	233.81	7.1195e-06	6.6454e-06	299.44	85.439	70.056	21.002	5.8885e-06	28.825	280.891	233.446	325.202	72.688	216.243	399.711	72.364	80.260	238.775	87.326	79.459	87.169	86.720	94.044	183.189	93.224	-8191	255	
7712.097	1	1	0	0	0.38016	0.34241	0.073519	0.28119	0.11987	0.20553	0.14364	0.16521	0.16849	0.1171	0.054735	0.031789	0.11328	0.38604	0.11871	0.060083	-1.7833	-1.9375	-1.3375	-2.2292	-1.7458	-1.4542	-2.1708	-1.5187	-1.6167	-2.2313	-1.3625	-2.2583	-1.6167	-1.6583	-2.2583	-1.4813	306.202	346.130	205.067	193.999	248.302	275.842	308.029	242.902	365.384	370.095	418.948	94.064	205.056	353.946	141.976	230.325	0.00039806	0.00075516	8.7587e-05	1113.9	6.7538e-06	4.3481e-06	1202.9	222.44	1.0417e-06	3.7003e-06	282.01	78.936	63.125	18.05	3.4891e-06	25.357	0.00060879	0.00055902	0.00014391	1119	6.4873e-06	5.8886e-06	1197.2	231.44	6.2788e-06	5.7373e-06	293.31	84.74	68.37	20.416	5.2966e-06	28.562	248.981	93.595	252.409	72.588	238.932	168.544	72.087	79.612	339.342	165.277	78.999	86.365	86.326	93.997	114.277	93.188	-8191	255	
7712.168	1	1	0	0	0.14332	0.017992	0.05867	0.34338	0.095155	0.26008	0.13087	0.18099	0.10693	0.28948	0.17399	0.23591	0.36535	0.045025	0.079454	0.16213	-1.5187	-1.9792	-1.2083	-2.2667	-1.8542	-1.5979	-2.3667	-1.5688	-1.8937	-1.9312	-1.2313	-2.1583	-1.6979	-1.5021	-2.125	-1.7708	389.107	300.309	194.922	366.166	161.260	116.849	97.893	382.123	179.297	361.644	226.707	154.780	132.774	418.550	308.940	279.576	0.00034352	0.00030703	2.3431e-05	1104.3	3.6195e-06	2.2097e-06	1199	221.62	4.0589e-06	4.7989e-06	280.46	78.858	62.796	17.954	7.2638e-06	25.539	0.00053576	0.00050155	0.00013187	1112.3	5.7933e-06	5.3499e-06	1188.1	229.8	5.6413e-06	5.2861e-06	289.64	84.344	67.272	20.053	5.0419e-06	28.4	258.774	64.779	143.271	72.022	395.643	399.597	72.110	80.396	254.053	233.290	79.253	86.868	87.044	94.067	222.629	92.908	-8191	255	
7712.265	1	1	0	0	0.18124	0.29489	0.24618	0.2852	0.16973	0.04564	0.35232	0.20375	0.08155	0.11876	0.28496	0.19014	0.19032	0.070135	0.1155	0.30041	-1.3292	-2.0708	-1.2875	-2.1021	-1.5812	-1.3813	-2.3875	-1.5562	-1.6771	-2.0083	-1.2792	-2.1125	-1.9375	-1.2812	-2.1583	-1.5792	161.790	388.829	404.287	384.529	407.870	205.696	354.903	385.805	240.706	224.365	378.542	252.670	345.123	142.315	232.115	372.068	0.00021317	0.00029075	0.00022281	1098.2	5.2915e-06	2.1883e-06	1195.5	220.78	5.9363e-07	3.5259e-07	279.66	78.886	62.857	18.052	5.2566e-06	25.188	0.00048689	0.00046194	0.00012843	1107.3	5.3241e-06	4.978e-06	1184.4	229.3	5.2433e-06	4.9657e-06	290.46	83.948	66.681	19.856	5.2192e-06	28.251	255.577	198.599	137.451	72.244	225.695	82.328	72.080	79.815	365.146	234.028	79.409	86.577	86.886	93.776	246.360	92.985	-8191	255	
7712.361	1	1	0	0	0.10038	0.13162	0.23594	0.018588	0.12129	0.074833	0.21869	0.086287	0.13149	0.076257	0.072002	0.078106	0.18282	0.045069	0.2399	0.127	-1.0833	-2.1688	-1.4896	-1.95	-1.8937	-1.3729	-2.3167	-1.5063	-1.4083	-2.2313	-1.3854	-1.7292	-2.1375	-1.2833	-2.1312	-1.5417	100.914	216.438	262.635	288.582	412.605	341.401	351.667	364.563	274.736	318.103	377.553	111.982	101.150	189.436	251.531	270.155	0.0003012	0.00026193	0.00018696	1100.1	3.5398e-06	5.307e-06	1198.8	219.4	6.3738e-06	1.1816e-05	282.65	78.276	62.797	18.08	2.5361e-06	25.224	0.00046307	0.00043834	0.00013259	1101.7	5.073e-06	4.7385e-06	1184.8	227.33	4.9237e-06	4.7072e-06	291.01	83.036	66.033	19.7	5.2488e-06	27.846	312.892	379.453	173.708	72.559	335.719	302.786	72.176	80.227	297.553	147.311	79.609	86.714	86.792	93.860	266.724	92.842	-8191	255	
7712.481	1	1	0	0	0.15093	0.27717	0.059552	0.24965	0.12059	0.20354	0.11946	0.28218	0.31333	0.12875	0.26061	0.10025	0.1258	0.11104	0.12554	0.36456	-1.0562	-2.2375	-1.325	-1.8979	-1.9083	-1.0625	-2.2938	-1.9083	-1.3271	-2.2958	-1.4021	-1.5417	-2.1021	-1.4312	-2.1417	-1.8583	407.339	382.131	319.004	374.344	128.262	169.532	398.334	388.320	379.329	391.536	71.634	402.117	334.228	114.036	324.995	406.308	0.0002287	0.00032314	4.5692e-05	1090.8	4.0087e-06	1.6207e-06	1189.9	221.03	2.4956e-06	3.3553e-06	280.41	78.263	62.802	18.043	3.7447e-06	25.491	0.00043827	0.00042619	0.00013456	1089.4	4.7159e-06	4.6309e-06	1183.2	225.92	4.6625e-06	4.6589e-06	289.7	82.16	65.614	19.69	5.1986e-06	27.56	288.564	206.321	82.623	72.572	182.646	309.361	72.373	80.292	339.413	197.190	79.468	86.949	86.941	94.245	169.451	92.993	-8191	255	
7712.577	1	1	0	0	0.018445	0.047322	0.08125	0.2496	0.13948	0.23413	0.21012	0.18505	0.18467	0.12933	0.16077	0.10616	0.06588	0.20808	0.072458	0.12564	-1.0708	-2.3167	-1.4062	-1.7021	-2.1458	-1.2875	-2.0375	-1.9292	-1.4646	-2.1521	-1.575	-1.5875	-2.2417	-1.2167	-1.9396	-2.1521	243.039	205.581	95.007	364.943	179.106	153.135	346.777	275.862	66.951	299.792	337.317	401.075	257.927	187.377	123.653	97.202	0.0002729	0.0009765	0.00017905	1095	1.7897e-06	8.3014e-06	1194.6	220.09	5.3234e-06	1.1542e-05	280.83	78.73	63.015	18.067	8.7214e-06	25.176	0.00041065	0.00043152	0.000132	1085.9	4.5296e-06	4.7925e-06	1179.6	224.52	4.5231e-06	4.8711e-06	289.85	81.667	65.377	19.87	5.1046e-06	27.387	253.360	133.050	140.725	72.617	385.419	245.207	72.536	80.300	180.251	223.230	79.310	86.841	86.973	94.297	414.546	93.274	-8191	255	
7712.674	1	1	0	0	0.065728	0.06277	0.33572	0.27415	0.27941	0.13981	0.10574	0.33028	0.18734	0.31794	0.14408	0.12583	0.070291	0.1621	0.078661	0.052015	-1.0167	-2.0646	-1.6521	-1.8375	-2.2167	-1.3021	-2.2521	-2.2687	-1.2417	-2.1042	-1.6417	-1.5729	-2.0875	-1.275	-1.7917	-2.1771	135.226	384.648	397.990	396.274	343.413	143.253	72.032	338.884	225.324	268.270	368.149	352.913	371.639	386.065	390.374	387.718	0.00054742	0.00034636	0.00015374	1096.3	3.7476e-06	4.1758e-06	1187.8	220.68	6.93e-06	1.2331e-05	279.7	77.671	62.606	17.972	5.7107e-06	25.337	0.00040327	0.00045456	0.00012866	1084.8	4.4698e-06	5.0088e-06	1176.8	224.14	4.447e-06	5.0695e-06	287.42	80.978	65.305	20.041	4.8821e-06	27.25	261.917	82.286	330.052	72.640	218.434	171.712	72.408	80.164	289.258	224.054	79.194	86.722	87.073	94.148	282.583	92.830	-8191	255	
7712.770	1	1	0	0	0.15763	0.077867	0.10868	0.32721	0.26823	0.032015	0.38267	0.32953	0.088147	0.21051	0.17507	0.33062	0.31203	0.039196	0.29943	0.045269	-1.0125	-2.1688	-1.6125	-1.5708	-2.0667	-1.5021	-1.9979	-2.1437	-1.3	-2.0187	-1.9229	-1.4188	-2.275	-1.3813	-1.7542	-2.3563	386.191	331.678	263.198	397.323	338.703	192.018	75.388	347.792	374.382	110.236	267.687	142.166	315.780	396.140	351.960	121.583	0.0003638	0.00051369	6.3771e-05	1092.2	1.4686e-06	1.6741e-06	1188.9	219.95	1.0891e-05	2.7668e-06	278.87	78.182	62.764	17.937	5.93e-06	25.179	0.0004092	0.00046941	0.00012252	1079.8	4.6179e-06	5.153e-06	1172.1	223.69	4.6062e-06	5.1275e-06	286.42	81.192	65.856	19.984	4.6619e-06	27.165	257.374	174.835	153.788	72.568	234.593	235.302	72.396	80.083	219.202	126.919	79.460	86.849	87.383	94.217	284.454	93.530	-8191	255	
7712.866	1	1	0	0	0.18997	0.25112	0.18394	0.31502	0.13016	0.19689	0.10082	0.18767	0.043268	0.13166	0.18721	0.27263	0.2292	0.15504	0.14942	0.024525	-1.0083	-2.1146	-1.8958	-1.1792	-2.3417	-1.7271	-1.8208	-2.2083	-1.1417	-1.6812	-2.2062	-1.2583	-2.1208	-1.7583	-1.4854	-2.0938	67.132	292.379	70.037	369.324	314.424	128.439	296.955	401.754	104.479	138.202	131.554	353.781	323.376	116.373	328.730	105.651	0.0004855	0.00034035	7.2197e-05	1095.8	2.1343e-06	1.751e-06	1188.7	220.9	6.4448e-06	2.4742e-06	279.9	78.047	62.753	18.039	6.1948e-06	25.304	0.00043448	0.00046459	0.00011976	1079.9	4.8577e-06	5.0702e-06	1170.7	223.49	4.9481e-06	5.0562e-06	285.72	80.976	66.3	19.959	4.6628e-06	27.159	264.270	158.819	323.389	72.319	240.407	419.428	72.547	80.193	255.614	389.674	79.196	86.707	87.264	93.946	206.310	93.279	-8191	255	
7712.962	1	1	0	0	0.20388	0.38529	0.13738	0.22435	0.25765	0.0642	0.19825	0.066047	0.2236	0.14314	0.090176	0.27545	0.125	0.16742	0.21105	0.36072	-0.94375	-1.7979	-1.9208	-1.3937	-2.1437	-1.75	-1.4562	-2.3417	-1.475	-1.6833	-1.9979	-1.425	-2.1562	-1.775	-1.4458	-2.2417	275.032	387.794	210.681	391.572	167.508	393.248	73.767	176.248	145.282	257.284	199.664	323.845	393.306	417.425	418.047	401.254	0.00045236	0.000588	5.9915e-05	1094.3	1.7272e-06	3.8342e-06	1195.7	220.3	6.433e-06	7.8774e-06	279.22	78.34	62.86	18.069	4.3047e-06	25.275	0.00046543	0.00045482	0.00011802	1079.6	5.1323e-06	4.9114e-06	1170.7	223.62	5.1916e-06	4.8886e-06	285.37	81.542	66.555	19.858	4.5757e-06	27.393	248.582	398.511	225.174	72.681	118.934	324.816	72.492	79.871	101.027	128.115	79.279	87.155	87.242	94.291	395.465	92.633	-8191	255	
7713.058	1	1	0	0	0.11956	0.11946	0.05547	0.04935	0.152	0.21848	0.26493	0.12717	0.12896	0.13701	0.14415	0.1111	0.097178	0.2406	0.017377	0.024559	-0.95208	-1.5625	-2.1021	-1.4438	-1.9188	-1.8042	-1.4708	-2.0312	-1.4792	-1.5104	-2.4313	-1.3521	-1.9875	-1.7104	-1.4625	-2.3021	90.640	162.741	324.165	373.262	384.069	120.444	381.505	334.582	377.563	133.718	345.235	263.408	128.488	384.948	114.614	287.020	0.00047139	0.00017322	0.00010917	1092.3	3.4226e-06	2.5881e-06	1192.7	219.62	4.0554e-06	1.9297e-06	280.39	78.102	62.131	18.003	8.7769e-07	25.167	0.0004791	0.00044593	0.00011643	1082.5	5.2684e-06	4.8165e-06	1169.6	224.76	5.2187e-06	4.787e-06	285.19	81.905	66.396	19.803	4.4947e-06	27.6	248.096	281.496	271.931	72.568	82.250	349.476	72.224	80.256	274.862	166.788	79.380	87.144	87.354	94.352	351.165	93.472	-8191	255	
7713.177	1	1	0	0	0.18039	0.26878	0.044993	0.34739	0.22253	0.12322	0.20686	0.14926	0.071622	0.14474	0.2323	0.23602	0.22152	0.27928	0.12519	0.063838	-1.1604	-1.625	-2.0146	-1.4521	-1.8438	-1.9271	-1.3458	-2.1521	-1.6417	-1.5833	-2.3917	-1.55	-1.7458	-2.0396	-1.3563	-2.2396	63.842	254.647	171.859	373.084	247.501	233.380	401.644	330.376	347.142	207.123	327.563	413.031	65.082	247.074	107.623	84.373	0.00024837	0.00021942	8.8841e-05	1089.2	3.0901e-06	5.5841e-06	1191.1	219.84	2.0988e-06	7.3336e-06	280.82	78.443	62.32	17.905	3.4322e-06	25.313	0.00046834	0.00043534	0.00011546	1086.1	5.1621e-06	4.777e-06	1169.2	226.02	5.121e-06	4.7397e-06	284.82	82.666	66.213	19.709	4.5877e-06	27.887	248.744	399.133	188.336	72.294	216.025	316.779	72.482	80.170	207.981	176.716	79.544	86.997	86.802	94.170	188.109	93.467	-8191	255	
7713.273	1	1	0	0	0.27455	0.054676	0.031659	0.24348	0.048739	0.13594	0.20739	0.19788	0.10977	0.2347	0.14558	0.31907	0.054034	0.14736	0.060432	0.14759	-1.3188	-1.4042	-2.025	-1.4896	-1.6333	-2.0312	-1.4354	-2.1271	-1.5375	-1.4188	-2.0938	-1.65	-1.6667	-2.2562	-1.1771	-1.9354	242.218	356.655	98.888	125.933	409.160	311.040	349.058	185.750	390.897	360.538	397.972	375.739	371.535	69.042	189.311	278.970	0.00033356	0.00034415	0.00027304	1088.4	4.7962e-06	5.2973e-06	1186.1	220.31	4.6634e-06	2.6254e-06	280.52	78.245	62.347	18.08	9.6702e-06	25.147	0.0004587	0.00042574	0.0001191	1090.3	4.9477e-06	4.6602e-06	1168.4	226.87	4.9055e-06	4.6272e-06	286.66	82.905	65.768	19.661	4.8014e-06	27.865	267.292	259.430	196.005	72.475	365.042	415.941	71.931	80.200	212.608	241.968	79.453	86.873	87.032	94.141	193.718	93.424	-8191	255	
7713.369	1	1	0	0	0.1449	0.30002	0.09401	0.22124	0.21883	0.15821	0.39423	0.04572	0.17371	0.20086	0.034872	0.14961	0.19617	0.17109	0.19	0.28228	-1.4417	-1.4	-2.2146	-1.4271	-1.2604	-1.9188	-1.5938	-1.9854	-1.7146	-1.3042	-2.2417	-1.6042	-1.4813	-2.3583	-1.4667	-1.8208	287.609	92.110	165.319	83.810	229.106	171.767	331.043	80.104	348.560	135.317	421.250	231.574	72.887	68.231	139.089	78.999	0.00032507	0.00038123	0.00016811	1087.9	3.2657e-06	4.4858e-06	1191.7	219.59	4.7447e-06	2.1765e-06	280.9	77.586	62.72	17.902	9.6354e-06	25.204	0.00044186	0.00041473	0.00012547	1090.8	4.8256e-06	4.534e-06	1174	226.27	4.7667e-06	4.5083e-06	288.24	82.2	65.556	19.588	5.0971e-06	27.682	269.781	190.270	150.070	72.483	152.414	270.600	72.238	80.338	391.750	134.581	79.792	86.831	87.345	94.216	254.588	92.922	-8191	255	
7713.466	1	1	0	0	0.21152	0.34997	0.29386	0.29994	0.20184	0.26	0.23471	0.080616	0.1962	0.24229	0.046922	0.23957	0.17607	0.090963	0.12984	0.22658	-1.675	-1.3771	-2.2604	-1.8104	-1.3563	-2.05	-1.6688	-1.8937	-2.0125	-1.2958	-1.9771	-1.6917	-1.5562	-2.3729	-1.3646	-1.6708	191.644	280.008	67.845	398.091	87.274	150.079	68.674	251.366	154.686	209.704	249.466	374.437	90.568	64.697	134.015	372.473	0.00028855	0.00020291	0.00014479	1092	4.8124e-06	4.9883e-06	1189.6	219.95	1.2994e-06	8.5314e-06	280.93	78.477	62.158	17.999	5.8793e-06	25.263	0.00042772	0.00041135	0.00013097	1085.3	4.7015e-06	4.5871e-06	1175.9	225.47	4.6897e-06	4.6333e-06	289.79	82.24	65.397	19.754	5.2911e-06	27.566	250.303	300.599	157.748	72.594	192.319	199.491	72.461	80.307	78.227	183.506	79.668	86.608	87.173	94.250	155.233	93.157	-8191	255	
7713.562	1	1	0	0	0.19903	0.18745	0.13538	0.31678	0.2919	0.10999	0.19114	0.28908	0.17627	0.12341	0.19235	0.23991	0.1393	0.10774	0.31588	0.12388	-1.8375	-1.2979	-1.75	-1.975	-1.3979	-2.1792	-1.6104	-1.5771	-2.15	-1.1812	-1.9604	-1.8417	-1.3729	-2.4229	-1.4271	-1.5312	185.616	298.819	232.405	184.384	174.019	113.325	367.896	391.575	353.876	376.556	363.569	242.017	85.810	291.599	404.118	87.373	0.00017255	0.00089077	0.00013432	1084.2	1.577e-06	3.6753e-06	1180.8	219.16	2.9782e-06	2.3717e-06	281.02	78.439	62.65	18.166	7.2258e-06	25.25	0.00042333	0.00043505	0.0001361	1084.4	4.6359e-06	4.8697e-06	1175.7	224.47	4.6346e-06	4.9145e-06	290.26	82.064	65.305	19.897	5.2061e-06	27.473	287.591	157.340	370.170	72.485	155.869	282.890	72.467	80.235	138.076	268.301	79.588	86.779	86.933	94.297	272.234	93.375	-8191	255	
7713.658	1	1	0	0	0.24253	0.33869	0.19128	0.36114	0.15158	0.078814	0.10593	0.1416	0.10733	0.16573	0.20438	0.27732	0.29407	0.23691	0.21342	0.038444	-1.5646	-1.2146	-2.0458	-1.9458	-1.3	-2.1021	-1.7833	-1.6104	-2.025	-1.225	-1.7833	-1.9312	-1.4229	-2.1083	-1.4312	-1.4062	201.397	247.319	398.707	387.850	74.985	241.768	292.152	340.684	252.022	377.425	210.059	158.738	382.060	416.058	217.741	188.646	0.00038082	0.00063634	8.4478e-05	1086.3	1.8996e-06	1.922e-06	1187.6	221.1	8.2436e-06	5.1332e-06	279.21	78.814	62.034	18.048	3.6028e-06	25.116	0.00041376	0.00045922	0.00013051	1079.6	4.5204e-06	5.0744e-06	1174.9	224.41	4.5129e-06	5.1727e-06	288.36	81.67	65.153	20.021	5.0116e-06	27.218	275.964	119.246	301.045	72.603	227.541	201.154	72.543	80.500	233.342	207.716	80.083	86.724	87.485	94.516	305.790	93.130	-8191	255	
