BOXY.EXE: ISS Imagent and Oximeter Data Acquisition Program Version 0.80
Ascii Record File

#ACQ INFORMATION
2  Detector Channels 
16  External MUX Channels 
1  Auxiliary Channels 
5000  Waveform (CCF) Frequency (Hz)
1  Waveforms Skipped 
30  Waveforms Averaged 
1  Cycles Averaged 
16  Acquisitions per Waveform 
10.0806  Updata Rate (Hz) 

#FILE INFORMATION
TRUE -- External MUX Channel results are PARSED.
FALSE -- AC DC and Phase are NOT grouped.
TRUE -- Companion Program Settings File CREATED.
FALSE -- AC data not excluded
FALSE -- DC data not excluded
FALSE -- Phase data not excluded
FALSE -- Auxillary Chn. data not excluded
Tab delimiters

#CALIBRATION STATE
TRUE -- Waveform Calibration Values APPLIED.


#AUX CALIBRATION VALUES
Val Type	aux-1	

Term	1.0000e+00	
Factor	0.0000e+00	


#WF CALIBRATION VALUES
A = Detector Channel
Val Type	A-AC1	A-AC2	A-AC3	A-AC4	A-AC5	A-AC6	A-AC7	A-AC8	A-AC9	A-AC10	A-AC11	A-AC12	A-AC13	A-AC14	A-AC15	A-AC16	A-DC1	A-DC2	A-DC3	A-DC4	A-DC5	A-DC6	A-DC7	A-DC8	A-DC9	A-DC10	A-DC11	A-DC12	A-DC13	A-DC14	A-DC15	A-DC16	A-Ph1	A-Ph2	A-Ph3	A-Ph4	A-Ph5	A-Ph6	A-Ph7	A-Ph8	A-Ph9	A-Ph10	A-Ph11	A-Ph12	A-Ph13	A-Ph14	A-Ph15	A-Ph16	

Term	0.00000e+00	0.00000e+00	0.00000e+00	0.00000e+00	0.00000e+00	0.00000e+00	0.00000e+00	0.00000e+00	0.00000e+00	0.00000e+00	0.00000e+00	0.00000e+00	0.00000e+00	0.00000e+00	0.00000e+00	0.00000e+00	0.00000e+00	0.00000e+00	0.00000e+00	0.00000e+00	0.00000e+00	0.00000e+00	0.00000e+00	0.00000e+00	0.00000e+00	0.00000e+00	0.00000e+00	0.00000e+00	0.00000e+00	0.00000e+00	0.00000e+00	0.00000e+00	0.00000e+00	0.00000e+00	0.00000e+00	0.00000e+00	0.00000e+00	0.00000e+00	0.00000e+00	0.00000e+00	0.00000e+00	0.00000e+00	0.00000e+00	0.00000e+00	0.00000e+00	0.00000e+00	0.00000e+00	0.00000e+00	
Factor	1.00000e+00	1.00000e+00	1.00000e+00	1.00000e+00	1.00000e+00	1.00000e+00	1.00000e+00	1.00000e+00	1.00000e+00	1.00000e+00	1.00000e+00	1.00000e+00	1.00000e+00	1.00000e+00	1.00000e+00	1.00000e+00	1.00000e+00	1.00000e+00	1.00000e+00	1.00000e+00	1.00000e+00	1.00000e+00	1.00000e+00	1.00000e+00	1.00000e+00	1.00000e+00	1.00000e+00	1.00000e+00	1.00000e+00	1.00000e+00	1.00000e+00	1.00000e+00	X	X	X	X	X	X	X	X	X	X	X	X	X	X	X	X	

B = Detector Channel
Val Type	B-AC1	B-AC2	B-AC3	B-AC4	B-AC5	B-AC6	B-AC7	B-AC8	B-AC9	B-AC10	B-AC11	B-AC12	B-AC13	B-AC14	B-AC15	B-AC16	B-DC1	B-DC2	B-DC3	B-DC4	B-DC5	B-DC6	B-DC7	B-DC8	B-DC9	B-DC10	B-DC11	B-DC12	B-DC13	B-DC14	B-DC15	B-DC16	B-Ph1	B-Ph2	B-Ph3	B-Ph4	B-Ph5	B-Ph6	B-Ph7	B-Ph8	B-Ph9	B-Ph10	B-Ph11	B-Ph12	B-Ph13	B-Ph14	B-Ph15	B-Ph16	

Term	0.00000e+00	0.00000e+00	0.00000e+00	0.00000e+00	0.00000e+00	0.00000e+00	0.00000e+00	0.00000e+00	0.00000e+00	0.00000e+00	0.00000e+00	0.00000e+00	0.00000e+00	0.00000e+00	0.00000e+00	0.00000e+00	0.00000e+00	0.00000e+00	0.00000e+00	0.00000e+00	0.00000e+00	0.00000e+00	0.00000e+00	0.00000e+00	0.00000e+00	0.00000e+00	0.00000e+00	0.00000e+00	0.00000e+00	0.00000e+00	0.00000e+00	0.00000e+00	3.94855e+01	-1.32128e+02	-1.27181e+02	-1.84490e+02	-6.72028e+01	-7.11501e+01	-1.59062e+02	-1.62015e+02	-4.80925e+01	-6.50300e+01	-1.70682e+02	-1.71722e+02	-1.81139e+02	-1.78172e+02	-6.66378e+01	-1.50327e+02	
Factor	6.14565e-05	1.43988e-04	4.12154e-05	2.02262e-01	1.95690e-06	1.65095e-06	1.56930e-01	5.15347e-02	2.54719e-06	1.60944e-06	8.43913e-02	3.21709e-02	2.84674e-02	9.18122e-03	1.99602e-06	1.31396e-02	2.11529e-05	3.98913e-05	1.12962e-05	1.08715e-01	3.85736e-07	4.59041e-07	7.93570e-02	2.79075e-02	3.67363e-07	4.60695e-07	4.42269e-02	1.68013e-02	1.55642e-02	5.02853e-03	4.02019e-07	6.94216e-03	X	X	X	X	X	X	X	X	X	X	X	X	X	X	X	X	



#DISTANCE SETTINGS
A = Detector Channel
A-1	A-2	A-3	A-4	A-5	A-6	A-7	A-8	A-9	A-10	A-11	A-12	A-13	A-14	A-15	A-16	

2.5000e+00	3.0000e+00	2.5000e+00	3.0000e+00	2.0000e+00	3.0000e+00	1.5000e+00	3.0000e+00	3.0000e+00	3.0000e+00	3.0000e+00	3.0000e+00	3.0000e+00	3.0000e+00	1.5000e+00	3.0000e+00	

B = Detector Channel
B-1	B-2	B-3	B-4	B-5	B-6	B-7	B-8	B-9	B-10	B-11	B-12	B-13	B-14	B-15	B-16	

1.0000e+01	1.0000e+01	1.0000e+01	1.4400e+00	1.0000e+01	1.0000e+01	1.5100e+00	1.9400e+00	1.0000e+01	1.0000e+01	1.9900e+00	2.4900e+00	2.4100e+00	2.9000e+00	1.0000e+01	2.9800e+00	




#DATA BEGINS
time	group	step	mark	flag	A-AC1	A-AC2	A-AC3	A-AC4	A-AC5	A-AC6	A-AC7	A-AC8	A-AC9	A-AC10	A-AC11	A-AC12	A-AC13	A-AC14	A-AC15	A-AC16	A-DC1	A-DC2	A-DC3	A-DC4	A-DC5	A-DC6	A-DC7	A-DC8	A-DC9	A-DC10	A-DC11	A-DC12	A-DC13	A-DC14	A-DC15	A-DC16	A-Ph1	A-Ph2	A-Ph3	A-Ph4	A-Ph5	A-Ph6	A-Ph7	A-Ph8	A-Ph9	A-Ph10	A-Ph11	A-Ph12	A-Ph13	A-Ph14	A-Ph15	A-Ph16	B-AC1	B-AC2	B-AC3	B-AC4	B-AC5	B-AC6	B-AC7	B-AC8	B-AC9	B-AC10	B-AC11	B-AC12	B-AC13	B-AC14	B-AC15	B-AC16	B-DC1	B-DC2	B-DC3	B-DC4	B-DC5	B-DC6	B-DC7	B-DC8	B-DC9	B-DC10	B-DC11	B-DC12	B-DC13	B-DC14	B-DC15	B-DC16	B-Ph1	B-Ph2	B-Ph3	B-Ph4	B-Ph5	B-Ph6	B-Ph7	B-Ph8	B-Ph9	B-Ph10	B-Ph11	B-Ph12	B-Ph13	B-Ph14	B-Ph15	B-Ph16	aux-1	digaux	

1160.713	1	1	0	256	0.11068	0.22154	0.31063	0.28211	0.33349	0.057859	0.22443	0.23925	0.207	0.064037	0.25313	0.13293	0.17754	0.14825	0.25893	0.10364	-0.70833	-1.9937	-1.4104	-1.3271	-1.9	-1.1833	-1.6958	-1.8083	-0.78958	-1.7917	-1.5521	-1.2292	-1.9062	-1.2104	-1.6437	-1.9521	391.004	217.373	102.252	331.636	375.730	323.139	369.281	240.244	168.280	253.891	350.057	362.433	36.359	32.799	92.031	40.728	0.00059186	0.00044912	3.7711e-05	1084.3	7.1337e-06	3.9238e-06	1191.7	224.95	1.479e-05	3.502e-06	287.19	80.921	63.465	18.455	5.6374e-06	25.595	0.0018722	0.0032398	0.00092227	1082.9	3.2088e-05	3.6586e-05	1186.2	227.86	3.0435e-05	3.7305e-05	289.94	82.615	64.935	19.09	3.3553e-05	26.775	315.358	125.571	373.066	43.388	203.389	209.516	43.361	50.539	193.221	216.098	50.011	57.213	57.553	64.978	245.583	63.441	-8191	255	
1160.810	1	1	0	0	0.10136	0.22972	0.21478	0.059282	0.1544	0.13254	0.16683	0.21464	0.29557	0.077021	0.16084	0.23135	0.21648	0.027472	0.19562	0.20898	-0.71042	-1.6812	-1.7437	-1.2521	-2.0354	-1.1479	-1.6042	-1.8333	-0.81042	-1.9062	-1.8333	-1.0604	-2.0146	-1.3333	-1.3271	-1.9	278.262	49.676	144.245	246.278	315.250	98.525	327.267	133.093	39.087	250.925	104.760	373.385	336.255	107.717	184.083	48.334	0.000649	0.00038445	0.00012066	1085.1	2.5573e-06	6.151e-06	1186.8	226.22	4.0789e-06	3.5778e-06	286.74	80.726	63.406	18.371	5.4089e-06	25.582	0.0018953	0.003198	0.00093542	1082.8	3.2532e-05	3.8332e-05	1184.5	228.44	3.1855e-05	3.8283e-05	290.08	82.805	65.016	19.141	3.478e-05	26.752	327.495	122.430	162.591	43.137	171.512	171.050	43.299	50.932	186.378	238.127	50.140	57.605	57.809	64.561	218.978	63.857	-8191	255	
1160.928	1	1	0	0	0.27379	0.16064	0.11313	0.053096	0.28282	0.16405	0.15974	0.13096	0.17907	0.26053	0.10109	0.12748	0.23953	0.18268	0.17856	0.1928	-0.7125	-1.5875	-1.675	-1.1104	-1.9396	-1.4771	-1.3687	-1.8521	-1.1708	-1.7	-1.6625	-1.1583	-1.9458	-1.4083	-1.2104	-1.9104	347.072	329.079	93.026	287.058	41.770	179.467	167.270	335.366	278.698	301.538	300.180	282.496	341.280	260.801	184.425	353.173	0.00072585	0.00020324	4.3859e-05	1083.3	2.8399e-06	5.1012e-06	1188.4	226.26	1.2306e-05	2.808e-06	284.13	81.343	63.872	18.249	5.8215e-06	25.704	0.0019911	0.0033167	0.00093502	1083.4	3.1974e-05	3.8235e-05	1186.1	228.39	3.0886e-05	3.8235e-05	289.75	82.848	65.074	19.104	3.3704e-05	26.819	315.181	355.186	181.553	43.151	153.594	104.666	43.194	50.639	282.733	85.326	50.549	57.734	58.018	64.384	163.037	63.676	-8191	255	
1161.025	1	1	0	0	0.26564	0.16999	0.19054	0.1629	0.035243	0.15525	0.19661	0.18738	0.1422	0.19663	0.19495	0.38017	0.23019	0.18215	0.13769	0.27135	-0.81667	-1.625	-1.9312	-1.0375	-1.8417	-1.3083	-1.4083	-1.9771	-1.2396	-1.5521	-2.0875	-1.2729	-1.8875	-1.7083	-1.2208	-1.9937	82.328	66.577	158.236	379.339	276.745	137.525	274.121	230.941	51.717	193.632	309.313	387.937	66.299	298.346	302.643	59.625	0.0005903	0.00036359	7.5425e-05	1085.3	4.0619e-06	5.9905e-06	1190.2	227.28	8.0624e-06	4.5072e-06	284.01	80.461	63.513	18.223	7.8121e-06	25.743	0.001913	0.0032704	0.00092436	1086.1	3.1419e-05	3.5665e-05	1184.7	228.7	2.8884e-05	3.5561e-05	289.17	82.486	64.79	19.006	2.9668e-05	26.777	323.409	97.997	147.083	43.091	197.183	193.137	43.153	50.808	198.993	167.953	50.203	57.317	57.655	64.431	185.717	63.697	-8191	255	
1161.121	1	1	0	0	0.19569	0.055554	0.24737	0.035457	0.14779	0.31718	0.38849	0.49566	0.26018	0.37033	0.23391	0.13238	0.22626	0.16605	0.11902	0.14239	-0.82083	-1.3792	-1.8792	-1.2375	-1.6354	-1.5812	-1.0979	-2.0896	-1.3896	-1.3875	-2.0771	-1.0792	-1.7938	-1.7396	-1.0604	-2.0729	309.308	323.349	210.542	226.458	216.587	44.137	287.172	337.816	158.574	62.848	291.968	40.879	355.877	320.691	91.451	315.045	0.00065685	0.00028707	0.00015321	1084.7	1.0456e-05	5.5517e-06	1188.5	226.32	8.4564e-06	1.6861e-06	285.56	80.659	63.206	18.418	3.4306e-06	25.625	0.0017162	0.0028206	0.0008174	1081	2.8165e-05	3.2454e-05	1182	227.62	2.6606e-05	3.1556e-05	288.02	82.238	64.687	18.948	2.8605e-05	26.644	321.579	90.888	120.750	42.459	187.596	185.565	43.161	50.344	228.990	174.691	50.181	57.288	57.276	64.259	173.418	63.686	-8191	255	
1161.217	1	1	0	0	0.075546	0.26795	0.16104	0.28554	0.31141	0.05373	0.12487	0.28024	0.10995	0.22811	0.10314	0.20205	0.1055	0.19515	0.082309	0.29349	-1.0458	-1.4833	-1.8312	-1.2375	-1.7042	-1.7188	-1.4562	-1.9	-1.3729	-1.2771	-2.1437	-1.2625	-1.6479	-1.9438	-1.175	-1.7021	229.998	221.596	148.099	381.292	320.601	129.693	43.819	386.815	176.029	379.718	205.798	311.442	322.860	64.432	212.651	34.498	0.00075652	0.00040671	8.478e-05	1075.4	7.0928e-06	4.4712e-06	1182.9	224.4	1.8619e-06	2.2189e-06	284.52	81.023	63.248	18.182	7.4149e-06	25.642	0.0016677	0.0027901	0.00079732	1077.6	2.8233e-05	3.3345e-05	1179.5	226.83	2.6027e-05	3.2212e-05	287.99	82.354	64.41	18.9	2.7175e-05	26.574	317.270	149.827	62.791	42.902	190.913	138.998	43.171	50.238	207.631	178.203	50.485	57.527	57.646	64.281	191.968	63.855	-8191	255	
1161.313	1	1	0	0	0.24462	0.30712	0.12576	0.21534	0.205	0.18781	0.252	0.079836	0.15961	0.12234	0.15469	0.29819	0.34493	0.35154	0.47133	0.16626	-1.2313	-1.2437	-2.0625	-1.2333	-1.4438	-1.7208	-1.1063	-1.8625	-1.7104	-1.1354	-1.9792	-1.4125	-1.4688	-1.9312	-1.0417	-1.5792	90.142	289.092	137.166	297.635	49.937	193.475	310.246	318.394	140.860	86.721	369.940	306.212	299.412	37.780	284.806	311.738	0.00059904	0.00038928	0.0001513	1076.9	5.7107e-06	1.0667e-06	1178.1	223.27	7.8946e-06	1.0483e-06	283.58	80.29	63.317	18.14	2.0133e-06	25.656	0.0015596	0.002687	0.00074607	1077.3	2.6703e-05	3.1362e-05	1176.5	226.06	2.505e-05	3.1565e-05	287.01	81.95	64.355	18.825	2.6834e-05	26.548	317.540	119.039	109.829	42.745	181.972	131.015	42.986	50.642	198.284	359.272	50.382	57.317	57.231	64.187	292.565	63.865	-8191	255	
1161.409	1	1	0	0	0.076424	0.31056	0.29009	0.19506	0.31992	0.24941	0.37705	0.14962	0.083463	0.25703	0.13553	0.060105	0.2776	0.19267	0.18145	0.062574	-1.1313	-1.175	-1.9375	-1.4167	-1.4562	-1.9625	-1.3271	-1.7542	-1.7333	-1.1375	-1.9417	-1.2979	-1.2271	-1.7542	-1.05	-1.5812	309.214	359.668	328.147	52.393	308.244	53.835	369.495	389.880	59.945	213.482	337.154	75.084	268.135	362.974	245.155	268.640	0.00059742	0.00030481	2.5753e-05	1071.8	4.9733e-06	3.7787e-06	1175.7	225.03	6.1786e-06	3.8687e-06	284.96	80.061	63.205	18.128	7.5611e-06	25.454	0.0015753	0.0026411	0.00072044	1072.9	2.6134e-05	2.9905e-05	1174.3	225.83	2.4492e-05	3.0511e-05	287.03	81.774	64.26	18.831	2.7116e-05	26.516	326.834	90.770	129.536	42.766	169.022	110.059	42.949	50.796	184.527	199.052	49.915	57.579	57.751	64.731	162.599	63.775	-8191	255	
1161.505	1	1	0	0	0.15603	0.32608	0.17031	0.24315	0.12491	0.085273	0.11754	0.070902	0.23989	0.17664	0.24462	0.13257	0.16973	0.1145	0.086086	0.32026	-1.2229	-0.96875	-1.7833	-1.475	-1.0458	-1.8958	-1.3854	-1.5896	-1.7646	-1.0688	-1.7687	-1.3708	-1.1354	-2.0792	-1.1229	-1.6833	386.925	221.524	275.986	375.965	337.103	149.489	382.198	355.348	156.265	46.558	329.331	160.814	249.974	106.792	193.830	303.948	0.00072489	0.00022322	8.9466e-05	1072.7	9.1084e-06	3.9606e-06	1178.9	222.82	1.8678e-06	6.1696e-06	284.36	80.056	63.476	18.103	3.2882e-06	25.559	0.0015756	0.0026199	0.00074532	1072.1	2.6527e-05	3.0727e-05	1172.5	225.65	2.4705e-05	3.0646e-05	286.98	81.86	64.316	18.829	2.6749e-05	26.523	309.281	176.638	138.499	43.207	186.289	203.675	43.275	50.591	197.076	181.068	50.262	57.215	57.957	64.542	247.557	63.784	-8191	255	
1161.626	1	1	0	0	0.14138	0.03509	0.12447	0.26055	0.10165	0.35106	0.27639	0.19488	0.057055	0.26334	0.25699	0.31961	0.19413	0.19825	0.043398	0.088796	-1.4937	-1.0042	-1.7479	-1.6604	-1.3417	-2.0521	-1.4438	-1.4521	-1.8729	-1.0812	-1.8	-1.7104	-1.2854	-1.8958	-1.4375	-1.3417	285.030	66.530	369.915	345.049	265.702	197.311	324.516	293.848	33.086	113.547	347.565	49.113	266.468	360.340	164.818	337.758	0.00064966	0.00037346	8.8313e-05	1075.9	3.9548e-06	3.9807e-06	1177.1	224.04	2.5553e-06	2.575e-06	284.07	80.79	63.313	18.283	4.557e-06	25.731	0.0015802	0.0026756	0.00074692	1073.6	2.6628e-05	3.0598e-05	1174.3	226.09	2.49e-05	3.1078e-05	286.77	82.131	64.269	18.863	2.7284e-05	26.534	314.699	111.665	181.265	42.954	137.557	191.647	43.023	50.926	258.828	161.473	50.373	57.722	57.546	64.238	222.431	63.492	-8191	255	
1161.722	1	1	0	0	0.18126	0.13154	0.081029	0.32403	0.32721	0.3054	0.24626	0.18639	0.42075	0.18001	0.057169	0.17425	0.30068	0.16815	0.18917	0.28567	-1.5542	-1.0021	-1.7083	-1.9375	-0.90625	-1.8312	-1.3854	-1.2646	-2.0521	-1.1979	-1.7333	-1.7854	-1.0562	-1.9979	-1.3458	-1.3833	326.947	88.488	118.134	33.256	134.901	380.608	330.598	325.510	82.058	304.509	349.126	123.958	139.107	196.873	382.663	291.228	0.00061935	0.00028411	0.00012833	1075	5.0258e-06	3.158e-06	1173.7	223.93	5.3922e-06	2.3693e-06	282.13	80.502	62.937	18.006	5.3632e-06	25.606	0.0015907	0.0026878	0.00075734	1073.9	2.6296e-05	3.1059e-05	1172.5	225.89	2.4281e-05	3.0728e-05	286.19	81.943	64.065	18.766	2.5924e-05	26.486	307.713	57.645	106.160	42.860	181.287	143.984	42.812	50.839	231.870	218.394	50.144	57.113	57.806	64.627	234.734	64.118	-8191	255	
1161.818	1	1	0	0	0.12204	0.062375	0.054143	0.2327	0.24797	0.19901	0.1318	0.37912	0.26135	0.15647	0.13315	0.15507	0.17712	0.36283	0.21952	0.3684	-1.6417	-1.1187	-1.4146	-1.9729	-1.1417	-1.7625	-1.6063	-1.0438	-1.9167	-1.2083	-1.3833	-1.8979	-1.2583	-1.7146	-1.6104	-1.2708	139.245	196.073	250.488	58.498	35.300	343.682	47.917	311.048	213.081	300.559	350.409	212.385	277.457	40.970	378.516	67.594	0.00076854	0.00010379	9.0851e-05	1076	1.2289e-06	4.0196e-06	1178.9	224.61	5.1311e-06	3.2555e-06	283.14	80.244	62.963	18.008	3.2991e-06	25.307	0.001553	0.0026205	0.00074708	1073.5	2.5872e-05	2.9796e-05	1171.6	225.87	2.4618e-05	2.9915e-05	285.86	81.631	64.019	18.712	2.564e-05	26.345	318.964	147.899	152.211	43.126	230.560	166.293	43.209	50.491	217.426	192.839	50.414	57.438	57.510	64.425	255.045	64.130	-8191	255	
1161.914	1	1	0	0	0.045269	0.45004	0.11213	0.21448	0.0081257	0.20934	0.15629	0.33438	0.049279	0.04708	0.18086	0.099007	0.22193	0.046126	0.13544	0.30429	-1.6688	-1.1271	-1.0938	-1.9875	-1.0583	-1.7458	-1.7146	-1.0875	-1.8396	-1.4312	-1.3896	-1.9458	-1.2521	-1.7833	-1.9396	-1.0667	88.910	194.924	333.468	365.669	106.938	342.229	283.831	104.492	132.055	151.901	229.894	274.694	328.650	345.064	305.805	288.072	0.00060845	0.00018577	4.1163e-05	1071.9	5.7842e-06	5.5485e-06	1175.3	223.78	6.3458e-06	1.9582e-06	280.75	80.037	62.601	18.189	3.5338e-06	25.357	0.0015127	0.0025955	0.00073743	1069.1	2.5825e-05	2.9739e-05	1168.6	225.08	2.4055e-05	2.9859e-05	284.36	81.552	63.659	18.746	2.6678e-05	26.396	312.041	135.554	185.128	42.893	203.200	159.257	43.160	50.596	238.631	170.846	50.139	57.342	57.647	64.333	159.531	63.556	-8191	255	
1162.009	1	1	0	0	0.39644	0.11504	0.13644	0.11845	0.17128	0.29473	0.30217	0.42464	0.1532	0.078617	0.12619	0.088084	0.19727	0.2102	0.085341	0.29251	-1.4312	-1.5771	-1.1042	-2.0479	-1.1125	-1.6812	-2.0646	-1.1542	-1.9292	-1.4208	-1.2229	-2.0167	-1.0833	-1.5104	-1.7875	-0.97083	105.000	173.663	195.284	392.135	200.631	237.320	49.363	261.936	266.060	185.798	275.882	149.979	340.715	87.829	87.926	39.919	0.00057718	4.0582e-05	0.00012782	1073.3	4.9882e-06	2.666e-06	1173.1	222.57	5.1491e-06	2.4741e-06	282.19	79.661	62.023	18.005	4.6651e-06	25.37	0.0015239	0.0025868	0.00075068	1070.8	2.5197e-05	3.0177e-05	1169.5	224.39	2.4363e-05	3.0046e-05	284.37	81.243	63.511	18.664	2.6351e-05	26.385	323.328	273.904	102.469	42.614	204.527	164.078	43.057	50.359	184.995	76.610	49.927	57.408	57.302	63.955	191.926	63.338	-8191	255	
1162.105	1	1	0	0	0.27433	0.24255	0.20141	0.19215	0.14382	0.12221	0.23947	0.34653	0.16625	0.064921	0.17766	0.1358	0.20752	0.12308	0.19682	0.097993	-1.3958	-1.3396	-1.0021	-2.0375	-1.0833	-1.2729	-2.1063	-1.1063	-1.8667	-1.6833	-1.2021	-2.0542	-1.2917	-1.3375	-1.7812	-1.2583	226.492	308.840	72.793	328.511	192.672	146.461	366.372	34.796	316.943	247.501	64.732	278.433	73.452	98.569	133.881	347.833	0.00068421	0.00028725	0.00014342	1073.1	6.6387e-06	2.2602e-06	1170.8	223.15	2.678e-06	6.2983e-06	282.29	80.188	62.289	18.059	9.3629e-06	25.424	0.001552	0.0025973	0.0007355	1069.1	2.5452e-05	3.0234e-05	1168.4	224.81	2.4332e-05	2.9614e-05	284.1	81.503	63.71	18.704	2.6238e-05	26.274	313.716	112.104	170.167	43.077	213.673	172.562	42.899	50.613	244.259	229.129	50.509	57.600	57.619	64.755	225.910	64.256	-8191	255	
1162.226	1	1	0	0	0.25354	0.2026	0.051929	0.11628	0.19809	0.2164	0.351	0.25224	0.086449	0.084669	0.32682	0.25963	0.037201	0.23172	0.10711	0.22563	-1.3708	-1.6833	-0.93125	-1.8979	-1.3229	-1.2146	-2.0875	-1.3417	-1.5708	-2.0125	-1.1229	-1.9625	-1.3167	-1.0938	-1.9292	-1.3563	383.397	389.599	95.488	265.296	47.425	257.199	335.236	235.929	131.405	344.572	385.760	303.239	46.445	351.581	328.991	137.454	0.00059027	0.00018635	0.00011417	1074.8	4.7099e-06	2.6704e-06	1172.1	223.64	3.1374e-06	3.7309e-06	279.32	79.798	61.939	17.899	2.0929e-06	25.2	0.0015526	0.0026042	0.00074934	1071.3	2.5128e-05	3.0845e-05	1168	224.97	2.458e-05	3.0065e-05	283.42	81.403	63.402	18.614	2.6909e-05	26.163	326.009	172.241	75.189	43.040	150.132	148.199	43.089	50.632	249.731	279.408	50.124	57.850	57.737	64.390	304.495	63.796	-8191	255	
1162.322	1	1	0	0	0.25527	0.023202	0.16096	0.39573	0.18162	0.20466	0.36786	0.068587	0.21272	0.087416	0.19957	0.21848	0.15528	0.13356	0.058973	0.016459	-1.1187	-1.7583	-1.2083	-1.7333	-1.575	-1.1958	-2.1437	-1.225	-1.4354	-1.975	-0.98958	-1.8625	-1.7792	-1.3125	-2.1188	-1.3333	225.285	377.159	385.814	390.359	377.159	182.508	317.900	265.298	141.673	66.234	137.425	200.647	385.856	347.146	52.872	179.980	0.00071788	0.00033504	0.00013224	1067.4	6.6382e-06	2.0989e-06	1171.5	222.65	7.0773e-06	8.5527e-07	279.84	80.019	62.245	17.994	3.3242e-06	25.267	0.0015827	0.0026036	0.00075106	1068.7	2.5822e-05	2.9614e-05	1169	224.7	2.4486e-05	3.0506e-05	283.94	81.367	63.639	18.658	2.5615e-05	26.2	313.609	101.704	134.377	42.970	186.151	270.847	42.932	50.489	198.136	337.004	50.191	57.442	57.928	64.449	96.364	63.306	-8191	255	
1162.418	1	1	0	0	0.15025	0.037618	0.16065	0.22265	0.17887	0.15965	0.26205	0.1359	0.29234	0.23096	0.14613	0.093574	0.16302	0.15249	0.19956	0.38836	-1.1854	-1.8062	-1.1313	-1.75	-1.4583	-0.96667	-2.0771	-1.3062	-1.3375	-1.9375	-1.0521	-1.75	-1.8104	-1.0542	-1.9833	-1.5542	282.254	87.480	296.138	375.684	146.894	350.650	38.447	236.239	134.060	116.661	133.035	55.806	147.094	320.845	237.001	354.461	0.00055576	0.00049778	7.2353e-06	1069	5.2026e-06	1.5875e-06	1166.9	222.84	6.4901e-06	4.6534e-06	280.78	80.251	62.502	17.893	2.4839e-06	25.396	0.0015574	0.0025702	0.00073548	1068	2.4978e-05	2.9481e-05	1166.3	224.74	2.4069e-05	2.9154e-05	284.17	81.401	63.445	18.558	2.588e-05	26.213	317.231	98.354	281.304	42.875	211.224	162.872	42.868	50.531	198.407	222.487	50.117	57.154	57.550	64.442	122.860	63.354	-8191	255	
