BOXY.EXE: ISS Imagent and Oximeter Data Acquisition Program Version 0.80
Ascii Record File

#ACQ INFORMATION
2  Detector Channels 
16  External MUX Channels 
1  Auxiliary Channels 
5000  Waveform (CCF) Frequency (Hz)
1  Waveforms Skipped 
30  Waveforms Averaged 
1  Cycles Averaged 
16  Acquisitions per Waveform 
10.0806  Updata Rate (Hz) 

#FILE INFORMATION
TRUE -- External MUX Channel results are PARSED.
FALSE -- AC DC and Phase are NOT grouped.
TRUE -- Companion Program Settings File CREATED.
FALSE -- AC data not excluded
FALSE -- DC data not excluded
FALSE -- Phase data not excluded
FALSE -- Auxillary Chn. data not excluded
Tab delimiters

#CALIBRATION STATE
TRUE -- Waveform Calibration Values APPLIED.


#AUX CALIBRATION VALUES
Val Type	aux-1	

Term	1.0000e+00	
Factor	0.0000e+00	


#WF CALIBRATION VALUES
A = Detector Channel
Val Type	A-AC1	A-AC2	A-AC3	A-AC4	A-AC5	A-AC6	A-AC7	A-AC8	A-AC9	A-AC10	A-AC11	A-AC12	A-AC13	A-AC14	A-AC15	A-AC16	A-DC1	A-DC2	A-DC3	A-DC4	A-DC5	A-DC6	A-DC7	A-DC8	A-DC9	A-DC10	A-DC11	A-DC12	A-DC13	A-DC14	A-DC15	A-DC16	A-Ph1	A-Ph2	A-Ph3	A-Ph4	A-Ph5	A-Ph6	A-Ph7	A-Ph8	A-Ph9	A-Ph10	A-Ph11	A-Ph12	A-Ph13	A-Ph14	A-Ph15	A-Ph16	

Term	0.00000e+00	0.00000e+00	0.00000e+00	0.00000e+00	0.00000e+00	0.00000e+00	0.00000e+00	0.00000e+00	0.00000e+00	0.00000e+00	0.00000e+00	0.00000e+00	0.00000e+00	0.00000e+00	0.00000e+00	0.00000e+00	0.00000e+00	0.00000e+00	0.00000e+00	0.00000e+00	0.00000e+00	0.00000e+00	0.00000e+00	0.00000e+00	0.00000e+00	0.00000e+00	0.00000e+00	0.00000e+00	0.00000e+00	0.00000e+00	0.00000e+00	0.00000e+00	0.00000e+00	0.00000e+00	0.00000e+00	0.00000e+00	0.00000e+00	0.00000e+00	0.00000e+00	0.00000e+00	0.00000e+00	0.00000e+00	0.00000e+00	0.00000e+00	0.00000e+00	0.00000e+00	0.00000e+00	0.00000e+00	
Factor	1.00000e+00	1.00000e+00	1.00000e+00	1.00000e+00	1.00000e+00	1.00000e+00	1.00000e+00	1.00000e+00	1.00000e+00	1.00000e+00	1.00000e+00	1.00000e+00	1.00000e+00	1.00000e+00	1.00000e+00	1.00000e+00	1.00000e+00	1.00000e+00	1.00000e+00	1.00000e+00	1.00000e+00	1.00000e+00	1.00000e+00	1.00000e+00	1.00000e+00	1.00000e+00	1.00000e+00	1.00000e+00	1.00000e+00	1.00000e+00	1.00000e+00	1.00000e+00	X	X	X	X	X	X	X	X	X	X	X	X	X	X	X	X	

B = Detector Channel
Val Type	B-AC1	B-AC2	B-AC3	B-AC4	B-AC5	B-AC6	B-AC7	B-AC8	B-AC9	B-AC10	B-AC11	B-AC12	B-AC13	B-AC14	B-AC15	B-AC16	B-DC1	B-DC2	B-DC3	B-DC4	B-DC5	B-DC6	B-DC7	B-DC8	B-DC9	B-DC10	B-DC11	B-DC12	B-DC13	B-DC14	B-DC15	B-DC16	B-Ph1	B-Ph2	B-Ph3	B-Ph4	B-Ph5	B-Ph6	B-Ph7	B-Ph8	B-Ph9	B-Ph10	B-Ph11	B-Ph12	B-Ph13	B-Ph14	B-Ph15	B-Ph16	

Term	0.00000e+00	0.00000e+00	0.00000e+00	0.00000e+00	0.00000e+00	0.00000e+00	0.00000e+00	0.00000e+00	0.00000e+00	0.00000e+00	0.00000e+00	0.00000e+00	0.00000e+00	0.00000e+00	0.00000e+00	0.00000e+00	0.00000e+00	0.00000e+00	0.00000e+00	0.00000e+00	0.00000e+00	0.00000e+00	0.00000e+00	0.00000e+00	0.00000e+00	0.00000e+00	0.00000e+00	0.00000e+00	0.00000e+00	0.00000e+00	0.00000e+00	0.00000e+00	-2.03808e+02	-1.26914e+02	-1.21665e+02	-1.82284e+02	-9.97973e+01	-6.70612e+01	-1.58386e+02	-1.62015e+02	-9.23245e+01	-5.47240e+01	-1.79153e+02	-1.73355e+02	-1.82277e+02	-1.78265e+02	-9.35483e+01	-1.51023e+02	
Factor	4.16203e-05	1.29908e-04	3.88856e-05	1.52783e-01	1.56517e-06	1.40541e-06	1.69293e-01	4.87466e-02	1.56402e-06	1.54847e-06	1.08150e+00	2.87519e-02	2.79038e-02	8.23139e-03	1.38566e-06	1.17084e-02	2.55365e-06	2.72466e-06	7.60423e-07	8.14313e-02	2.95165e-08	3.00081e-08	8.46997e-02	2.60561e-02	2.96002e-08	2.99262e-08	4.46141e-01	1.47748e-02	1.49295e-02	4.41557e-03	2.97076e-08	6.06583e-03	X	X	X	X	X	X	X	X	X	X	X	X	X	X	X	X	



#DISTANCE SETTINGS
A = Detector Channel
A-1	A-2	A-3	A-4	A-5	A-6	A-7	A-8	A-9	A-10	A-11	A-12	A-13	A-14	A-15	A-16	

2.5000e+00	3.0000e+00	2.5000e+00	3.0000e+00	2.0000e+00	3.0000e+00	1.5000e+00	3.0000e+00	3.0000e+00	3.0000e+00	3.0000e+00	3.0000e+00	3.0000e+00	3.0000e+00	1.5000e+00	3.0000e+00	

B = Detector Channel
B-1	B-2	B-3	B-4	B-5	B-6	B-7	B-8	B-9	B-10	B-11	B-12	B-13	B-14	B-15	B-16	

1.0000e+01	1.0000e+01	1.0000e+01	1.4400e+00	1.0000e+01	1.0000e+01	1.5100e+00	1.9400e+00	1.0000e+01	1.0000e+01	1.9900e+00	2.4900e+00	2.4100e+00	2.9000e+00	1.0000e+01	2.9800e+00	




#DATA BEGINS
time	group	step	mark	flag	A-AC1	A-AC2	A-AC3	A-AC4	A-AC5	A-AC6	A-AC7	A-AC8	A-AC9	A-AC10	A-AC11	A-AC12	A-AC13	A-AC14	A-AC15	A-AC16	A-DC1	A-DC2	A-DC3	A-DC4	A-DC5	A-DC6	A-DC7	A-DC8	A-DC9	A-DC10	A-DC11	A-DC12	A-DC13	A-DC14	A-DC15	A-DC16	A-Ph1	A-Ph2	A-Ph3	A-Ph4	A-Ph5	A-Ph6	A-Ph7	A-Ph8	A-Ph9	A-Ph10	A-Ph11	A-Ph12	A-Ph13	A-Ph14	A-Ph15	A-Ph16	B-AC1	B-AC2	B-AC3	B-AC4	B-AC5	B-AC6	B-AC7	B-AC8	B-AC9	B-AC10	B-AC11	B-AC12	B-AC13	B-AC14	B-AC15	B-AC16	B-DC1	B-DC2	B-DC3	B-DC4	B-DC5	B-DC6	B-DC7	B-DC8	B-DC9	B-DC10	B-DC11	B-DC12	B-DC13	B-DC14	B-DC15	B-DC16	B-Ph1	B-Ph2	B-Ph3	B-Ph4	B-Ph5	B-Ph6	B-Ph7	B-Ph8	B-Ph9	B-Ph10	B-Ph11	B-Ph12	B-Ph13	B-Ph14	B-Ph15	B-Ph16	aux-1	digaux	

1150.422	1	1	0	256	0.28915	0.14318	0.20647	0.52283	0.31459	0.26575	0.37935	0.3019	0.13852	0.17517	0.20122	0.21698	0.34561	0.13028	0.35311	0.097241	-1.1875	-1.0792	-0.96458	-1.7479	-0.68333	-1.1104	-1.6375	-0.7875	-1.4333	-1.2479	-0.9	-1.6271	-0.80625	-1.2812	-1.4271	-0.77083	153.883	256.411	178.176	327.388	358.967	327.724	298.876	186.023	249.063	181.035	273.829	82.005	325.326	119.392	64.357	283.455	0.00033713	0.00026167	6.2752e-05	1023.7	2.6856e-06	2.1374e-06	1105.5	209.62	1.2758e-06	3.8514e-06	271.02	74.528	58.972	16.564	2.5693e-06	22.547	5.5872e-05	3.911e-05	1.1186e-05	1000.5	4.8272e-07	4.1536e-07	1082.3	206.09	4.6226e-07	4.2664e-07	214.92	73.471	57.78	16.449	4.4716e-07	22.489	70.035	102.036	107.387	31.444	178.644	159.286	30.899	38.860	168.962	172.460	38.833	44.788	45.798	53.292	176.933	52.735	-8191	255	
1150.542	1	1	0	0	0.18629	0.086028	0.036683	0.32894	0.33163	0.14123	0.13523	0.22781	0.096172	0.18342	0.19934	0.096432	0.051514	0.1943	0.33601	0.15157	-1.1521	-1.1521	-0.85417	-1.7062	-0.95625	-1.1292	-1.5021	-0.72917	-1.3937	-1.0979	-0.56875	-1.3583	-0.9375	-0.77292	-1.5562	-0.73333	169.761	81.633	220.427	288.710	276.025	279.292	317.900	362.599	295.281	135.097	267.944	303.584	91.673	278.891	314.237	220.892	0.00039064	0.00023645	8.4731e-05	1022	2.0579e-06	1.506e-06	1103.9	208.99	3.4661e-06	2.2184e-06	260.92	74.111	58.703	16.424	3.0891e-06	22.563	5.5989e-05	3.9292e-05	1.1338e-05	998.23	4.9526e-07	4.3981e-07	1082.1	205.96	4.4838e-07	4.0195e-07	213.2	73.338	57.534	16.414	4.6988e-07	22.491	67.785	111.821	170.350	31.405	120.910	185.711	31.351	39.063	164.323	181.567	38.272	45.464	45.891	52.563	142.073	52.241	-8191	255	
1150.637	1	1	0	0	0.15527	0.30218	0.25548	0.19785	0.1056	0.25948	0.44062	0.1907	0.09935	0.11137	0.16607	0.058789	0.11058	0.33646	0.14822	0.19923	-0.85833	-1.1604	-0.54167	-1.7042	-0.90208	-1.0562	-1.7125	-0.89167	-1.0771	-1.425	-0.57708	-1.6625	-0.975	-0.9	-1.6396	-0.70625	313.494	220.366	356.842	24.817	322.683	179.170	320.218	200.815	189.556	372.088	65.687	43.958	317.249	339.501	339.580	304.492	0.00042675	0.00028219	2.8477e-05	1016.8	2.4928e-06	3.0163e-06	1107.9	208.88	2.2614e-06	3.6043e-06	257.92	74.104	58.865	16.353	2.2802e-06	22.644	6.1703e-05	4.0228e-05	1.1207e-05	997.01	5.0719e-07	4.5894e-07	1080.7	205.49	5.0512e-07	4.3162e-07	214.19	73.027	57.596	16.415	4.3299e-07	22.485	71.689	85.297	91.419	31.492	139.606	148.231	31.366	38.932	173.561	181.914	38.331	45.227	45.320	53.202	156.075	52.733	-8191	255	
1150.733	1	1	0	0	0.20569	0.31572	0.19964	0.19525	0.30576	0.37857	0.27693	0.16024	0.12735	0.20584	0.10527	0.12143	0.1688	0.18285	0.17974	0.23534	-0.6125	-1.2729	-0.74375	-1.6375	-1.0333	-0.68542	-1.6521	-0.66875	-1.0375	-1.4146	-0.71667	-1.4896	-1.4271	-0.8375	-1.5229	-0.93542	327.051	101.600	344.207	326.691	192.198	94.720	313.119	285.007	119.682	306.887	129.143	237.837	30.901	376.463	235.929	241.365	0.00038636	0.00027845	6.0851e-05	1012.7	2.3215e-06	1.8346e-06	1101.8	207.33	4.8564e-07	1.7568e-06	258.63	73.601	58.513	16.315	1.6987e-06	22.46	5.8713e-05	3.676e-05	1.1589e-05	994.4	4.9662e-07	4.3962e-07	1077.3	204.62	4.7194e-07	4.0999e-07	211.48	72.854	57.435	16.334	4.2958e-07	22.5	61.709	164.668	117.022	31.372	139.301	173.258	31.388	38.935	114.603	246.868	39.324	45.328	45.812	53.222	122.030	52.558	-8191	255	
1150.829	1	1	0	0	0.23213	0.14268	0.16037	0.34002	0.067733	0.13817	0.14794	0.20928	0.10653	0.080111	0.028519	0.066382	0.18207	0.11686	0.15027	0.082251	-0.55833	-1.5	-0.62292	-1.45	-1.225	-0.65	-1.7625	-1.0875	-0.88958	-1.375	-0.65	-1.3542	-1.4021	-0.74167	-1.5187	-1.0833	375.281	333.622	326.326	326.381	346.198	317.200	355.725	308.804	349.811	142.151	29.184	256.857	53.521	211.916	330.868	67.357	0.0003817	0.00025709	5.389e-05	1011.3	2.9454e-06	9.7355e-07	1099.3	207.64	2.4027e-06	9.5578e-07	260.29	73.571	58.68	16.383	2.8646e-06	22.287	5.9069e-05	3.9962e-05	1.1387e-05	992.89	5.0713e-07	4.3824e-07	1077	204.85	4.7052e-07	4.0812e-07	210.59	72.924	57.391	16.372	4.4246e-07	22.377	70.738	136.332	107.901	31.378	153.095	74.512	31.264	38.912	155.589	187.084	40.040	45.409	46.002	52.806	171.367	52.056	-8191	255	
1150.925	1	1	0	0	0.048443	0.182	0.096372	0.083893	0.057587	0.21942	0.24008	0.10504	0.15754	0.26814	0.15516	0.13674	0.12802	0.19258	0.029098	0.21649	-0.46667	-1.5458	-0.66875	-1.2792	-1.3021	-0.73542	-1.8813	-1.175	-0.88333	-1.4625	-0.525	-1.1792	-1.4125	-0.62292	-1.4438	-1.375	337.237	324.065	72.756	51.773	100.619	44.227	225.055	351.084	191.152	35.695	40.283	290.157	298.730	59.248	144.379	366.648	0.00042268	0.00016237	6.195e-05	1014.1	3.1413e-06	2.1527e-06	1094.4	206	2.6736e-06	4.2693e-06	262.36	73.206	58.289	16.401	1.6104e-06	22.362	5.999e-05	3.718e-05	1.0689e-05	992.91	5.11e-07	4.2061e-07	1076	204	4.5973e-07	4.0756e-07	212.88	72.779	57.281	16.369	4.6171e-07	22.373	72.442	135.875	137.310	31.708	160.334	202.419	31.713	38.709	171.019	193.917	36.982	45.530	45.570	53.164	130.902	52.434	-8191	255	
1151.021	1	1	0	0	0.11063	0.10643	0.29842	0.22396	0.2354	0.25613	0.20675	0.15519	0.11261	0.10839	0.15202	0.22504	0.1051	0.055174	0.17631	0.10034	-0.43542	-1.5	-0.7375	-1.1979	-1.5375	-0.9	-1.6313	-1.1354	-0.65833	-1.6792	-0.76458	-1.0646	-1.3979	-0.63125	-1.2208	-1.2875	211.822	203.188	264.122	43.259	350.521	373.302	315.295	24.215	96.257	241.567	222.632	272.872	380.281	214.190	254.783	209.813	0.00035308	0.00030127	3.8459e-05	1004.9	3.2589e-06	1.9276e-06	1082.4	204.11	3.4414e-06	2.4481e-06	262.32	72.733	58.101	16.145	2.5277e-06	22.27	5.8324e-05	3.4881e-05	1.105e-05	989.24	4.9083e-07	4.3262e-07	1072.3	203.57	4.8415e-07	4.0269e-07	212.4	72.665	57.279	16.274	4.5347e-07	22.354	71.340	118.138	168.851	31.233	169.511	148.032	31.023	38.841	171.334	207.256	38.388	45.357	45.628	52.994	173.213	52.027	-8191	255	
1151.118	1	1	0	0	0.12456	0.16823	0.1796	0.13881	0.20369	0.31866	0.16693	0.07749	0.21974	0.11963	0.15203	0.073773	0.099848	0.22567	0.20665	0.17943	-0.25625	-1.3458	-0.83125	-0.97292	-1.5625	-0.65417	-1.4813	-1.5708	-0.66458	-1.5333	-1.0729	-0.82292	-1.4854	-0.60833	-1.2021	-1.5396	190.581	31.029	361.888	374.542	359.506	366.686	301.592	246.070	125.442	103.355	261.605	320.396	113.504	121.041	226.025	231.805	0.00038651	0.00018993	5.3179e-05	1008.1	2.4181e-06	1.3199e-06	1088.4	205.29	4.4964e-06	3.9109e-06	252.12	73.379	58.356	16.152	4.4002e-07	22.449	5.8942e-05	3.8196e-05	1.1341e-05	992.14	4.821e-07	4.5912e-07	1075.9	204.43	4.9846e-07	4.0182e-07	210.44	72.829	57.497	16.318	4.4017e-07	22.403	67.478	79.610	110.088	31.485	167.430	179.200	31.170	38.944	158.194	148.740	39.116	45.269	45.865	53.266	134.564	52.057	-8191	255	
1151.214	1	1	0	0	0.20635	0.055937	0.16404	0.2312	0.16132	0.24027	0.46767	0.068006	0.33659	0.23082	0.26746	0.058746	0.2133	0.13056	0.16175	0.31728	-0.3125	-1.4458	-1.0354	-1.0667	-1.5375	-0.80417	-1.3813	-1.5812	-0.7625	-1.4083	-1.3396	-0.81667	-1.475	-0.92083	-1.0312	-1.4521	231.544	306.546	137.732	348.362	218.847	238.809	284.040	173.159	230.593	175.585	331.990	374.157	332.171	368.419	280.401	319.723	0.00034633	0.00021541	6.5803e-05	1006.9	2.6734e-06	1.702e-06	1094.2	205.7	2.0479e-06	4.2784e-06	260.8	72.692	58.566	16.106	1.6013e-06	22.344	5.7878e-05	3.8923e-05	1.1273e-05	992.82	4.9065e-07	4.4887e-07	1076.1	204.5	4.8988e-07	4.1697e-07	211.73	72.79	57.487	16.286	4.3992e-07	22.407	67.283	106.359	101.208	31.344	139.472	234.880	31.364	38.966	130.424	194.548	38.509	45.126	45.918	53.036	212.365	52.410	-8191	255	
1151.334	1	1	0	0	0.27368	0.13573	0.24636	0.21359	0.23473	0.16296	0.1923	0.11324	0.20019	0.11245	0.24134	0.030386	0.076386	0.13934	0.12532	0.11071	-0.25417	-1.2021	-1.2687	-0.76042	-1.5542	-0.72708	-1.1187	-1.5812	-0.625	-1.1708	-1.3667	-0.875	-1.5625	-1.1604	-0.89167	-1.8813	48.399	224.864	162.919	269.196	273.872	238.653	323.852	249.177	295.219	233.922	316.146	208.274	242.597	157.971	219.971	65.573	0.00037002	0.00020599	6.4038e-05	1006	3.0625e-06	1.7836e-06	1090.1	205.74	2.6772e-06	2.1725e-06	261.64	72.488	58.348	16.282	2.6562e-06	22.415	5.8851e-05	3.8985e-05	1.0834e-05	991.01	4.7731e-07	4.5231e-07	1078.1	204.31	4.8421e-07	4.3443e-07	212.39	72.618	57.445	16.324	4.7285e-07	22.423	69.788	116.339	109.811	31.644	151.256	180.708	31.505	38.932	127.179	182.690	38.953	45.507	46.160	52.732	155.803	53.013	-8191	255	
1151.431	1	1	0	0	0.1812	0.19051	0.19527	0.55688	0.07096	0.033263	0.19481	0.34497	0.2134	0.12037	0.13984	0.19435	0.089594	0.15602	0.086962	0.14465	-0.3125	-1.3062	-1.5083	-0.70833	-1.6125	-1.1583	-1.0979	-1.6792	-0.64792	-1.2458	-1.3417	-0.55417	-1.4	-1.0271	-0.97917	-1.7896	216.191	53.498	52.851	307.740	140.913	65.099	304.785	35.786	90.628	227.033	351.316	370.765	358.391	357.080	34.702	333.442	0.00040282	0.00022147	5.9185e-05	1008.2	3.0787e-06	2.9769e-06	1097.5	207.81	3.6649e-06	1.6964e-06	262.88	73.325	58.573	16.33	1.0553e-06	22.358	6.0506e-05	4.2068e-05	1.0755e-05	992.48	5.0233e-07	4.5687e-07	1079	205.1	5.0832e-07	4.4609e-07	212.36	72.824	57.579	16.332	4.5632e-07	22.48	72.036	125.023	89.873	31.384	174.563	176.054	31.283	38.833	159.273	212.378	37.957	45.120	46.019	52.767	149.337	52.311	-8191	255	
1151.502	1	1	0	0	0.1431	0.16844	0.08708	0.29612	0.18175	0.32596	0.035287	0.27092	0.21348	0.19112	0.35592	0.078448	0.22567	0.27113	0.13082	0.086741	-0.39375	-1.3	-1.5396	-0.92292	-1.4813	-1.1	-0.95208	-1.7792	-0.85208	-1.0271	-1.4458	-0.91042	-1.4604	-1.3062	-0.67292	-1.7604	246.862	309.286	257.366	82.182	84.779	26.395	44.019	101.327	345.818	200.245	322.318	329.309	192.351	304.424	269.008	337.447	0.00036117	0.00025323	5.8542e-05	1014	3.3891e-06	2.2713e-06	1096.2	208.14	3.2261e-06	2.6513e-06	259.36	73.515	58.266	16.451	2.5065e-06	22.528	6.0192e-05	3.9411e-05	1.0914e-05	994.48	4.7257e-07	4.1055e-07	1077.4	205.36	4.7786e-07	4.3287e-07	212.12	72.785	57.361	16.385	4.5217e-07	22.508	73.360	118.833	134.466	31.355	171.448	175.231	31.475	39.112	155.888	187.784	38.450	44.947	46.016	52.796	138.615	52.055	-8191	255	
1151.623	1	1	0	0	0.056576	0.11154	0.25218	0.059932	0.14329	0.24803	0.16497	0.17538	0.02394	0.31923	0.019955	0.18866	0.17753	0.47423	0.2646	0.18249	-0.55417	-0.75833	-1.5125	-0.75625	-1.0021	-1.3708	-0.67083	-1.6104	-0.85833	-1.0896	-1.5187	-0.73125	-1.3167	-1.2292	-0.52083	-1.5854	39.768	294.493	104.563	314.252	57.305	75.015	320.893	230.916	339.227	85.629	304.611	58.137	75.788	91.070	357.347	353.933	0.00042064	0.00013214	6.5186e-05	1012.8	1.9505e-06	2.7341e-06	1102.9	208.47	3.9624e-06	2.6475e-06	264.98	73.269	58.391	16.34	1.9923e-06	22.39	5.9862e-05	4.0944e-05	1.099e-05	992.61	5e-07	4.5175e-07	1077	204.9	4.876e-07	4.3362e-07	212.66	72.774	57.671	16.359	4.8331e-07	22.478	76.759	142.022	145.903	31.414	179.518	181.741	31.642	38.810	165.959	199.333	39.532	45.107	46.254	53.239	196.231	53.208	-8191	255	
1151.717	1	1	0	0	0.24931	0.068492	0.15131	0.44352	0.058254	0.11614	0.04567	0.11886	0.23638	0.29014	0.15921	0.44305	0.1611	0.24477	0.16677	0.2655	-0.71458	-0.89167	-1.6688	-0.9125	-1.2375	-1.4729	-0.72708	-1.5167	-1.0938	-0.69375	-1.5792	-0.97083	-1.2	-1.4604	-0.71042	-1.3563	191.021	106.683	289.390	335.515	361.174	256.605	112.694	373.161	308.803	150.674	91.171	113.717	278.207	324.777	215.801	49.443	0.00039924	0.00026998	6.3756e-05	1013	3.2116e-06	1.3212e-06	1093.2	207.02	2.2983e-06	1.1123e-06	262.21	73.503	58.205	16.366	2.5375e-06	22.391	5.9325e-05	4.2056e-05	1.0909e-05	993.28	5.1088e-07	4.5994e-07	1076	204.58	5.0197e-07	4.3536e-07	209.77	72.807	57.349	16.358	4.8547e-07	22.327	65.896	133.664	139.364	31.801	155.986	130.907	31.334	38.964	166.306	205.346	38.513	45.264	46.447	53.560	96.993	52.369	-8191	255	
1151.815	1	1	0	0	0.26593	0.34598	0.292	0.30556	0.12366	0.12072	0.18062	0.38681	0.16216	0.18081	0.25546	0.096269	0.10678	0.36541	0.25553	0.1239	-0.70625	-0.72708	-1.6583	-1.0604	-0.85	-1.4292	-0.85833	-1.4688	-1.1313	-0.70208	-1.5729	-0.9125	-0.96042	-1.5979	-0.7	-1.3125	35.917	310.819	237.448	324.980	83.510	339.432	326.992	272.032	255.615	132.414	124.591	26.538	346.380	376.733	84.055	123.034	0.0003939	0.00014783	6.0205e-05	1009	2.7537e-06	1.5128e-06	1097.5	208.78	2.3248e-06	2.7829e-06	262.61	73.543	58.541	16.357	1.568e-06	22.162	6.0389e-05	4.1733e-05	1.0345e-05	991.01	5.0898e-07	4.2149e-07	1077.9	205.19	4.9673e-07	4.4777e-07	211.59	72.686	57.496	16.357	4.6647e-07	22.395	68.670	149.310	134.391	31.705	153.353	170.299	31.423	39.459	186.132	200.361	39.890	45.593	45.980	53.372	238.712	52.488	-8191	255	
1151.934	1	1	0	0	0.2937	0.055368	0.10604	0.12116	0.21676	0.068328	0.29047	0.12542	0.12585	0.16351	0.27871	0.14801	0.17661	0.23812	0.10686	0.22139	-0.81458	-0.725	-1.6271	-0.94583	-0.98958	-1.6854	-0.90208	-1.4167	-1.4146	-0.55208	-1.4312	-1.1083	-0.89792	-1.6542	-0.82292	-1.1938	259.628	289.571	76.023	205.754	116.154	151.906	309.496	32.430	213.279	24.633	224.515	328.112	288.377	206.448	364.563	328.382	0.00038434	9.3942e-05	7.9981e-05	1010.4	3.6475e-06	1.5322e-06	1098.3	207.43	4.1848e-06	2.2841e-06	251.75	73.947	57.862	16.481	1.6023e-06	22.371	5.9708e-05	4.2561e-05	1.1276e-05	989.47	5.2011e-07	4.1493e-07	1076	204.91	4.839e-07	4.7801e-07	209.13	72.788	57.236	16.374	4.7402e-07	22.381	72.713	83.631	148.360	31.544	152.676	181.492	31.655	39.249	170.214	197.278	39.866	45.305	46.020	52.946	203.716	52.708	-8191	255	
1152.030	1	1	0	0	0.19475	0.14311	0.069734	0.24967	0.29938	0.15808	0.14294	0.30242	0.088192	0.26631	0.13337	0.18111	0.17903	0.075631	0.23056	0.28384	-1.2062	-0.82708	-1.3396	-1.1792	-0.81667	-1.5729	-0.95625	-1.3104	-1.3438	-0.44583	-1.5292	-1.225	-0.95417	-1.5938	-0.7625	-1.1021	229.021	121.735	119.752	318.301	375.459	364.746	353.920	270.387	298.638	122.623	249.221	167.141	127.415	219.588	121.035	285.263	0.00042102	0.00026705	8.3513e-05	1010.4	3.2247e-06	1.5038e-06	1090.1	207.79	2.6224e-06	2.2705e-06	257.56	73.12	58.412	16.227	8.0265e-07	22.418	5.7079e-05	4.3538e-05	1.1414e-05	991.44	5.0719e-07	4.2186e-07	1074.1	204.65	4.6842e-07	4.4073e-07	210.4	72.678	57.37	16.299	4.4326e-07	22.421	77.417	109.586	132.420	31.425	159.838	187.502	31.584	39.777	195.773	167.194	38.398	45.463	46.078	53.145	122.846	52.745	-8191	255	
1152.102	1	1	0	0	0.088648	0.070581	0.1668	0.086694	0.14503	0.26022	0.26119	0.38579	0.26098	0.13464	0.22513	0.15339	0.23108	0.096407	0.16942	0.25439	-1.0583	-0.7375	-1.4979	-1.3	-0.67292	-1.575	-1.2854	-1.1708	-1.7521	-0.7	-1.4396	-1.4417	-0.78125	-1.5271	-0.9875	-0.80833	189.713	139.569	373.010	95.574	191.078	65.003	261.826	355.840	72.024	194.403	61.551	30.866	340.242	131.834	323.357	271.044	0.00038035	0.00021754	6.3173e-05	1011.5	3.1585e-06	2.9659e-06	1091.5	206.82	2.9079e-06	1.4068e-06	261.73	73.325	58.613	16.432	2.9079e-06	22.283	6.0633e-05	4.1012e-05	1.0424e-05	991.04	5.1432e-07	4.3124e-07	1073.8	204.76	4.6226e-07	4.4933e-07	212.58	72.53	57.263	16.334	4.6765e-07	22.339	66.744	97.564	117.308	31.436	160.336	185.353	31.491	39.179	182.614	169.953	38.615	45.758	45.885	53.133	139.107	52.797	-8191	255	
