BOXY.EXE: ISS Imagent and Oximeter Data Acquisition Program Version 0.80
Ascii Record File

#ACQ INFORMATION
2  Detector Channels 
16  External MUX Channels 
1  Auxiliary Channels 
5000  Waveform (CCF) Frequency (Hz)
1  Waveforms Skipped 
30  Waveforms Averaged 
1  Cycles Averaged 
16  Acquisitions per Waveform 
10.0806  Updata Rate (Hz) 

#FILE INFORMATION
TRUE -- External MUX Channel results are PARSED.
FALSE -- AC DC and Phase are NOT grouped.
TRUE -- Companion Program Settings File CREATED.
FALSE -- AC data not excluded
FALSE -- DC data not excluded
FALSE -- Phase data not excluded
FALSE -- Auxillary Chn. data not excluded
Tab delimiters

#CALIBRATION STATE
TRUE -- Waveform Calibration Values APPLIED.


#AUX CALIBRATION VALUES
Val Type	aux-1	

Term	1.0000e+00	
Factor	0.0000e+00	


#WF CALIBRATION VALUES
A = Detector Channel
Val Type	A-AC1	A-AC2	A-AC3	A-AC4	A-AC5	A-AC6	A-AC7	A-AC8	A-AC9	A-AC10	A-AC11	A-AC12	A-AC13	A-AC14	A-AC15	A-AC16	A-DC1	A-DC2	A-DC3	A-DC4	A-DC5	A-DC6	A-DC7	A-DC8	A-DC9	A-DC10	A-DC11	A-DC12	A-DC13	A-DC14	A-DC15	A-DC16	A-Ph1	A-Ph2	A-Ph3	A-Ph4	A-Ph5	A-Ph6	A-Ph7	A-Ph8	A-Ph9	A-Ph10	A-Ph11	A-Ph12	A-Ph13	A-Ph14	A-Ph15	A-Ph16	

Term	0.00000e+00	0.00000e+00	0.00000e+00	0.00000e+00	0.00000e+00	0.00000e+00	0.00000e+00	0.00000e+00	0.00000e+00	0.00000e+00	0.00000e+00	0.00000e+00	0.00000e+00	0.00000e+00	0.00000e+00	0.00000e+00	0.00000e+00	0.00000e+00	0.00000e+00	0.00000e+00	0.00000e+00	0.00000e+00	0.00000e+00	0.00000e+00	0.00000e+00	0.00000e+00	0.00000e+00	0.00000e+00	0.00000e+00	0.00000e+00	0.00000e+00	0.00000e+00	0.00000e+00	0.00000e+00	0.00000e+00	0.00000e+00	0.00000e+00	0.00000e+00	0.00000e+00	0.00000e+00	0.00000e+00	0.00000e+00	0.00000e+00	0.00000e+00	0.00000e+00	0.00000e+00	0.00000e+00	0.00000e+00	
Factor	1.00000e+00	1.00000e+00	1.00000e+00	1.00000e+00	1.00000e+00	1.00000e+00	1.00000e+00	1.00000e+00	1.00000e+00	1.00000e+00	1.00000e+00	1.00000e+00	1.00000e+00	1.00000e+00	1.00000e+00	1.00000e+00	1.00000e+00	1.00000e+00	1.00000e+00	1.00000e+00	1.00000e+00	1.00000e+00	1.00000e+00	1.00000e+00	1.00000e+00	1.00000e+00	1.00000e+00	1.00000e+00	1.00000e+00	1.00000e+00	1.00000e+00	1.00000e+00	X	X	X	X	X	X	X	X	X	X	X	X	X	X	X	X	

B = Detector Channel
Val Type	B-AC1	B-AC2	B-AC3	B-AC4	B-AC5	B-AC6	B-AC7	B-AC8	B-AC9	B-AC10	B-AC11	B-AC12	B-AC13	B-AC14	B-AC15	B-AC16	B-DC1	B-DC2	B-DC3	B-DC4	B-DC5	B-DC6	B-DC7	B-DC8	B-DC9	B-DC10	B-DC11	B-DC12	B-DC13	B-DC14	B-DC15	B-DC16	B-Ph1	B-Ph2	B-Ph3	B-Ph4	B-Ph5	B-Ph6	B-Ph7	B-Ph8	B-Ph9	B-Ph10	B-Ph11	B-Ph12	B-Ph13	B-Ph14	B-Ph15	B-Ph16	

Term	0.00000e+00	0.00000e+00	0.00000e+00	0.00000e+00	0.00000e+00	0.00000e+00	0.00000e+00	0.00000e+00	0.00000e+00	0.00000e+00	0.00000e+00	0.00000e+00	0.00000e+00	0.00000e+00	0.00000e+00	0.00000e+00	0.00000e+00	0.00000e+00	0.00000e+00	0.00000e+00	0.00000e+00	0.00000e+00	0.00000e+00	0.00000e+00	0.00000e+00	0.00000e+00	0.00000e+00	0.00000e+00	0.00000e+00	0.00000e+00	0.00000e+00	0.00000e+00	-2.03808e+02	-1.26914e+02	-1.21665e+02	-1.82284e+02	-9.97973e+01	-6.70612e+01	-1.58386e+02	-1.62015e+02	-9.23245e+01	-5.47240e+01	-1.79153e+02	-1.73355e+02	-1.82277e+02	-1.78265e+02	-9.35483e+01	-1.51023e+02	
Factor	4.16203e-05	1.29908e-04	3.88856e-05	1.52783e-01	1.56517e-06	1.40541e-06	1.69293e-01	4.87466e-02	1.56402e-06	1.54847e-06	1.08150e+00	2.87519e-02	2.79038e-02	8.23139e-03	1.38566e-06	1.17084e-02	2.55365e-06	2.72466e-06	7.60423e-07	8.14313e-02	2.95165e-08	3.00081e-08	8.46997e-02	2.60561e-02	2.96002e-08	2.99262e-08	4.46141e-01	1.47748e-02	1.49295e-02	4.41557e-03	2.97076e-08	6.06583e-03	X	X	X	X	X	X	X	X	X	X	X	X	X	X	X	X	



#DISTANCE SETTINGS
A = Detector Channel
A-1	A-2	A-3	A-4	A-5	A-6	A-7	A-8	A-9	A-10	A-11	A-12	A-13	A-14	A-15	A-16	

2.5000e+00	3.0000e+00	2.5000e+00	3.0000e+00	2.0000e+00	3.0000e+00	1.5000e+00	3.0000e+00	3.0000e+00	3.0000e+00	3.0000e+00	3.0000e+00	3.0000e+00	3.0000e+00	1.5000e+00	3.0000e+00	

B = Detector Channel
B-1	B-2	B-3	B-4	B-5	B-6	B-7	B-8	B-9	B-10	B-11	B-12	B-13	B-14	B-15	B-16	

1.0000e+01	1.0000e+01	1.0000e+01	1.4400e+00	1.0000e+01	1.0000e+01	1.5100e+00	1.9400e+00	1.0000e+01	1.0000e+01	1.9900e+00	2.4900e+00	2.4100e+00	2.9000e+00	1.0000e+01	2.9800e+00	




#DATA BEGINS
time	group	step	mark	flag	A-AC1	A-AC2	A-AC3	A-AC4	A-AC5	A-AC6	A-AC7	A-AC8	A-AC9	A-AC10	A-AC11	A-AC12	A-AC13	A-AC14	A-AC15	A-AC16	A-DC1	A-DC2	A-DC3	A-DC4	A-DC5	A-DC6	A-DC7	A-DC8	A-DC9	A-DC10	A-DC11	A-DC12	A-DC13	A-DC14	A-DC15	A-DC16	A-Ph1	A-Ph2	A-Ph3	A-Ph4	A-Ph5	A-Ph6	A-Ph7	A-Ph8	A-Ph9	A-Ph10	A-Ph11	A-Ph12	A-Ph13	A-Ph14	A-Ph15	A-Ph16	B-AC1	B-AC2	B-AC3	B-AC4	B-AC5	B-AC6	B-AC7	B-AC8	B-AC9	B-AC10	B-AC11	B-AC12	B-AC13	B-AC14	B-AC15	B-AC16	B-DC1	B-DC2	B-DC3	B-DC4	B-DC5	B-DC6	B-DC7	B-DC8	B-DC9	B-DC10	B-DC11	B-DC12	B-DC13	B-DC14	B-DC15	B-DC16	B-Ph1	B-Ph2	B-Ph3	B-Ph4	B-Ph5	B-Ph6	B-Ph7	B-Ph8	B-Ph9	B-Ph10	B-Ph11	B-Ph12	B-Ph13	B-Ph14	B-Ph15	B-Ph16	aux-1	digaux	

1449.190	1	1	0	512	0.11819	0.12348	0.21648	0.11373	0.1896	0.11723	0.31843	0.15644	0.10209	0.21343	0.30677	0.31777	0.068569	0.27316	0.30357	0.41465	-0.50417	-1.2583	-1.525	-1.0104	-1.6125	-1.1437	-1.0042	-1.5917	-0.97292	-1.25	-1.5187	-0.88125	-1.6021	-1.2812	-0.875	-1.9271	153.969	356.874	42.317	312.973	230.108	149.614	243.207	277.063	348.341	320.600	340.744	308.347	332.843	241.721	272.730	345.071	0.0015164	0.00091415	0.00018333	664.05	8.2815e-06	6.1866e-06	1280.1	240.19	6.1119e-06	5.5591e-06	558.64	235.04	86.904	32.622	6.2429e-06	107.29	0.00017535	9.3121e-05	2.6686e-05	607.33	1.0804e-06	1.0377e-06	1172.8	220.63	1.0512e-06	1.0565e-06	431.73	215.61	78.439	30.077	1.11e-06	98.787	69.010	87.785	123.575	35.613	159.629	168.916	35.372	38.949	151.490	227.704	38.463	43.020	42.923	46.667	133.414	46.668	-8191	255	
1449.286	1	1	0	0	0.26893	0.21353	0.046734	0.080395	0.26581	0.35818	0.29497	0.072273	0.12804	0.20663	0.13591	0.22477	0.16113	0.21654	0.21788	0.34954	-0.7	-1.1667	-1.5167	-0.83958	-1.4229	-1.3708	-1.05	-1.8271	-1.1812	-1.2771	-1.6396	-0.95625	-1.5187	-1.5375	-0.70833	-1.7062	63.637	221.184	141.564	299.052	246.083	308.373	343.662	275.956	164.071	149.472	209.159	302.870	320.699	29.136	281.637	293.735	0.0014401	0.00036394	9.8383e-05	656.47	5.2602e-06	5.431e-06	1273.1	236.81	4.6285e-06	3.8623e-06	566.15	233.91	85.162	32.756	4.1705e-06	107.81	0.00017762	9.8042e-05	2.635e-05	602.73	1.0076e-06	1.0637e-06	1170.5	217.92	1.048e-06	1.0955e-06	430.68	214.83	77.64	30.05	1.132e-06	99.285	69.497	113.855	126.937	35.254	145.803	205.827	35.522	38.837	197.996	151.748	38.455	43.362	43.004	46.745	177.184	46.842	-8191	255	
1449.383	1	1	0	0	0.039123	0.31753	0.058509	0.18792	0.19269	0.039291	0.14331	0.13027	0.028288	0.34244	0.19362	0.22117	0.1034	0.15536	0.10964	0.26105	-0.73333	-1.0292	-1.7875	-0.9	-1.2292	-1.3687	-1.0167	-1.6583	-1.2812	-0.96875	-1.7313	-1.1646	-1.5021	-1.625	-0.71667	-1.8792	63.676	242.852	207.575	299.363	373.249	257.784	363.368	364.527	125.850	42.486	299.350	317.216	300.171	303.656	209.408	365.062	0.001522	0.0004893	0.00013547	658.96	7.3753e-06	5.2759e-06	1273.9	237.03	9.1393e-06	5.2732e-06	571.68	236.54	85.819	33.273	4.1856e-06	108.74	0.00017483	9.9728e-05	2.6949e-05	601.4	1.0732e-06	1.0982e-06	1167	218.35	1.0904e-06	1.0507e-06	438.46	216.61	78.55	30.573	1.1108e-06	100.46	68.084	115.189	106.692	35.168	153.757	175.085	35.346	38.404	166.653	168.783	39.089	42.956	43.222	47.168	174.752	46.750	-8191	255	
1449.501	1	1	0	0	0.30017	0.25657	0.22203	0.19316	0.069045	0.10772	0.26698	0.40706	0.13821	0.070677	0.14785	0.3521	0.33621	0.088674	0.073665	0.12833	-0.67083	-0.67917	-1.6229	-0.98333	-1.1938	-1.6417	-0.96667	-1.675	-1.3292	-0.92917	-1.6146	-1.075	-1.1396	-1.8292	-0.7625	-1.5771	317.141	334.493	199.939	231.608	144.523	361.189	324.068	325.327	195.959	35.065	354.355	34.707	294.494	305.797	46.323	40.745	0.0015474	0.00033164	0.00020557	660.09	3.1437e-06	8.0764e-06	1265.3	235.94	5.6795e-06	6.9814e-06	568.82	234.36	84.847	32.433	6.3577e-06	107.35	0.00018334	0.00010543	2.7098e-05	600.25	1.091e-06	1.0785e-06	1164.8	217.43	1.1117e-06	1.0743e-06	430.94	213.93	77.399	29.877	1.149e-06	98.606	67.471	100.758	123.215	35.331	137.942	178.438	35.484	38.902	163.092	169.846	38.702	43.233	43.078	47.041	122.862	46.730	-8191	255	
1449.573	1	1	0	0	0.21231	0.14875	0.14557	0.11531	0.091478	0.1104	0.32504	0.27118	0.062817	0.20459	0.29406	0.2402	0.23357	0.16236	0.19394	0.29128	-0.81875	-0.80208	-1.6833	-1.1042	-1.0292	-1.5729	-0.9125	-1.4333	-1.4813	-0.90208	-1.7146	-1.1854	-1.0167	-1.8208	-0.89792	-1.5646	141.021	212.367	229.117	325.181	171.758	203.828	353.280	360.950	30.817	212.906	351.502	328.937	137.770	299.154	32.233	299.540	0.0016597	0.00049935	0.00022016	649.08	9.1873e-06	7.1589e-06	1253.8	234.69	6.6473e-06	8.9101e-06	572.75	233.29	84.907	32.467	4.6742e-06	107.51	0.00017979	0.00010429	2.6338e-05	594.13	1.1346e-06	1.045e-06	1154.1	215.1	1.1354e-06	1.0766e-06	431.33	213.63	76.998	29.729	1.05e-06	98.498	66.612	82.454	116.213	34.871	119.553	183.364	35.375	39.015	152.213	164.726	39.899	43.160	43.055	46.801	142.184	46.614	-8191	255	
1449.671	1	1	0	0	0.21611	0.094576	0.060835	0.28522	0.15021	0.11517	0.30386	0.33949	0.13135	0.061133	0.34574	0.047593	0.056552	0.24137	0.14461	0.1168	-0.97708	-0.65	-1.6187	-1.1583	-0.80625	-1.7458	-1.025	-1.3375	-1.6	-0.89792	-1.4896	-1.5063	-0.94167	-1.7875	-1.125	-1.4458	154.628	122.972	168.749	23.938	100.019	320.501	344.135	350.580	101.052	269.980	156.006	50.427	339.278	40.442	296.613	326.132	0.0016645	0.00024314	0.00020035	649.63	6.5505e-06	7.625e-06	1258	234.19	4.4663e-06	6.0635e-06	565.81	233.26	85.487	32.873	5.8488e-06	107.56	0.00018221	0.0001015	2.7481e-05	592.36	1.1446e-06	1.0463e-06	1150.1	214.5	1.154e-06	1.0511e-06	430.67	214.52	77.544	30.124	1.1195e-06	99.439	67.463	93.257	122.564	34.922	153.375	168.424	35.338	39.026	156.781	161.787	38.028	43.092	42.639	46.653	120.172	46.648	-8191	255	
1449.790	1	1	0	0	0.11313	0.16029	0.2299	0.22649	0.052115	0.44422	0.20049	0.1531	0.2204	0.31707	0.36488	0.36278	0.32956	0.038704	0.18407	0.35494	-1.2604	-0.92708	-1.5646	-1.4292	-0.875	-1.6521	-1.2104	-1.1063	-1.6771	-0.8625	-1.4708	-1.6437	-0.82917	-1.6646	-1.0396	-1.1208	196.399	132.220	312.119	372.478	359.044	307.201	352.086	143.069	366.465	256.254	205.931	28.254	27.603	270.208	93.656	348.277	0.0014783	0.00044365	0.00021088	648.56	7.476e-06	5.5256e-06	1257	234.51	4.5164e-06	7.5054e-06	562.68	233.47	84.433	32.716	5.993e-06	106.55	0.0001775	0.00010233	2.6119e-05	592.83	1.0988e-06	1.0141e-06	1155.6	215.26	1.1575e-06	1.0783e-06	426.61	214.41	77.168	29.931	1.1037e-06	98.437	69.598	120.706	102.091	35.389	164.716	183.463	35.520	38.683	160.854	192.846	38.444	43.116	43.383	47.100	138.006	46.532	-8191	255	
1449.886	1	1	0	0	0.22273	0.089385	0.033792	0.098042	0.21372	0.15957	0.17434	0.25365	0.19554	0.16939	0.23839	0.30527	0.15513	0.026559	0.19762	0.31634	-1.2042	-0.81042	-1.4229	-1.4125	-0.81042	-1.475	-1.3896	-1.0458	-1.7646	-0.9	-1.3604	-1.8833	-0.76042	-1.7417	-1.1562	-1.1646	224.046	300.559	274.219	372.253	375.466	57.083	315.779	339.420	95.973	234.729	44.153	313.807	313.452	279.311	287.924	307.040	0.0016275	0.00069807	0.00015908	646.64	6.4866e-06	5.7257e-06	1251.5	233.63	8.7851e-07	5.827e-06	563.79	231.23	84.017	32.358	6.2157e-06	106.44	0.00018289	9.6311e-05	2.7142e-05	590.52	1.1356e-06	1.0251e-06	1148.9	214.61	1.0475e-06	1.0498e-06	428.77	212.54	76.573	29.801	1.1161e-06	98.029	66.005	116.445	121.303	35.055	174.640	147.646	35.371	39.131	376.923	184.787	38.348	43.181	43.468	47.134	162.839	46.689	-8191	255	
1449.982	1	1	0	0	0.13122	0.10559	0.12338	0.23037	0.12328	0.23053	0.31216	0.24194	0.23358	0.051607	0.090995	0.48295	0.098324	0.18242	0.12886	0.3727	-1.2812	-0.77083	-1.325	-1.7083	-0.74792	-1.4854	-1.325	-0.93125	-1.7375	-0.99583	-1.0646	-1.6	-1.0229	-1.6313	-1.3563	-1.0646	154.785	131.912	53.270	298.107	242.566	286.220	364.387	356.853	336.371	296.754	377.382	44.691	272.453	374.930	365.031	336.573	0.0016617	0.00067408	0.00020259	648.94	4.1673e-06	5.0147e-06	1258.1	233.36	7.2327e-06	4.8628e-06	563.73	233.23	84.623	32.505	7.0527e-06	107.42	0.00017832	9.6555e-05	2.7984e-05	591.86	1.1285e-06	1.0345e-06	1151.7	214.51	1.0902e-06	1.042e-06	427.06	213.58	77.063	29.961	1.1517e-06	99.025	70.269	113.589	124.567	35.063	107.861	184.656	35.580	38.948	167.551	170.436	39.239	43.164	42.899	47.168	152.197	46.879	-8191	255	
1450.078	1	1	0	0	0.16726	0.19	0.1085	0.075261	0.08707	0.18217	0.32947	0.060512	0.054941	0.20515	0.21379	0.3749	0.034704	0.063954	0.2535	0.39715	-1.4479	-1.0875	-1.325	-1.7667	-0.86042	-1.6875	-1.7167	-0.94583	-1.6979	-1.0042	-1.0708	-2.0167	-0.7625	-1.3958	-1.5646	-1.1167	292.289	164.163	131.964	332.970	277.245	302.236	319.877	99.690	235.728	49.851	335.667	338.644	65.400	288.118	24.497	354.613	0.0015797	0.00056693	0.00014927	644.93	6.6448e-06	5.2009e-06	1258.6	234.55	6.1026e-06	4.6824e-06	561.15	234.46	84.825	32.882	5.505e-06	107.52	0.00017854	9.6765e-05	2.8166e-05	592.1	1.1005e-06	1.0606e-06	1154.3	215.18	1.0831e-06	1.1182e-06	429.41	214.7	77.311	30.198	1.0768e-06	98.838	70.987	103.155	104.957	35.155	140.290	136.547	35.118	38.841	128.590	192.702	39.226	43.178	43.321	46.947	156.653	46.697	-8191	255	
1450.175	1	1	0	0	0.075749	0.05117	0.20491	0.12115	0.33435	0.13509	0.24646	0.10996	0.054677	0.18347	0.063336	0.31077	0.27505	0.22855	0.1262	0.17982	-1.1313	-1.1333	-0.9375	-1.7958	-0.56667	-1.1333	-1.6938	-0.8375	-1.5771	-1.2521	-0.78333	-1.9188	-1.0292	-1.1167	-1.6292	-1.0333	89.735	310.356	169.479	333.306	211.860	283.297	367.272	276.002	322.652	231.075	92.801	329.951	366.821	41.379	50.155	313.150	0.0015976	0.00047944	0.00023413	645.29	7.4625e-06	6.7856e-06	1253.4	232.45	4.3565e-06	8.1375e-06	555.33	232.24	83.557	32.425	3.7761e-06	106.44	0.0001796	0.00010002	2.6833e-05	591.88	1.138e-06	1.1076e-06	1149.1	213.43	1.0926e-06	1.0067e-06	422.91	212.17	76.535	29.754	1.0655e-06	98.041	69.763	135.075	126.850	35.247	117.458	161.322	35.511	39.013	144.645	218.519	38.501	43.119	42.893	47.013	132.635	46.453	-8191	255	
1450.271	1	1	0	0	0.16565	0.1649	0.21517	0.18359	0.14206	0.38748	0.42177	0.097072	0.25928	0.21968	0.030036	0.17233	0.21596	0.12289	0.22394	0.39677	-1.1896	-1.3521	-1.0396	-1.8479	-0.88542	-1.0958	-1.6979	-1.0021	-1.4479	-1.1958	-0.96458	-1.775	-0.97083	-1.2667	-1.7125	-1.2229	210.134	74.511	270.438	275.040	92.178	102.266	365.236	287.447	140.696	246.621	57.659	351.785	318.660	75.890	362.967	323.239	0.0015273	0.00047167	0.00015489	646.77	6.4125e-06	4.0854e-06	1249.6	232.6	5.6975e-06	6.5398e-06	564.47	233.21	84.98	32.669	5.2054e-06	107.71	0.00017382	9.6845e-05	2.7719e-05	590.57	1.0829e-06	1.0826e-06	1147.6	213.98	1.046e-06	1.0552e-06	426.9	213.52	77.136	29.971	1.1069e-06	98.81	69.028	111.989	109.900	35.335	138.963	180.109	35.362	38.712	148.070	166.629	39.876	43.404	42.949	47.300	168.122	46.292	-8191	255	
1450.391	1	1	0	0	0.15831	0.13708	0.12199	0.16213	0.073884	0.27469	0.24276	0.29484	0.11692	0.072692	0.19644	0.25546	0.19268	0.36568	0.14159	0.14832	-1.1917	-1.3021	-0.83125	-1.9312	-1.0479	-0.92292	-1.9375	-0.9875	-1.4813	-1.5875	-0.69792	-1.7479	-1.1771	-1.1417	-1.7042	-0.99375	50.269	232.131	204.303	271.263	194.833	338.161	94.691	55.770	310.653	223.110	320.693	309.698	306.895	374.652	174.180	293.810	0.001517	0.00055841	0.00016849	645.63	9.1236e-06	5.611e-06	1259.5	235.74	5.029e-06	7.337e-06	570.16	235.68	86.057	33.108	8.1641e-06	108.83	0.00017859	9.8224e-05	2.8519e-05	594.8	1.1337e-06	1.0811e-06	1156.5	216.69	1.1447e-06	1.0726e-06	430.67	215.86	78.186	30.396	1.136e-06	99.963	66.322	93.010	128.472	35.267	150.579	165.124	35.486	39.191	127.034	190.763	38.746	43.194	43.025	46.790	141.561	46.611	-8191	255	
1450.486	1	1	0	0	0.16141	0.093681	0.10072	0.14987	0.14622	0.28337	0.27995	0.25918	0.10968	0.083595	0.16586	0.19009	0.19393	0.11528	0.14479	0.17987	-0.87917	-1.4729	-0.71875	-1.7146	-1.1521	-1.1167	-1.9062	-0.94167	-1.2437	-1.6896	-0.88125	-1.6792	-1.3875	-0.81667	-1.6896	-1.2833	260.065	371.236	82.604	294.209	207.840	148.188	289.661	370.390	135.131	77.094	57.012	332.943	367.457	358.454	237.272	329.068	0.0016107	0.00070533	0.0001939	653.16	5.2686e-06	3.6084e-06	1257.3	236.27	9.5586e-06	5.1859e-06	562.09	232.97	84.339	32.738	6.4517e-06	107.36	0.00017555	0.00010166	2.834e-05	596.44	1.1079e-06	1.0695e-06	1151.4	216.18	1.1509e-06	1.0651e-06	427.24	213.78	77.073	29.959	1.0435e-06	98.415	67.750	95.376	112.744	35.099	108.523	174.666	35.448	38.669	172.825	195.353	38.868	43.431	43.138	46.969	136.286	46.463	-8191	255	
1450.582	1	1	0	0	0.065824	0.27625	0.13544	0.12111	0.16655	0.070286	0.15848	0.23944	0.23253	0.094194	0.12129	0.24654	0.11303	0.10736	0.16379	0.14818	-0.675	-1.7812	-0.8125	-1.525	-1.2354	-0.84375	-1.9479	-1.0958	-1.2708	-1.8312	-0.76458	-1.4312	-1.5417	-0.81458	-1.5208	-1.4354	369.509	235.761	147.712	136.409	125.018	154.739	110.735	211.974	290.784	161.265	227.224	331.262	291.730	27.414	182.800	321.157	0.0016247	0.00067475	0.00017862	648.35	6.0797e-06	7.3294e-06	1260	234.08	5.6562e-06	6.8968e-06	552.32	232.77	84.977	32.838	4.382e-06	106.69	0.00018022	0.00010076	2.7188e-05	593.26	1.0967e-06	1.0919e-06	1148.6	214.48	1.1379e-06	1.0401e-06	424.84	212.88	77.03	30.035	1.0994e-06	98.425	69.905	110.028	120.458	35.194	131.624	171.003	35.321	38.868	165.653	168.313	38.578	43.319	42.582	46.883	144.604	46.597	-8191	255	
1450.678	1	1	0	0	0.18354	0.13156	0.15412	0.098867	0.17262	0.25009	0.14626	0.19799	0.35996	0.10134	0.18247	0.14728	0.12463	0.080352	0.2144	0.31966	-0.46875	-1.6625	-0.89792	-1.475	-1.5312	-0.63958	-1.7979	-1.4083	-1.0104	-1.7333	-0.98333	-1.5083	-1.45	-0.775	-1.5333	-1.4292	258.796	61.362	174.098	150.658	341.563	42.096	271.110	238.447	43.774	40.946	91.980	349.599	262.380	355.658	369.880	37.312	0.0016133	0.00075113	0.00013336	645.63	5.3377e-06	9.5104e-06	1255.6	233.74	7.8606e-06	8.0711e-06	550.42	233	85.257	32.794	6.6439e-06	108.03	0.00018301	9.8394e-05	2.7564e-05	591.45	1.1376e-06	1.1098e-06	1149.2	214.75	1.1722e-06	1.0055e-06	424.85	213.95	77.547	30.196	1.1285e-06	99.29	66.860	110.303	123.418	35.520	172.117	168.290	35.597	38.938	138.088	184.298	39.095	43.192	43.085	47.060	178.952	46.696	-8191	255	
1450.774	1	1	0	0	0.089327	0.075452	0.15311	0.15102	0.1716	0.28637	0.1866	0.2747	0.24588	0.25735	0.078269	0.43038	0.20401	0.13433	0.1206	0.47285	-0.5125	-1.6521	-0.95208	-1.3604	-1.6771	-0.9375	-1.7896	-1.4083	-1.15	-1.8542	-1.0583	-1.4	-1.7938	-0.94792	-1.6542	-1.4646	147.555	182.544	113.295	66.798	295.362	367.158	100.019	325.124	122.564	56.145	130.464	341.692	67.807	334.014	24.278	298.296	0.0016112	0.00076176	0.00010325	648.77	4.2139e-06	6.7208e-06	1244.7	233.55	9.4066e-06	5.1601e-06	560.3	231.67	84.55	32.407	3.891e-06	105.79	0.00018249	9.2042e-05	2.9064e-05	593.06	1.1058e-06	1.0535e-06	1145.9	213.89	1.1095e-06	1.0152e-06	425.72	212.51	76.75	29.735	1.1015e-06	97.555	66.933	130.982	64.274	35.298	167.214	199.385	35.751	39.183	157.822	166.652	39.129	43.596	42.868	46.850	154.022	46.356	-8191	255	
1450.870	1	1	0	0	0.11534	0.16756	0.31838	0.30616	0.11499	0.026482	0.21499	0.068087	0.085203	0.32424	0.30202	0.26381	0.21337	0.30421	0.31483	0.22359	-0.55	-1.7354	-1.1396	-1.2646	-1.7042	-0.81042	-1.5042	-1.6063	-1.0187	-1.9604	-1.2146	-1.2062	-1.6354	-0.97292	-1.2125	-1.6604	90.154	151.783	226.209	274.103	55.238	256.331	343.327	296.757	380.406	101.287	330.666	367.820	87.854	57.801	344.234	336.195	0.0015441	0.0003317	0.00015635	638.03	5.9013e-06	7.4026e-06	1245.8	228.93	7.6148e-06	4.9519e-06	554.46	229.97	83.896	32.188	7.5671e-06	104.95	0.00017495	9.7304e-05	2.792e-05	585.53	1.1053e-06	1.0081e-06	1139	211.45	1.1019e-06	1.0329e-06	420.86	210.96	76.325	29.532	1.1449e-06	97.076	69.234	112.972	132.747	35.239	132.726	148.257	35.433	38.760	157.688	200.924	38.905	43.512	43.139	46.594	160.845	46.609	-8191	255	
