BOXY.EXE: ISS Imagent and Oximeter Data Acquisition Program Version 0.80
Ascii Record File

#ACQ INFORMATION
2  Detector Channels 
16  External MUX Channels 
1  Auxiliary Channels 
5000  Waveform (CCF) Frequency (Hz)
1  Waveforms Skipped 
30  Waveforms Averaged 
1  Cycles Averaged 
16  Acquisitions per Waveform 
10.0806  Updata Rate (Hz) 

#FILE INFORMATION
TRUE -- External MUX Channel results are PARSED.
FALSE -- AC DC and Phase are NOT grouped.
TRUE -- Companion Program Settings File CREATED.
FALSE -- AC data not excluded
FALSE -- DC data not excluded
FALSE -- Phase data not excluded
FALSE -- Auxillary Chn. data not excluded
Tab delimiters

#CALIBRATION STATE
TRUE -- Waveform Calibration Values APPLIED.


#AUX CALIBRATION VALUES
Val Type	aux-1	

Term	1.0000e+00	
Factor	0.0000e+00	


#WF CALIBRATION VALUES
A = Detector Channel
Val Type	A-AC1	A-AC2	A-AC3	A-AC4	A-AC5	A-AC6	A-AC7	A-AC8	A-AC9	A-AC10	A-AC11	A-AC12	A-AC13	A-AC14	A-AC15	A-AC16	A-DC1	A-DC2	A-DC3	A-DC4	A-DC5	A-DC6	A-DC7	A-DC8	A-DC9	A-DC10	A-DC11	A-DC12	A-DC13	A-DC14	A-DC15	A-DC16	A-Ph1	A-Ph2	A-Ph3	A-Ph4	A-Ph5	A-Ph6	A-Ph7	A-Ph8	A-Ph9	A-Ph10	A-Ph11	A-Ph12	A-Ph13	A-Ph14	A-Ph15	A-Ph16	

Term	0.00000e+00	0.00000e+00	0.00000e+00	0.00000e+00	0.00000e+00	0.00000e+00	0.00000e+00	0.00000e+00	0.00000e+00	0.00000e+00	0.00000e+00	0.00000e+00	0.00000e+00	0.00000e+00	0.00000e+00	0.00000e+00	0.00000e+00	0.00000e+00	0.00000e+00	0.00000e+00	0.00000e+00	0.00000e+00	0.00000e+00	0.00000e+00	0.00000e+00	0.00000e+00	0.00000e+00	0.00000e+00	0.00000e+00	0.00000e+00	0.00000e+00	0.00000e+00	0.00000e+00	0.00000e+00	0.00000e+00	0.00000e+00	0.00000e+00	0.00000e+00	0.00000e+00	0.00000e+00	0.00000e+00	0.00000e+00	0.00000e+00	0.00000e+00	0.00000e+00	0.00000e+00	0.00000e+00	0.00000e+00	
Factor	1.00000e+00	1.00000e+00	1.00000e+00	1.00000e+00	1.00000e+00	1.00000e+00	1.00000e+00	1.00000e+00	1.00000e+00	1.00000e+00	1.00000e+00	1.00000e+00	1.00000e+00	1.00000e+00	1.00000e+00	1.00000e+00	1.00000e+00	1.00000e+00	1.00000e+00	1.00000e+00	1.00000e+00	1.00000e+00	1.00000e+00	1.00000e+00	1.00000e+00	1.00000e+00	1.00000e+00	1.00000e+00	1.00000e+00	1.00000e+00	1.00000e+00	1.00000e+00	X	X	X	X	X	X	X	X	X	X	X	X	X	X	X	X	

B = Detector Channel
Val Type	B-AC1	B-AC2	B-AC3	B-AC4	B-AC5	B-AC6	B-AC7	B-AC8	B-AC9	B-AC10	B-AC11	B-AC12	B-AC13	B-AC14	B-AC15	B-AC16	B-DC1	B-DC2	B-DC3	B-DC4	B-DC5	B-DC6	B-DC7	B-DC8	B-DC9	B-DC10	B-DC11	B-DC12	B-DC13	B-DC14	B-DC15	B-DC16	B-Ph1	B-Ph2	B-Ph3	B-Ph4	B-Ph5	B-Ph6	B-Ph7	B-Ph8	B-Ph9	B-Ph10	B-Ph11	B-Ph12	B-Ph13	B-Ph14	B-Ph15	B-Ph16	

Term	0.00000e+00	0.00000e+00	0.00000e+00	0.00000e+00	0.00000e+00	0.00000e+00	0.00000e+00	0.00000e+00	0.00000e+00	0.00000e+00	0.00000e+00	0.00000e+00	0.00000e+00	0.00000e+00	0.00000e+00	0.00000e+00	0.00000e+00	0.00000e+00	0.00000e+00	0.00000e+00	0.00000e+00	0.00000e+00	0.00000e+00	0.00000e+00	0.00000e+00	0.00000e+00	0.00000e+00	0.00000e+00	0.00000e+00	0.00000e+00	0.00000e+00	0.00000e+00	4.17717e+01	-1.31162e+02	-1.22911e+02	-1.83922e+02	-6.30644e+01	-7.02209e+01	-1.56404e+02	-1.62015e+02	-4.52563e+01	-6.41764e+01	-1.71598e+02	-1.69061e+02	-1.81176e+02	-1.77209e+02	-6.47185e+01	-1.50023e+02	
Factor	6.40346e-05	1.52600e-04	4.19047e-05	1.76566e-01	1.85982e-06	1.60018e-06	1.66977e-01	5.01798e-02	2.39878e-06	1.62312e-06	8.77349e-02	2.88353e-02	2.63990e-02	9.67641e-03	1.83296e-06	1.35945e-02	1.77045e-05	2.95731e-05	8.28597e-06	9.26155e-02	2.88225e-07	3.32224e-07	8.18985e-02	2.64251e-02	2.79175e-07	3.33486e-07	4.47295e-02	1.46946e-02	1.40515e-02	5.14846e-03	3.03169e-07	6.99069e-03	X	X	X	X	X	X	X	X	X	X	X	X	X	X	X	X	



#DISTANCE SETTINGS
A = Detector Channel
A-1	A-2	A-3	A-4	A-5	A-6	A-7	A-8	A-9	A-10	A-11	A-12	A-13	A-14	A-15	A-16	

2.5000e+00	3.0000e+00	2.5000e+00	3.0000e+00	2.0000e+00	3.0000e+00	1.5000e+00	3.0000e+00	3.0000e+00	3.0000e+00	3.0000e+00	3.0000e+00	3.0000e+00	3.0000e+00	1.5000e+00	3.0000e+00	

B = Detector Channel
B-1	B-2	B-3	B-4	B-5	B-6	B-7	B-8	B-9	B-10	B-11	B-12	B-13	B-14	B-15	B-16	

1.0000e+01	1.0000e+01	1.0000e+01	1.4400e+00	1.0000e+01	1.0000e+01	1.5100e+00	1.9400e+00	1.0000e+01	1.0000e+01	1.9900e+00	2.4900e+00	2.4100e+00	2.9000e+00	1.0000e+01	2.9800e+00	




#DATA BEGINS
time	group	step	mark	flag	A-AC1	A-AC2	A-AC3	A-AC4	A-AC5	A-AC6	A-AC7	A-AC8	A-AC9	A-AC10	A-AC11	A-AC12	A-AC13	A-AC14	A-AC15	A-AC16	A-DC1	A-DC2	A-DC3	A-DC4	A-DC5	A-DC6	A-DC7	A-DC8	A-DC9	A-DC10	A-DC11	A-DC12	A-DC13	A-DC14	A-DC15	A-DC16	A-Ph1	A-Ph2	A-Ph3	A-Ph4	A-Ph5	A-Ph6	A-Ph7	A-Ph8	A-Ph9	A-Ph10	A-Ph11	A-Ph12	A-Ph13	A-Ph14	A-Ph15	A-Ph16	B-AC1	B-AC2	B-AC3	B-AC4	B-AC5	B-AC6	B-AC7	B-AC8	B-AC9	B-AC10	B-AC11	B-AC12	B-AC13	B-AC14	B-AC15	B-AC16	B-DC1	B-DC2	B-DC3	B-DC4	B-DC5	B-DC6	B-DC7	B-DC8	B-DC9	B-DC10	B-DC11	B-DC12	B-DC13	B-DC14	B-DC15	B-DC16	B-Ph1	B-Ph2	B-Ph3	B-Ph4	B-Ph5	B-Ph6	B-Ph7	B-Ph8	B-Ph9	B-Ph10	B-Ph11	B-Ph12	B-Ph13	B-Ph14	B-Ph15	B-Ph16	aux-1	digaux	

1770.372	1	1	0	256	0.12464	0.11457	0.19021	0.11001	0.19214	0.083994	0.39263	0.26262	0.17372	0.15227	0.22294	0.044781	0.24629	0.23771	0.20831	0.33898	-3.1375	-2.6063	-3.2292	-3.4104	-2.7562	-3.4604	-3.1229	-2.8937	-3.4146	-2.8	-3.1188	-3.5563	-2.6729	-3.4146	-2.9	-2.9604	306.212	337.331	216.319	117.646	192.483	384.381	403.442	433.647	226.527	393.268	397.327	108.486	430.292	120.849	445.018	374.840	0.0040038	0.00026113	0.00030504	760.82	4.3756e-06	1.1506e-05	1053.8	273.58	1.7806e-05	1.2274e-05	506.52	234.51	121.26	51.03	1.2413e-05	117.57	0.0059297	0.0088256	0.0024618	723.21	8.8845e-05	0.00010066	992.79	259.99	8.6264e-05	0.00010217	480.53	220.06	115.44	49.23	9.5004e-05	112.03	345.532	187.227	200.389	116.530	270.567	273.086	116.741	121.377	268.181	236.307	120.687	123.917	124.164	128.387	287.088	127.230	-8191	255	
1770.493	1	1	0	0	0.19468	0.33902	0.23867	0.28458	0.18357	0.26348	0.11983	0.21863	0.11284	0.25985	0.1916	0.21799	0.072649	0.078823	0.033638	0.61842	-2.9667	-2.8646	-2.9167	-3.4875	-2.6271	-3.3271	-3.4813	-2.7	-3.4917	-2.8833	-3.0458	-3.6625	-2.8563	-3.2125	-3.2854	-2.8167	425.801	379.393	437.837	135.064	250.452	292.221	418.876	443.612	161.729	191.774	415.953	379.042	337.307	120.180	136.682	393.777	0.0035683	0.00094434	0.00041005	750.02	4.468e-06	6.336e-06	1051.2	269.63	2.1503e-05	8.3036e-06	503.8	235.09	120.96	50.693	8.0432e-06	117.33	0.0064224	0.0094686	0.0026029	716.14	9.3179e-05	0.00010596	983.62	256.46	8.9162e-05	0.00010729	479.02	219.3	114.79	48.987	9.6848e-05	111.71	346.059	117.284	197.129	116.763	350.522	275.413	116.665	121.552	274.750	297.587	120.557	124.101	124.567	128.475	220.061	127.297	-8191	255	
1770.587	1	1	0	0	0.162	0.1754	0.13087	0.054591	0.28512	0.11693	0.12421	0.15153	0.0716	0.14745	0.12684	0.03418	0.19566	0.1011	0.20306	0.20435	-3.0438	-2.9354	-2.8187	-3.4771	-2.8208	-3.225	-3.525	-2.7979	-3.5667	-3.1771	-3.1375	-3.7521	-2.7188	-3.3479	-3.3646	-2.9833	326.650	133.931	138.660	208.996	110.952	256.326	111.255	444.709	131.217	307.473	312.803	219.864	156.133	336.375	210.056	147.603	0.0036757	0.00078465	6.5993e-05	746.73	4.1439e-06	8.9565e-06	1047.6	269.43	1.1805e-05	1.2733e-05	503.72	234.1	120.66	51.273	1.4529e-05	118.12	0.0065727	0.0095499	0.0026574	716.66	9.2294e-05	0.00010542	985.17	255.29	8.9226e-05	0.00010535	477.05	219.52	114.58	49.158	9.5652e-05	112.31	341.114	255.109	207.946	116.843	245.004	265.721	116.533	121.402	287.462	258.197	120.454	124.160	124.700	128.612	275.902	127.295	-8191	255	
1770.659	1	1	0	0	0.21081	0.08633	0.089605	0.2509	0.32934	0.18841	0.08668	0.091042	0.20296	0.1407	0.24602	0.13924	0.048113	0.17181	0.014769	0.11827	-2.8917	-3.0667	-2.7062	-3.4188	-2.9396	-3.1208	-3.5271	-2.7562	-3.4125	-3.0833	-2.8333	-3.7062	-2.8208	-3.0687	-3.3083	-3.0104	411.966	155.164	278.147	405.170	349.944	189.124	425.495	457.571	171.384	186.030	415.244	414.416	196.156	459.639	458.863	400.609	0.0035805	0.00078755	0.00039284	748.03	1.1084e-05	5.5532e-06	1051.5	266.2	1.0884e-05	3.8142e-06	493.89	231.05	119.3	50.832	1.7781e-05	116.6	0.0064286	0.0095147	0.0027318	717.65	9.5873e-05	0.00010913	990.15	253.45	9.2418e-05	0.00010781	472.4	217.1	113.14	48.823	9.9978e-05	111.04	348.910	109.580	250.954	116.993	294.831	202.799	116.850	121.416	248.093	256.806	120.418	124.078	124.728	128.786	265.907	127.411	-8191	255	
1770.755	1	1	0	0	0.20114	0.17859	0.12079	0.12472	0.138	0.34198	0.25826	0.24421	0.28304	0.14786	0.22755	0.19103	0.14283	0.079583	0.033196	0.070608	-2.7562	-3.2604	-2.7042	-3.7062	-2.8	-2.9583	-3.4917	-2.7979	-3.3792	-3.2083	-2.7271	-3.5021	-3.1	-3.1479	-3.4562	-2.8625	120.507	144.509	160.948	424.324	357.442	214.067	391.863	413.766	159.843	170.862	374.380	450.669	344.216	135.195	173.934	421.057	0.0039088	0.0011161	5.3371e-05	749.36	1.527e-05	9.8127e-06	1037.4	265.5	3.894e-05	1.1877e-05	493.12	229.39	118.03	50.524	1.0672e-05	116.5	0.0066774	0.0097713	0.0028237	717.77	9.6599e-05	0.00011245	977.38	251.2	9.5286e-05	0.00011207	467.87	215.43	112.53	48.686	0.00010093	110.91	353.705	197.239	273.818	117.364	274.447	293.619	116.992	121.527	296.870	226.185	120.763	124.454	124.396	128.179	248.345	126.871	-8191	255	
1770.876	1	1	0	0	0.13963	0.096783	0.11863	0.15839	0.27576	0.28223	0.17308	0.22383	0.12735	0.070356	0.25588	0.13286	0.26448	0.14485	0.081945	0.17219	-2.8021	-3.2792	-2.5667	-3.4542	-2.9771	-2.8333	-3.55	-2.8812	-3.2042	-3.3458	-2.6333	-3.5375	-3.2708	-2.8146	-3.65	-3.1375	293.126	406.046	129.907	340.696	428.210	457.375	374.999	452.703	357.412	449.652	443.866	358.026	364.510	243.027	218.188	425.800	0.0040049	0.0006176	0.00052626	749.86	9.0976e-06	6.5479e-06	1052	263.56	2.1354e-05	5.1271e-06	492.57	230.66	118.41	51.468	1.9466e-05	118.4	0.0065506	0.0096801	0.0027519	715.98	9.4436e-05	0.00010838	983.27	250.11	9.0007e-05	0.00010534	467.39	216.28	112.35	49.37	9.6204e-05	112.41	346.451	300.225	164.707	116.987	289.777	200.633	116.456	121.314	232.343	172.127	120.105	123.911	124.543	128.243	226.951	126.943	-8191	255	
1770.972	1	1	0	0	0.054055	0.29606	0.15344	0.25038	0.31557	0.11378	0.31587	0.374	0.2265	0.15525	0.39225	0.16496	0.14056	0.21295	0.21443	0.31645	-2.7833	-3.6333	-2.5583	-3.4021	-3.1208	-2.7104	-3.6104	-2.9333	-2.7833	-3.3646	-2.9417	-3.4896	-3.3229	-2.825	-3.3646	-2.9833	400.080	295.877	197.576	126.019	379.695	448.548	418.867	347.658	271.243	188.820	402.936	402.314	127.335	400.615	318.901	442.626	0.0040957	0.00052185	0.00015657	760.5	1.6528e-05	1.4668e-05	1054.5	262.67	2.4016e-05	6.913e-06	497.93	232.94	118.89	51.97	1.1768e-05	120.7	0.0063362	0.0092858	0.0026295	724.2	8.9104e-05	0.00010447	988.98	249.37	8.5181e-05	0.0001003	469.56	218.61	112.97	49.84	9.1833e-05	114.14	354.244	197.660	459.941	116.960	257.848	279.331	116.530	121.390	225.163	188.289	120.321	124.164	124.720	128.514	264.051	127.154	-8191	255	
1771.068	1	1	0	0	0.07511	0.20862	0.2257	0.1301	0.17053	0.204	0.11235	0.31275	0.051141	0.14205	0.24094	0.36713	0.16002	0.32013	0.10288	0.071748	-2.2687	-3.5333	-2.5042	-3.325	-3.0438	-2.7812	-3.5854	-3.175	-2.8604	-3.4708	-2.9125	-3.2687	-3.2062	-2.85	-3.4792	-3.1917	251.356	373.354	366.011	206.339	197.192	124.283	420.696	424.758	429.652	333.170	416.834	389.770	423.539	461.921	461.148	451.483	0.0037414	0.00062439	0.00014728	757.03	7.4793e-06	8.6659e-06	1051.1	261.99	1.263e-05	7.2982e-06	493.86	233.27	118.17	51.85	5.2946e-06	119.72	0.0059971	0.0088061	0.0025125	720.6	8.2154e-05	9.979e-05	984.35	248.45	8.1411e-05	9.6229e-05	467.33	219.01	112.18	49.446	8.8193e-05	112.94	349.969	202.288	188.878	116.673	255.580	232.191	116.375	121.252	305.529	258.944	120.535	123.913	124.697	128.366	377.350	127.109	-8191	255	
1771.164	1	1	0	0	0.30399	0.2488	0.24597	0.091093	0.15637	0.22799	0.33952	0.33666	0.30797	0.13853	0.082824	0.2319	0.20554	0.19525	0.20748	0.37366	-2.3646	-3.3979	-2.7521	-3.1542	-3.3479	-2.75	-3.425	-3.1792	-2.725	-3.5583	-2.8688	-3.1229	-3.3375	-2.65	-3.0354	-3.2979	302.705	386.662	139.762	262.233	396.599	409.313	426.555	367.327	214.951	261.577	166.183	405.714	405.943	451.114	103.932	398.445	0.0037367	0.0015068	0.00023122	756.68	9.5714e-06	1.1558e-05	1049.8	263.75	6.6297e-06	1.1287e-05	498.63	235.7	119.98	52.208	1.5563e-05	120.46	0.0058028	0.0082691	0.0023255	717.07	7.775e-05	9.0114e-05	982.35	249.35	7.4859e-05	8.9018e-05	471.18	220.77	113.12	49.748	8.0375e-05	113.66	346.077	244.323	260.789	116.781	269.482	205.495	116.390	121.532	250.138	224.148	120.515	124.095	124.803	128.750	258.858	126.947	-8191	255	
1771.285	1	1	0	0	0.24198	0.20433	0.38425	0.25045	0.07332	0.21827	0.060257	0.08964	0.14752	0.27931	0.16991	0.27915	0.20048	0.054231	0.19179	0.15315	-2.2333	-3.4	-2.7938	-2.9792	-3.2667	-2.5771	-3.2583	-3.2854	-2.8458	-3.5354	-3.0146	-3.175	-3.5208	-2.8	-3.1333	-3.3125	397.534	324.344	225.747	431.025	323.169	312.737	173.745	173.465	299.748	144.757	436.402	428.115	290.034	258.544	118.176	154.681	0.0041962	0.00066518	0.00029825	758.19	9.1008e-06	7.5932e-06	1056.8	268.37	2.0798e-05	2.6574e-06	500.73	239.3	122.78	52.854	1.9885e-05	121.87	0.0054742	0.007842	0.0021707	718.72	7.6327e-05	8.8953e-05	987.22	253.16	7.5365e-05	8.7507e-05	474.58	223.78	115.43	50.414	7.9883e-05	115.28	345.335	207.500	224.830	116.844	260.883	287.122	116.680	121.235	243.963	425.058	120.266	124.068	124.614	128.629	210.350	127.033	-8191	255	
1771.357	1	1	0	0	0.29488	0.16638	0.12738	0.093369	0.39326	0.16427	0.14821	0.23899	0.027197	0.23848	0.26023	0.19156	0.20025	0.29162	0.096113	0.23661	-2.45	-3.3937	-3.0292	-2.9313	-3.5667	-2.7854	-3.1188	-3.4146	-2.5396	-3.3812	-3.2729	-3.0125	-3.5729	-2.8208	-2.9688	-3.5021	329.189	157.629	423.558	150.461	128.888	392.368	195.903	414.456	238.047	448.027	409.002	408.238	453.341	103.749	261.352	408.113	0.0041208	0.0019175	0.00023462	762.43	7.2825e-06	9.6037e-06	1062	270.83	8.0319e-06	3.5519e-06	508.32	240.92	124.02	52.889	1.726e-05	122.31	0.0056224	0.0078767	0.0022082	724.35	7.8419e-05	8.8943e-05	993.84	255.97	7.6919e-05	8.9948e-05	480.18	226.35	116.6	50.558	8.2653e-05	115.56	345.135	184.527	209.255	116.942	269.906	265.973	116.695	121.467	304.120	219.695	120.519	124.035	124.615	128.456	271.346	127.039	-8191	255	
1771.453	1	1	0	0	0.2746	0.2215	0.088747	0.13066	0.098364	0.17795	0.040649	0.15179	0.17488	0.038955	0.11993	0.16674	0.048419	0.18093	0.17752	0.38112	-2.325	-3.3	-3.0333	-2.6813	-3.5062	-2.8354	-3.0896	-3.475	-2.7125	-3.2375	-3.1188	-2.8521	-3.5771	-2.9875	-2.8854	-3.6979	189.774	346.420	275.554	363.574	212.584	269.289	248.520	371.350	123.735	251.000	383.210	438.993	382.278	324.029	367.072	364.487	0.0038115	0.00055415	0.00027706	764.33	3.3069e-06	1.1128e-05	1053.2	269.46	1.0806e-05	1.082e-05	503.04	238.97	122.95	52.369	1.8625e-05	120.94	0.0056061	0.0078812	0.0022081	724.25	7.7365e-05	8.9001e-05	987.47	253.9	7.6033e-05	8.9554e-05	476.52	224.64	115.65	50.008	8.4001e-05	114.14	351.711	134.612	168.465	117.226	228.649	234.887	116.609	121.524	286.131	302.351	120.335	123.915	124.824	128.556	240.250	127.097	-8191	255	
1771.573	1	1	0	0	0.30847	0.1038	0.036885	0.32617	0.20583	0.13434	0.14548	0.087208	0.11485	0.17874	0.11477	0.073453	0.062918	0.47183	0.11631	0.051634	-2.1667	-3.25	-3.0917	-2.7167	-3.4875	-2.9062	-3.0771	-3.5771	-2.7729	-2.975	-3.3688	-2.6104	-3.375	-3.0354	-2.8646	-3.6729	437.417	412.870	115.265	454.593	261.317	304.990	431.204	371.409	404.401	337.127	104.315	418.480	356.508	433.643	313.808	107.589	0.0042282	0.0012709	0.00015333	756.88	4.5121e-06	5.551e-06	1046.1	266.54	1.2852e-05	5.5904e-06	498.73	238.14	122.16	51.811	1.2635e-05	120.65	0.005791	0.0082137	0.0022772	719.35	8.1541e-05	9.2781e-05	981.85	251.61	7.853e-05	9.3013e-05	473.36	223.52	115.25	49.671	8.5263e-05	114.08	346.264	220.091	460.017	116.993	193.582	227.160	116.447	121.339	218.639	302.817	120.389	124.106	124.733	128.482	243.041	126.965	-8191	255	
1771.668	1	1	0	0	0.15027	0.32374	0.13772	0.13316	0.088253	0.27809	0.039813	0.18564	0.086265	0.12826	0.29116	0.27401	0.27388	0.15293	0.15153	0.21055	-2.2604	-3.1104	-3.0833	-2.6271	-3.5667	-2.9625	-2.9979	-3.5187	-2.7146	-3.0312	-3.3875	-2.8125	-3.4646	-3.3208	-2.75	-3.7958	186.860	127.434	287.079	161.473	168.457	194.097	311.606	404.297	361.263	391.439	151.700	392.546	354.847	422.477	376.794	381.352	0.0044826	0.00096897	0.00026438	759.08	5.2128e-06	1.2883e-05	1051.4	268	1.0366e-06	1.8253e-05	500.89	239.61	120.98	51.728	1.9608e-05	121.01	0.0057599	0.0081651	0.002283	718.84	8.0117e-05	9.0564e-05	985.05	252.08	7.7615e-05	9.0949e-05	473.02	223.87	114.49	49.544	8.3923e-05	114.49	346.098	179.080	151.604	116.814	255.879	237.736	116.759	121.608	319.376	253.880	120.256	124.291	124.873	128.573	299.927	127.108	-8191	255	
1771.764	1	1	0	0	0.13423	0.23492	0.17415	0.29053	0.32155	0.19283	0.26557	0.13113	0.30619	0.15805	0.16966	0.069393	0.12291	0.23264	0.37672	0.18005	-2.5771	-3.1375	-3.4562	-2.6729	-3.3875	-3.1458	-2.9917	-3.6083	-2.8021	-2.9354	-3.3812	-2.9479	-3.2292	-3.2354	-2.6729	-3.5667	431.640	111.378	182.272	444.002	313.633	370.513	417.212	420.749	172.332	353.527	460.611	117.161	384.732	422.929	384.198	390.115	0.0038749	0.0017768	0.00031817	761.24	5.0923e-06	1.4801e-05	1054.1	266.03	1.6647e-05	1.259e-05	500.68	238.49	119.82	52.081	1.0355e-05	121.36	0.0056608	0.0081565	0.0022702	721.76	8.0674e-05	9.1362e-05	987.71	251.05	7.8209e-05	9.2192e-05	474.95	223.77	113.88	49.659	8.4419e-05	114.5	347.174	193.486	199.562	116.921	238.059	274.580	116.713	121.532	271.339	267.679	120.624	124.305	125.013	128.357	301.373	127.171	-8191	255	
1771.884	1	1	0	0	0.20651	0.076629	0.20091	0.19813	0.073043	0.13248	0.16188	0.34399	0.12469	0.18308	0.14786	0.32691	0.079857	0.11521	0.10999	0.37327	-2.5438	-3.0521	-3.4229	-2.6271	-3.2792	-3.4521	-2.7167	-3.5729	-3.0104	-2.9729	-3.6125	-3.0042	-3.3187	-3.4562	-2.8958	-3.7125	375.010	163.768	262.759	425.064	461.757	247.411	396.870	137.342	196.250	306.653	363.126	383.080	167.433	108.470	350.205	390.325	0.0039749	0.00091245	0.00032536	755.15	1.1521e-05	6.4107e-06	1039.2	263.03	2.2846e-05	1.5207e-05	490.59	234.41	117.59	50.992	1.657e-05	118.84	0.0055141	0.0081821	0.0022716	715.82	7.9193e-05	9.1298e-05	975.86	247.62	7.5942e-05	9.1162e-05	465.12	218.95	111.53	48.776	8.3482e-05	112.3	347.958	236.510	195.429	116.784	239.351	187.466	116.588	121.752	248.822	264.666	120.342	123.990	125.015	128.646	262.599	127.411	-8191	255	
1771.956	1	1	0	0	0.12283	0.24263	0.24572	0.20681	0.26151	0.20997	0.31777	0.18335	0.27058	0.080014	0.064963	0.51097	0.16074	0.21814	0.11681	0.24983	-2.6292	-2.7979	-3.5083	-2.9021	-3.1562	-3.3542	-2.8417	-3.4917	-3.0146	-2.6542	-3.5417	-3.0292	-3.0625	-3.6167	-2.7354	-3.5875	201.237	395.151	429.291	383.860	363.305	111.027	409.870	193.890	216.127	282.133	333.158	403.079	111.341	416.504	436.474	418.332	0.0036493	0.00026256	0.00035471	744.85	8.3363e-06	6.8098e-06	1032	260	1.1675e-05	5.5064e-06	489.07	233.27	117.36	50.975	1.6704e-05	119.13	0.0055611	0.007953	0.0022402	708.58	7.8071e-05	8.9595e-05	968.58	244.74	7.5271e-05	8.9765e-05	462.66	217.79	111.03	48.694	8.0347e-05	112.63	349.015	165.077	196.987	116.632	222.743	297.368	116.745	121.733	257.641	261.512	120.767	124.288	124.624	128.624	246.407	127.126	-8191	255	
1772.052	1	1	0	0	0.14053	0.251	0.1202	0.25211	0.16803	0.1065	0.089098	0.26665	0.16959	0.12885	0.35051	0.2516	0.15728	0.27374	0.084835	0.14213	-2.8187	-2.9313	-3.5187	-2.9562	-2.9292	-3.3167	-3.0208	-3.475	-3.1979	-2.6146	-3.5563	-3.0146	-3.0521	-3.7958	-2.6937	-3.35	462.490	298.898	314.666	357.994	312.811	350.808	382.877	378.759	232.908	349.476	417.654	438.191	461.556	444.520	230.190	414.247	0.0036376	0.0011742	0.00019245	747.15	1.0082e-05	4.8843e-06	1041.6	261.28	2.7069e-05	1.8528e-05	493.77	235.31	119.28	51.972	5.7034e-06	120.43	0.0053739	0.0078746	0.0021974	711.04	7.624e-05	8.8401e-05	973.68	246.53	7.2775e-05	8.9623e-05	466.9	220.27	112.61	49.359	8.1395e-05	113.89	348.155	180.602	165.310	116.768	297.419	213.393	117.130	121.793	240.953	274.547	120.735	124.057	124.488	128.412	209.985	127.205	-8191	255	
