BOXY.EXE: ISS Imagent and Oximeter Data Acquisition Program Version 0.80
Ascii Record File

#ACQ INFORMATION
2  Detector Channels 
16  External MUX Channels 
1  Auxiliary Channels 
5000  Waveform (CCF) Frequency (Hz)
1  Waveforms Skipped 
30  Waveforms Averaged 
1  Cycles Averaged 
16  Acquisitions per Waveform 
10.0806  Updata Rate (Hz) 

#FILE INFORMATION
TRUE -- External MUX Channel results are PARSED.
FALSE -- AC DC and Phase are NOT grouped.
TRUE -- Companion Program Settings File CREATED.
FALSE -- AC data not excluded
FALSE -- DC data not excluded
FALSE -- Phase data not excluded
FALSE -- Auxillary Chn. data not excluded
Tab delimiters

#CALIBRATION STATE
TRUE -- Waveform Calibration Values APPLIED.


#AUX CALIBRATION VALUES
Val Type	aux-1	

Term	1.0000e+00	
Factor	0.0000e+00	


#WF CALIBRATION VALUES
A = Detector Channel
Val Type	A-AC1	A-AC2	A-AC3	A-AC4	A-AC5	A-AC6	A-AC7	A-AC8	A-AC9	A-AC10	A-AC11	A-AC12	A-AC13	A-AC14	A-AC15	A-AC16	A-DC1	A-DC2	A-DC3	A-DC4	A-DC5	A-DC6	A-DC7	A-DC8	A-DC9	A-DC10	A-DC11	A-DC12	A-DC13	A-DC14	A-DC15	A-DC16	A-Ph1	A-Ph2	A-Ph3	A-Ph4	A-Ph5	A-Ph6	A-Ph7	A-Ph8	A-Ph9	A-Ph10	A-Ph11	A-Ph12	A-Ph13	A-Ph14	A-Ph15	A-Ph16	

Term	0.00000e+00	0.00000e+00	0.00000e+00	0.00000e+00	0.00000e+00	0.00000e+00	0.00000e+00	0.00000e+00	0.00000e+00	0.00000e+00	0.00000e+00	0.00000e+00	0.00000e+00	0.00000e+00	0.00000e+00	0.00000e+00	0.00000e+00	0.00000e+00	0.00000e+00	0.00000e+00	0.00000e+00	0.00000e+00	0.00000e+00	0.00000e+00	0.00000e+00	0.00000e+00	0.00000e+00	0.00000e+00	0.00000e+00	0.00000e+00	0.00000e+00	0.00000e+00	0.00000e+00	0.00000e+00	0.00000e+00	0.00000e+00	0.00000e+00	0.00000e+00	0.00000e+00	0.00000e+00	0.00000e+00	0.00000e+00	0.00000e+00	0.00000e+00	0.00000e+00	0.00000e+00	0.00000e+00	0.00000e+00	
Factor	1.00000e+00	1.00000e+00	1.00000e+00	1.00000e+00	1.00000e+00	1.00000e+00	1.00000e+00	1.00000e+00	1.00000e+00	1.00000e+00	1.00000e+00	1.00000e+00	1.00000e+00	1.00000e+00	1.00000e+00	1.00000e+00	1.00000e+00	1.00000e+00	1.00000e+00	1.00000e+00	1.00000e+00	1.00000e+00	1.00000e+00	1.00000e+00	1.00000e+00	1.00000e+00	1.00000e+00	1.00000e+00	1.00000e+00	1.00000e+00	1.00000e+00	1.00000e+00	X	X	X	X	X	X	X	X	X	X	X	X	X	X	X	X	

B = Detector Channel
Val Type	B-AC1	B-AC2	B-AC3	B-AC4	B-AC5	B-AC6	B-AC7	B-AC8	B-AC9	B-AC10	B-AC11	B-AC12	B-AC13	B-AC14	B-AC15	B-AC16	B-DC1	B-DC2	B-DC3	B-DC4	B-DC5	B-DC6	B-DC7	B-DC8	B-DC9	B-DC10	B-DC11	B-DC12	B-DC13	B-DC14	B-DC15	B-DC16	B-Ph1	B-Ph2	B-Ph3	B-Ph4	B-Ph5	B-Ph6	B-Ph7	B-Ph8	B-Ph9	B-Ph10	B-Ph11	B-Ph12	B-Ph13	B-Ph14	B-Ph15	B-Ph16	

Term	0.00000e+00	0.00000e+00	0.00000e+00	0.00000e+00	0.00000e+00	0.00000e+00	0.00000e+00	0.00000e+00	0.00000e+00	0.00000e+00	0.00000e+00	0.00000e+00	0.00000e+00	0.00000e+00	0.00000e+00	0.00000e+00	0.00000e+00	0.00000e+00	0.00000e+00	0.00000e+00	0.00000e+00	0.00000e+00	0.00000e+00	0.00000e+00	0.00000e+00	0.00000e+00	0.00000e+00	0.00000e+00	0.00000e+00	0.00000e+00	0.00000e+00	0.00000e+00	-2.62276e+01	-1.15878e+02	-1.08409e+02	-1.83494e+02	-6.33589e+01	-7.54221e+01	-1.57928e+02	-1.62015e+02	-5.48854e+01	-9.11149e+01	-1.72828e+02	-1.71611e+02	-1.77707e+02	-1.75907e+02	-7.81365e+01	-1.49620e+02	
Factor	2.61661e-05	9.26201e-05	2.46974e-05	1.98797e-01	9.62366e-07	8.91135e-07	1.79104e-01	5.14304e-02	1.05170e-06	1.02584e-06	1.02012e-01	2.95886e-02	2.20963e-02	8.96045e-03	1.07712e-06	1.32210e-02	5.86835e-07	5.95880e-07	1.65773e-07	9.66592e-02	6.53574e-09	6.52599e-09	8.24644e-02	2.52020e-02	6.53566e-09	6.54143e-09	4.62961e-02	1.36781e-02	1.07972e-02	4.30996e-03	6.51163e-09	6.04044e-03	X	X	X	X	X	X	X	X	X	X	X	X	X	X	X	X	



#DISTANCE SETTINGS
A = Detector Channel
A-1	A-2	A-3	A-4	A-5	A-6	A-7	A-8	A-9	A-10	A-11	A-12	A-13	A-14	A-15	A-16	

2.5000e+00	3.0000e+00	2.5000e+00	3.0000e+00	2.0000e+00	3.0000e+00	1.5000e+00	3.0000e+00	3.0000e+00	3.0000e+00	3.0000e+00	3.0000e+00	3.0000e+00	3.0000e+00	1.5000e+00	3.0000e+00	

B = Detector Channel
B-1	B-2	B-3	B-4	B-5	B-6	B-7	B-8	B-9	B-10	B-11	B-12	B-13	B-14	B-15	B-16	

1.0000e+01	1.0000e+01	1.0000e+01	1.4400e+00	1.0000e+01	1.0000e+01	1.5100e+00	1.9400e+00	1.0000e+01	1.0000e+01	1.9900e+00	2.4900e+00	2.4100e+00	2.9000e+00	1.0000e+01	2.9800e+00	




#DATA BEGINS
time	group	step	mark	flag	A-AC1	A-AC2	A-AC3	A-AC4	A-AC5	A-AC6	A-AC7	A-AC8	A-AC9	A-AC10	A-AC11	A-AC12	A-AC13	A-AC14	A-AC15	A-AC16	A-DC1	A-DC2	A-DC3	A-DC4	A-DC5	A-DC6	A-DC7	A-DC8	A-DC9	A-DC10	A-DC11	A-DC12	A-DC13	A-DC14	A-DC15	A-DC16	A-Ph1	A-Ph2	A-Ph3	A-Ph4	A-Ph5	A-Ph6	A-Ph7	A-Ph8	A-Ph9	A-Ph10	A-Ph11	A-Ph12	A-Ph13	A-Ph14	A-Ph15	A-Ph16	B-AC1	B-AC2	B-AC3	B-AC4	B-AC5	B-AC6	B-AC7	B-AC8	B-AC9	B-AC10	B-AC11	B-AC12	B-AC13	B-AC14	B-AC15	B-AC16	B-DC1	B-DC2	B-DC3	B-DC4	B-DC5	B-DC6	B-DC7	B-DC8	B-DC9	B-DC10	B-DC11	B-DC12	B-DC13	B-DC14	B-DC15	B-DC16	B-Ph1	B-Ph2	B-Ph3	B-Ph4	B-Ph5	B-Ph6	B-Ph7	B-Ph8	B-Ph9	B-Ph10	B-Ph11	B-Ph12	B-Ph13	B-Ph14	B-Ph15	B-Ph16	aux-1	digaux	

8251.166	1	1	0	256	0.20194	0.25064	0.21496	0.10572	0.18243	0.037371	0.34071	0.23489	0.22516	0.017678	0.17673	0.33089	0.16526	0.21807	0.32611	0.21366	-1.8	-0.96667	-1.7333	-1.6396	-1.2479	-1.8542	-1.4146	-1.4083	-1.9625	-1.1229	-1.8937	-1.7625	-1.2188	-2.0125	-1.5167	-1.6938	226.722	370.703	346.478	306.700	241.976	431.835	288.722	373.254	105.459	123.153	386.886	130.002	439.490	443.955	412.087	368.543	0.00079974	0.00040572	0.0001239	385.49	2.1227e-06	8.406e-06	570.08	138.16	3.1166e-06	5.8001e-06	273.98	123.79	63.871	23.969	4.388e-06	59.877	0.00045117	0.00044118	0.00013195	435.89	4.8309e-06	4.9173e-06	604.95	150.84	4.7992e-06	4.8615e-06	285.88	124.73	67.222	25.475	5.1706e-06	59.282	280.217	181.190	190.536	107.470	382.841	245.674	107.168	112.083	270.340	224.804	110.828	114.792	115.939	119.858	134.377	117.942	-8191	255	
8251.286	1	1	0	0	0.045629	0.31435	0.25842	0.10595	0.13379	0.089667	0.031196	0.10227	0.14302	0.30535	0.022768	0.2107	0.10348	0.26859	0.29471	0.28904	-1.6229	-0.98125	-1.8	-1.8271	-1.35	-2.2313	-1.3813	-1.1708	-2.0792	-1.2771	-1.6604	-2.05	-1.2313	-2.0396	-1.4917	-1.4229	444.941	122.984	416.873	268.348	203.860	172.476	268.363	203.886	101.712	183.932	212.255	431.931	286.751	348.769	112.882	322.181	0.00091383	0.00067656	0.00010863	386.87	5.2907e-06	5.4769e-06	571.39	140.51	3.4522e-06	4.2031e-06	275.25	124.8	64.873	24.213	9.3798e-06	60.258	0.00044255	0.00045515	0.00013222	437.07	4.7749e-06	5.0725e-06	607.04	152.04	4.8209e-06	5.11e-06	287.12	125.31	67.775	25.805	5.1032e-06	59.511	276.077	189.490	208.226	107.106	273.836	231.876	107.110	112.525	333.753	207.196	110.665	114.693	115.376	119.670	260.258	118.134	-8191	255	
8251.382	1	1	0	0	0.28044	0.17043	0.17259	0.15907	0.1644	0.07378	0.2699	0.026816	0.149	0.25844	0.11417	0.1542	0.12996	0.26031	0.2892	0.036766	-1.7375	-0.90833	-1.8458	-1.85	-1.1167	-1.9062	-1.7542	-1.0958	-1.8438	-1.075	-1.5375	-1.8125	-1.1833	-1.9604	-1.6833	-1.3396	438.016	138.964	409.982	381.990	205.863	129.988	131.152	349.390	402.353	253.986	136.575	402.887	440.224	280.804	167.732	389.750	0.00091329	0.0007199	6.2308e-05	389.77	5.8427e-06	3.1131e-06	571.66	140.55	7.4367e-06	2.9624e-06	278.15	124.42	65.007	24.347	4.0247e-06	60.219	0.00044749	0.0004704	0.00012919	437.54	4.8294e-06	5.2075e-06	605.1	151.48	4.8284e-06	5.1929e-06	286.75	124.96	68.026	25.984	4.9799e-06	59.409	264.691	178.809	240.727	107.642	192.494	265.888	107.009	112.473	273.098	397.812	110.722	114.755	115.795	119.539	215.795	117.769	-8191	255	
8251.479	1	1	0	0	0.13715	0.28359	0.031863	0.069448	0.17628	0.15157	0.041341	0.084511	0.16429	0.33987	0.080687	0.25767	0.084722	0.037478	0.24513	0.076829	-1.5458	-1.3563	-1.5458	-2.1146	-1.175	-1.6333	-1.9083	-1.1667	-1.9479	-1.6562	-1.3646	-1.9396	-1.3667	-1.6125	-1.6583	-1.2437	142.656	98.641	213.710	161.078	340.029	420.372	133.094	311.634	285.707	134.840	339.807	419.526	101.555	275.760	124.195	428.875	0.00090345	0.00057556	9.9439e-05	385.29	7.9746e-06	5.1054e-06	572.42	140.59	4.0423e-06	5.0479e-06	274.08	124.97	64.771	24.273	5.3987e-06	60.22	0.00045218	0.00047193	0.00012588	433.79	4.8819e-06	5.1505e-06	602.9	150.94	4.9233e-06	5.1503e-06	284.35	124.94	68.153	25.913	4.8962e-06	59.365	263.614	248.522	279.995	107.605	283.395	273.927	107.212	112.077	216.829	235.575	110.967	114.949	115.814	119.740	273.318	117.841	-8191	255	
8251.573	1	1	0	0	0.14572	0.23887	0.40783	0.026994	0.1443	0.080395	0.098184	0.2161	0.059862	0.29321	0.23447	0.079776	0.24841	0.23904	0.057393	0.26895	-1.3833	-1.4979	-1.3583	-1.9521	-1.0438	-1.7104	-1.7458	-1.1646	-1.9	-1.5354	-1.3354	-2.0938	-1.1792	-1.725	-2.0125	-1.2958	122.040	230.670	256.647	243.931	439.617	221.569	397.119	372.426	384.745	148.197	163.905	170.948	397.354	223.646	432.539	390.868	0.0010343	0.00047458	0.00016473	387.5	7.0747e-06	5.9935e-06	575.19	141.72	9.4417e-06	3.0019e-06	277.16	125.31	65.205	24.701	2.95e-06	61.152	0.00046331	0.00046301	0.00012358	433.25	5.0267e-06	5.0034e-06	602.64	151.8	5.0561e-06	5.0548e-06	285.03	125.51	68.798	26.081	4.762e-06	59.828	266.863	127.281	313.770	107.123	203.735	140.808	107.488	112.586	249.719	169.672	111.016	114.903	115.235	119.783	361.273	118.086	-8191	255	
8251.646	1	1	0	0	0.12559	0.15034	0.13222	0.09405	0.12226	0.31673	0.20535	0.076378	0.34456	0.038528	0.27239	0.12429	0.15163	0.26016	0.2105	0.25319	-1.4688	-1.5854	-1.2229	-2.0646	-1.0396	-1.4521	-2.0542	-1.0854	-1.7833	-1.7083	-1.1854	-2.0687	-1.1729	-1.4937	-2.1333	-1.2771	260.473	404.400	399.267	240.884	147.936	193.427	329.152	281.623	198.602	448.328	430.865	231.708	407.941	381.438	293.777	124.036	0.00091535	0.00089101	0.00017113	389.57	6.5547e-06	2.0583e-06	573.15	142.46	1.4293e-06	3.7976e-06	276.97	125.97	65.412	24.706	7.0961e-06	60.894	0.00047172	0.00045516	0.00012091	435.71	5.1351e-06	4.929e-06	603.03	152.79	5.1759e-06	4.9623e-06	284.24	126.08	69.221	26.111	4.7847e-06	60.132	275.329	243.124	223.686	107.789	257.227	227.344	107.378	112.369	150.443	402.129	110.605	115.373	115.832	119.963	164.899	118.100	-8191	255	
8251.765	1	1	0	0	0.13868	0.075603	0.16542	0.17576	0.11282	0.20697	0.10407	0.088911	0.054988	0.12107	0.2197	0.3265	0.1939	0.16262	0.31566	0.10634	-1.2708	-1.7563	-1.2292	-2.0938	-1.3271	-1.3104	-2.2521	-1.2917	-1.6604	-1.9438	-1.2938	-2.1	-1.4333	-1.1875	-1.8854	-1.4562	108.736	378.058	422.563	172.531	265.738	255.644	440.510	359.503	403.770	158.543	373.529	451.499	119.493	153.677	375.041	265.387	0.00084389	0.00025834	7.1837e-05	390.84	3.1383e-06	3.4758e-06	572.66	141.57	6.75e-07	2.964e-06	275.96	125.21	65.151	24.598	2.3294e-06	60.819	0.0004769	0.00045162	0.00012011	439.35	5.1661e-06	4.9202e-06	601.46	153.02	5.1338e-06	4.9393e-06	282.69	126.08	68.841	26.059	4.7501e-06	60.022	278.656	320.705	238.935	107.486	152.709	364.339	106.870	112.249	94.555	292.830	110.921	114.879	115.466	119.836	168.140	117.925	-8191	255	
8251.861	1	1	0	0	0.25942	0.010722	0.25847	0.086773	0.033672	0.17856	0.23378	0.16255	0.15658	0.36649	0.2636	0.1295	0.11607	0.16363	0.12075	0.28431	-1.2812	-1.8583	-0.91458	-2.1667	-1.6604	-1.2417	-2.2646	-1.1354	-1.5792	-2	-1.15	-1.7563	-1.6167	-1.5625	-2.1083	-1.2938	286.962	269.084	414.037	116.627	452.170	137.797	95.135	434.511	291.638	350.957	174.388	227.844	393.763	252.731	275.588	94.543	0.00080057	0.00040756	0.00014868	388.02	5.7272e-06	1.5719e-06	575.04	141.89	2.2632e-06	4.0074e-06	272.68	125.24	65.442	24.474	6.2857e-06	60.549	0.00046975	0.00044363	0.00011994	439.57	5.032e-06	4.8047e-06	598.46	152.89	5.0065e-06	4.8304e-06	281.95	125.75	68.554	25.86	4.7543e-06	59.941	270.620	153.680	276.120	107.562	278.558	152.201	107.140	112.369	261.546	240.219	110.751	114.677	115.534	119.901	169.041	117.823	-8191	255	
8251.958	1	1	0	0	0.13285	0.029591	0.11069	0.094018	0.16292	0.282	0.16569	0.12745	0.16345	0.20263	0.22024	0.31264	0.15997	0.17001	0.23973	0.21836	-1.075	-1.8333	-0.98333	-1.975	-1.8625	-1.1	-2.1979	-1.5667	-1.4167	-1.9667	-1.2833	-1.9417	-1.7458	-1.2521	-2.075	-1.3458	198.219	171.262	341.371	414.620	368.416	143.017	409.649	372.957	106.171	238.059	157.203	402.801	186.839	311.027	309.126	377.083	0.00091235	0.00023423	8.3536e-05	384.78	5.9773e-06	5.9332e-06	568.32	140.16	7.22e-06	2.6498e-06	273.11	124.76	65.406	24.593	4.1897e-06	60.41	0.00045313	0.00043149	0.00012123	435.55	4.8834e-06	4.6953e-06	596.5	151.58	4.8513e-06	4.7127e-06	281.75	125.46	68.42	25.869	4.9286e-06	59.91	277.742	182.532	447.751	107.521	251.885	193.841	107.291	112.510	250.436	278.014	110.771	115.022	115.475	119.902	274.193	118.148	-8191	255	
8252.078	1	1	0	0	0.12284	0.38719	0.24871	0.0612	0.040574	0.20869	0.19792	0.14228	0.40435	0.095768	0.38774	0.16123	0.09009	0.30058	0.10526	0.18233	-1.0292	-2.0146	-1.1646	-1.9854	-1.8417	-1.2104	-2.2021	-1.5688	-1.4125	-1.9771	-1.3167	-1.6604	-2.0271	-1.2687	-2.0271	-1.525	415.317	177.804	325.193	186.133	219.277	118.349	375.340	248.238	308.411	407.395	377.199	427.541	405.172	384.107	321.360	126.274	0.00085132	0.00066235	0.00024558	386.41	6.9994e-06	3.1716e-06	566.77	140.42	3.8751e-06	9.5111e-06	274.36	125.24	65.422	24.696	7.0028e-06	60.782	0.00045342	0.00042822	0.00012706	437.71	4.9211e-06	4.6524e-06	600.34	152.41	4.8689e-06	4.7228e-06	284.61	126.06	68.572	26.021	5.0843e-06	59.959	280.187	288.662	171.772	107.709	312.991	192.875	107.579	112.220	194.755	245.732	110.732	114.888	115.498	119.643	212.047	118.094	-8191	255	
8252.174	1	1	0	0	0.039256	0.10476	0.22931	0.02966	0.2086	0.42918	0.27596	0.19287	0.068962	0.21718	0.29575	0.05295	0.056617	0.17883	0.034956	0.32799	-0.83958	-2.0833	-1.2687	-1.4083	-1.9312	-1.1688	-1.9042	-1.7979	-1.2083	-1.9833	-1.3042	-1.4979	-2.1542	-1.2042	-1.8271	-1.9	444.235	409.580	227.476	218.976	100.054	157.171	370.800	197.663	422.294	432.211	415.860	371.713	148.512	113.271	171.657	402.467	0.00092729	0.00035627	0.00011058	390.47	1.8785e-06	3.1195e-06	570.26	140.3	5.4476e-06	6.3328e-06	271.14	124.94	64.954	24.471	2.7788e-06	60.312	0.00044615	0.00043588	0.00013052	438.75	4.8069e-06	4.768e-06	602.66	151.9	4.7521e-06	4.796e-06	283.5	125.16	68.13	25.885	5.1278e-06	59.521	280.368	247.628	220.489	107.373	382.446	199.154	107.079	111.654	323.648	246.952	111.350	114.718	115.726	119.870	401.858	118.043	-8191	255	
8252.270	1	1	0	0	0.16961	0.29169	0.085185	0.17376	0.064598	0.14098	0.2113	0.15868	0.17423	0.22286	0.24197	0.20001	0.10959	0.14467	0.18161	0.26075	-0.71458	-1.7958	-1.4417	-1.3792	-1.9667	-1.2729	-1.9146	-1.7333	-1.0167	-1.9021	-1.6521	-1.4583	-1.7396	-1.225	-1.6521	-1.7875	240.297	98.198	105.815	112.681	415.915	426.221	120.929	395.122	233.496	293.160	377.658	445.715	363.999	385.214	254.920	364.602	0.0009939	0.0010263	6.5277e-05	383.83	3.0719e-06	3.8043e-06	563.89	138.57	1.797e-06	5.3283e-06	269.52	123.35	64.692	24.354	8.4738e-06	59.637	0.00043848	0.00044659	0.00013082	435.14	4.7599e-06	4.9367e-06	597.76	150.6	4.692e-06	4.9808e-06	281.07	123.81	67.54	25.885	5.0619e-06	58.912	266.964	213.650	207.723	107.526	237.680	241.836	107.059	112.556	208.543	223.604	110.555	114.938	115.472	119.676	233.449	117.893	-8191	255	
8252.367	1	1	0	0	0.1172	0.13958	0.27517	0.27342	0.058798	0.18379	0.16959	0.37386	0.12453	0.081266	0.10284	0.33494	0.045655	0.19603	0.29473	0.23117	-0.56667	-1.7729	-1.375	-1.1792	-1.9979	-1.3208	-1.55	-1.9062	-1.1938	-1.6604	-1.5542	-1.3292	-2.1021	-1.5125	-1.4667	-1.9	180.990	350.398	356.351	385.542	178.657	355.245	439.619	423.035	194.880	258.145	361.980	377.883	157.238	109.871	401.765	420.261	0.00093329	0.00052408	4.2015e-05	387.86	4.7495e-06	4.2316e-06	565.35	139.24	7.2843e-06	8.3846e-06	267.37	122.38	64.882	24.191	6.7033e-06	59.515	0.00043738	0.0004625	0.00012849	435.04	4.7457e-06	5.0861e-06	595.61	150.27	4.7482e-06	5.0926e-06	279.29	123.16	67.786	25.847	4.9349e-06	58.8	270.058	108.977	265.264	107.621	214.377	152.555	107.229	112.440	251.598	152.696	111.018	114.847	115.568	119.500	399.298	117.964	-8191	255	
8252.463	1	1	0	0	0.23307	0.13718	0.29105	0.1658	0.17902	0.08604	0.06437	0.13247	0.070491	0.05663	0.29534	0.30165	0.18989	0.28055	0.23738	0.16948	-0.6625	-1.8854	-1.6187	-1.3292	-2.0021	-1.3646	-1.5021	-2.1042	-1.2958	-1.6625	-1.8104	-1.2188	-2.1625	-1.6021	-1.3875	-2.1708	437.700	350.982	372.945	174.976	259.591	102.432	267.886	331.083	97.538	315.173	389.346	415.317	159.941	410.973	194.405	344.072	0.00091523	0.00044207	0.00011872	389.62	7.4657e-06	7.788e-06	561.42	140.13	6.1808e-06	4.2557e-06	267.27	122.87	64.202	24.349	3.7987e-06	59.476	0.00044198	0.00046575	0.00012522	433.93	4.8173e-06	5.1283e-06	594.3	150.35	4.896e-06	5.1764e-06	278.48	122.74	67.575	25.873	4.9257e-06	58.716	267.304	165.769	217.559	107.371	222.433	289.978	107.278	112.879	258.457	219.269	110.440	114.700	115.465	119.598	387.551	117.944	-8191	255	
8252.557	1	1	0	0	0.072016	0.089627	0.059897	0.058494	0.16599	0.038807	0.19931	0.11113	0.2148	0.062971	0.1267	0.21966	0.30262	0.18078	0.2677	0.1789	-0.62917	-1.9583	-1.7833	-1.0771	-2.0208	-1.3229	-1.275	-2.1646	-1.1354	-1.4792	-1.7083	-1.3375	-1.8417	-1.5271	-1.3396	-2.2083	112.805	382.862	235.750	135.492	440.042	119.045	440.215	403.734	115.659	141.476	104.124	430.671	216.036	420.982	412.370	293.085	0.00097627	0.00068259	1.9552e-05	391.3	3.2659e-06	5.6662e-06	560.9	139.51	1.1272e-05	4.1579e-06	266.81	121.96	63.893	24.255	5.9873e-06	59.598	0.00046441	0.00047253	0.00012607	434.97	5.0775e-06	5.146e-06	592.73	149.66	5.1004e-06	5.0756e-06	276.54	122.42	67.717	25.804	4.7955e-06	58.619	265.754	300.925	303.756	107.651	285.608	280.608	106.787	112.017	291.203	266.613	110.980	114.974	115.443	119.189	277.837	117.559	-8191	255	
8252.655	1	1	0	0	0.16299	0.18286	0.27083	0.051993	0.30007	0.057699	0.16052	0.20575	0.10779	0.18279	0.087103	0.044092	0.3605	0.18327	0.19679	0.10517	-0.96667	-1.6479	-1.8813	-0.99375	-1.9479	-1.5312	-1.2146	-2.0667	-1.4125	-1.4958	-2.0938	-1.2417	-1.8937	-1.5562	-1.2875	-2.1	430.114	353.671	190.087	231.920	157.884	272.929	387.234	379.513	157.784	317.399	408.830	170.611	122.150	107.256	316.926	103.407	0.00081362	0.00045987	0.00014703	386.18	8.3436e-06	3.4008e-06	561.69	139.61	7.5077e-06	3.1975e-06	267.7	121.2	63.724	24.16	4.5942e-06	59.211	0.00047032	0.00045178	0.00012259	431.85	5.1193e-06	4.941e-06	589.87	149.4	5.0938e-06	4.9315e-06	275.62	121.94	67.52	25.538	4.6853e-06	58.368	271.442	195.495	192.834	107.538	222.382	444.831	107.057	112.072	106.240	415.445	110.119	114.530	115.520	119.299	192.383	117.576	-8191	255	
8252.774	1	1	0	0	0.095992	0.08737	0.15535	0.17634	0.16518	0.1773	0.12562	0.11842	0.16167	0.14757	0.18535	0.055991	0.12351	0.20703	0.033226	0.1362	-0.95833	-1.7	-2.0958	-1.1396	-1.7396	-2.0458	-1.1938	-1.9937	-1.5854	-1.4021	-2.1917	-1.1667	-1.85	-1.9229	-1.0521	-1.8521	314.550	411.449	337.676	105.379	236.880	97.550	399.439	348.634	101.288	393.506	406.249	417.812	198.874	285.618	245.947	95.410	0.00085234	0.00049413	0.00014864	384.09	8.5017e-07	1.9934e-06	559.8	138.29	5.1796e-06	2.2735e-06	264.7	121.52	63.936	24.047	6.6165e-06	58.854	0.00046925	0.0004438	0.00011894	431.49	5.1303e-06	4.8963e-06	587.69	149.05	5.1085e-06	4.8847e-06	274.26	122.12	67.424	25.385	4.7091e-06	58.368	270.936	188.176	159.991	107.450	243.981	397.356	107.071	112.012	206.087	227.785	110.529	114.476	115.210	119.143	159.703	117.590	-8191	255	
8252.870	1	1	0	0	0.14938	0.16708	0.13419	0.077168	0.25651	0.25451	0.34244	0.15703	0.024105	0.15596	0.16078	0.29076	0.14768	0.045368	0.24441	0.16081	-0.94375	-1.275	-2.075	-1.0458	-1.7	-2.1562	-1.1708	-1.9333	-1.6229	-1.5812	-2.0208	-1.2792	-1.6229	-2.0229	-1.2	-2.0833	153.934	426.216	399.102	245.252	350.221	421.797	373.491	352.206	142.428	124.649	184.326	443.473	131.922	435.468	399.720	351.241	0.0010007	0.00056548	6.6438e-05	386.88	2.0514e-06	2.0725e-06	557.83	138.12	5.1149e-06	7.1226e-06	264.21	120.71	63.198	24.028	5.0783e-06	59.075	0.00047363	0.0004462	0.00012137	436.01	5.1329e-06	4.9561e-06	586.62	149.87	5.1612e-06	4.9636e-06	275.04	122.36	67.273	25.476	4.8907e-06	58.653	276.421	314.365	287.794	107.220	219.142	354.814	106.814	112.205	231.014	274.265	110.696	114.231	115.665	119.216	215.326	117.732	-8191	255	
