BOXY.EXE: ISS Imagent and Oximeter Data Acquisition Program Version 0.80
Ascii Record File

#ACQ INFORMATION
2  Detector Channels 
16  External MUX Channels 
1  Auxiliary Channels 
5000  Waveform (CCF) Frequency (Hz)
1  Waveforms Skipped 
30  Waveforms Averaged 
1  Cycles Averaged 
16  Acquisitions per Waveform 
10.0806  Updata Rate (Hz) 

#FILE INFORMATION
TRUE -- External MUX Channel results are PARSED.
FALSE -- AC DC and Phase are NOT grouped.
TRUE -- Companion Program Settings File CREATED.
FALSE -- AC data not excluded
FALSE -- DC data not excluded
FALSE -- Phase data not excluded
FALSE -- Auxillary Chn. data not excluded
Tab delimiters

#CALIBRATION STATE
TRUE -- Waveform Calibration Values APPLIED.


#AUX CALIBRATION VALUES
Val Type	aux-1	

Term	1.0000e+00	
Factor	0.0000e+00	


#WF CALIBRATION VALUES
A = Detector Channel
Val Type	A-AC1	A-AC2	A-AC3	A-AC4	A-AC5	A-AC6	A-AC7	A-AC8	A-AC9	A-AC10	A-AC11	A-AC12	A-AC13	A-AC14	A-AC15	A-AC16	A-DC1	A-DC2	A-DC3	A-DC4	A-DC5	A-DC6	A-DC7	A-DC8	A-DC9	A-DC10	A-DC11	A-DC12	A-DC13	A-DC14	A-DC15	A-DC16	A-Ph1	A-Ph2	A-Ph3	A-Ph4	A-Ph5	A-Ph6	A-Ph7	A-Ph8	A-Ph9	A-Ph10	A-Ph11	A-Ph12	A-Ph13	A-Ph14	A-Ph15	A-Ph16	

Term	0.00000e+00	0.00000e+00	0.00000e+00	0.00000e+00	0.00000e+00	0.00000e+00	0.00000e+00	0.00000e+00	0.00000e+00	0.00000e+00	0.00000e+00	0.00000e+00	0.00000e+00	0.00000e+00	0.00000e+00	0.00000e+00	0.00000e+00	0.00000e+00	0.00000e+00	0.00000e+00	0.00000e+00	0.00000e+00	0.00000e+00	0.00000e+00	0.00000e+00	0.00000e+00	0.00000e+00	0.00000e+00	0.00000e+00	0.00000e+00	0.00000e+00	0.00000e+00	0.00000e+00	0.00000e+00	0.00000e+00	0.00000e+00	0.00000e+00	0.00000e+00	0.00000e+00	0.00000e+00	0.00000e+00	0.00000e+00	0.00000e+00	0.00000e+00	0.00000e+00	0.00000e+00	0.00000e+00	0.00000e+00	
Factor	1.00000e+00	1.00000e+00	1.00000e+00	1.00000e+00	1.00000e+00	1.00000e+00	1.00000e+00	1.00000e+00	1.00000e+00	1.00000e+00	1.00000e+00	1.00000e+00	1.00000e+00	1.00000e+00	1.00000e+00	1.00000e+00	1.00000e+00	1.00000e+00	1.00000e+00	1.00000e+00	1.00000e+00	1.00000e+00	1.00000e+00	1.00000e+00	1.00000e+00	1.00000e+00	1.00000e+00	1.00000e+00	1.00000e+00	1.00000e+00	1.00000e+00	1.00000e+00	X	X	X	X	X	X	X	X	X	X	X	X	X	X	X	X	

B = Detector Channel
Val Type	B-AC1	B-AC2	B-AC3	B-AC4	B-AC5	B-AC6	B-AC7	B-AC8	B-AC9	B-AC10	B-AC11	B-AC12	B-AC13	B-AC14	B-AC15	B-AC16	B-DC1	B-DC2	B-DC3	B-DC4	B-DC5	B-DC6	B-DC7	B-DC8	B-DC9	B-DC10	B-DC11	B-DC12	B-DC13	B-DC14	B-DC15	B-DC16	B-Ph1	B-Ph2	B-Ph3	B-Ph4	B-Ph5	B-Ph6	B-Ph7	B-Ph8	B-Ph9	B-Ph10	B-Ph11	B-Ph12	B-Ph13	B-Ph14	B-Ph15	B-Ph16	

Term	0.00000e+00	0.00000e+00	0.00000e+00	0.00000e+00	0.00000e+00	0.00000e+00	0.00000e+00	0.00000e+00	0.00000e+00	0.00000e+00	0.00000e+00	0.00000e+00	0.00000e+00	0.00000e+00	0.00000e+00	0.00000e+00	0.00000e+00	0.00000e+00	0.00000e+00	0.00000e+00	0.00000e+00	0.00000e+00	0.00000e+00	0.00000e+00	0.00000e+00	0.00000e+00	0.00000e+00	0.00000e+00	0.00000e+00	0.00000e+00	0.00000e+00	0.00000e+00	-2.03808e+02	-1.26914e+02	-1.21665e+02	-1.82284e+02	-9.97973e+01	-6.70612e+01	-1.58386e+02	-1.62015e+02	-9.23245e+01	-5.47240e+01	-1.79153e+02	-1.73355e+02	-1.82277e+02	-1.78265e+02	-9.35483e+01	-1.51023e+02	
Factor	4.16203e-05	1.29908e-04	3.88856e-05	1.52783e-01	1.56517e-06	1.40541e-06	1.69293e-01	4.87466e-02	1.56402e-06	1.54847e-06	1.08150e+00	2.87519e-02	2.79038e-02	8.23139e-03	1.38566e-06	1.17084e-02	2.55365e-06	2.72466e-06	7.60423e-07	8.14313e-02	2.95165e-08	3.00081e-08	8.46997e-02	2.60561e-02	2.96002e-08	2.99262e-08	4.46141e-01	1.47748e-02	1.49295e-02	4.41557e-03	2.97076e-08	6.06583e-03	X	X	X	X	X	X	X	X	X	X	X	X	X	X	X	X	



#DISTANCE SETTINGS
A = Detector Channel
A-1	A-2	A-3	A-4	A-5	A-6	A-7	A-8	A-9	A-10	A-11	A-12	A-13	A-14	A-15	A-16	

2.5000e+00	3.0000e+00	2.5000e+00	3.0000e+00	2.0000e+00	3.0000e+00	1.5000e+00	3.0000e+00	3.0000e+00	3.0000e+00	3.0000e+00	3.0000e+00	3.0000e+00	3.0000e+00	1.5000e+00	3.0000e+00	

B = Detector Channel
B-1	B-2	B-3	B-4	B-5	B-6	B-7	B-8	B-9	B-10	B-11	B-12	B-13	B-14	B-15	B-16	

1.0000e+01	1.0000e+01	1.0000e+01	1.4400e+00	1.0000e+01	1.0000e+01	1.5100e+00	1.9400e+00	1.0000e+01	1.0000e+01	1.9900e+00	2.4900e+00	2.4100e+00	2.9000e+00	1.0000e+01	2.9800e+00	




#DATA BEGINS
time	group	step	mark	flag	A-AC1	A-AC2	A-AC3	A-AC4	A-AC5	A-AC6	A-AC7	A-AC8	A-AC9	A-AC10	A-AC11	A-AC12	A-AC13	A-AC14	A-AC15	A-AC16	A-DC1	A-DC2	A-DC3	A-DC4	A-DC5	A-DC6	A-DC7	A-DC8	A-DC9	A-DC10	A-DC11	A-DC12	A-DC13	A-DC14	A-DC15	A-DC16	A-Ph1	A-Ph2	A-Ph3	A-Ph4	A-Ph5	A-Ph6	A-Ph7	A-Ph8	A-Ph9	A-Ph10	A-Ph11	A-Ph12	A-Ph13	A-Ph14	A-Ph15	A-Ph16	B-AC1	B-AC2	B-AC3	B-AC4	B-AC5	B-AC6	B-AC7	B-AC8	B-AC9	B-AC10	B-AC11	B-AC12	B-AC13	B-AC14	B-AC15	B-AC16	B-DC1	B-DC2	B-DC3	B-DC4	B-DC5	B-DC6	B-DC7	B-DC8	B-DC9	B-DC10	B-DC11	B-DC12	B-DC13	B-DC14	B-DC15	B-DC16	B-Ph1	B-Ph2	B-Ph3	B-Ph4	B-Ph5	B-Ph6	B-Ph7	B-Ph8	B-Ph9	B-Ph10	B-Ph11	B-Ph12	B-Ph13	B-Ph14	B-Ph15	B-Ph16	aux-1	digaux	

1071.841	1	1	0	768	0.025602	0.2218	0.32548	0.083484	0.21616	0.14398	0.33701	0.24817	0.038112	0.20867	0.14267	0.20154	0.19798	0.087231	0.13971	0.18111	-0.97083	-1.7646	-0.69375	-1.7083	-1.3917	-1.1437	-1.8042	-0.85417	-1.3729	-1.775	-0.94167	-1.4604	-1.2812	-1.0688	-1.6708	-1.0396	284.857	135.426	30.783	345.987	144.728	109.131	334.190	79.285	273.453	188.825	36.318	323.203	33.347	111.583	132.837	369.984	0.00037024	0.00024367	4.105e-05	932.57	3.0881e-06	2.6978e-06	1013.8	197.04	2.9124e-06	1.7045e-06	243.15	69.783	54.862	15.44	1.6506e-06	21.791	4.678e-05	2.7076e-05	7.8957e-06	919.72	3.5807e-07	2.9714e-07	998.8	195.71	3.3257e-07	2.9184e-07	200.03	69.942	54.671	15.737	3.019e-07	22.105	73.273	115.467	107.631	32.331	171.680	170.644	32.265	40.024	186.961	184.489	38.654	46.204	46.036	53.958	146.283	53.408	-8191	255	
1071.937	1	1	0	0	0.065128	0.15597	0.21996	0.31071	0.15281	0.33595	0.2492	0.13228	0.2406	0.14748	0.14176	0.1686	0.095305	0.17307	0.25889	0.12855	-0.83333	-1.5917	-0.70833	-1.6688	-1.3896	-0.92917	-1.7292	-1.1271	-1.1771	-1.5417	-0.8375	-1.7167	-1.5812	-0.68542	-1.7708	-1.2292	190.653	330.839	234.072	336.528	88.145	106.275	24.191	152.603	170.634	170.221	37.042	277.914	112.663	113.313	322.453	301.590	0.00038515	0.00028514	3.9046e-05	927.45	3.1684e-06	1.8111e-06	1005.4	196.64	2.7266e-06	2.5492e-06	252.12	70.201	54.935	15.708	1.6216e-06	21.777	4.6226e-05	2.8257e-05	7.8023e-06	919.11	3.4301e-07	3.084e-07	993.85	195.68	3.4355e-07	2.8131e-07	201.15	69.777	54.468	15.805	2.9825e-07	22.115	74.144	114.063	143.726	32.219	114.997	172.186	31.847	39.318	157.052	196.723	39.267	45.820	46.777	53.159	139.168	52.341	-8191	255	
1072.033	1	1	0	0	0.13339	0.074193	0.089851	0.14968	0.12475	0.20656	0.15176	0.20519	0.036597	0.12913	0.15545	0.25835	0.23467	0.37569	0.20595	0.020741	-0.64792	-1.6917	-0.65833	-1.6063	-1.4979	-0.74792	-1.8188	-1.2333	-0.92083	-1.7458	-0.85	-1.5833	-1.6458	-0.775	-1.8312	-1.3896	94.635	128.673	245.856	262.922	121.615	121.680	315.366	296.039	111.819	292.208	339.303	355.304	173.119	177.241	245.648	361.572	0.0003512	0.00027431	6.5014e-05	924.74	2.075e-06	4.5506e-07	1000.9	194.79	1.5711e-06	3.4357e-06	243.74	69.759	54.91	15.692	2.0931e-06	22.187	4.5992e-05	2.6929e-05	8.3948e-06	917.32	3.6293e-07	3.2965e-07	994.6	194.74	3.4287e-07	2.7676e-07	200.41	69.583	54.681	15.766	3.1892e-07	22.201	71.872	124.597	119.237	32.045	138.563	158.257	31.676	39.519	134.289	183.120	38.767	45.974	46.607	53.438	155.566	52.635	-8191	255	
1072.129	1	1	0	0	0.13123	0.21803	0.18208	0.24339	0.26421	0.14783	0.24057	0.12352	0.14187	0.14755	0.14816	0.20181	0.07426	0.082226	0.039825	0.062178	-0.59583	-1.5688	-0.90833	-1.4312	-1.5646	-0.75625	-1.8375	-1.5063	-0.75208	-1.8312	-1.0458	-1.1042	-1.5167	-0.80625	-1.7771	-1.3333	287.401	141.690	308.395	259.233	126.662	97.766	351.682	90.528	127.123	96.123	233.907	117.607	347.615	324.517	156.064	133.953	0.00039123	0.00022836	3.8355e-05	919.54	3.1367e-06	1.3652e-06	1002.4	197.55	2.9888e-06	2.6585e-06	244.61	70.213	55.485	15.732	1.9132e-06	22.088	4.7211e-05	2.6492e-05	7.2937e-06	914.73	3.3181e-07	3.0302e-07	993.01	195.53	3.5089e-07	2.8056e-07	199.85	70.025	54.721	15.764	2.9726e-07	22.184	69.934	139.979	118.391	31.552	124.895	180.408	31.545	39.001	134.667	217.005	39.098	45.857	46.421	53.668	147.251	52.441	-8191	255	
1072.225	1	1	0	0	0.31479	0.084318	0.20562	0.10501	0.21337	0.27372	0.16355	0.36356	0.17429	0.11505	0.12808	0.093157	0.13077	0.23044	0.10649	0.079987	-0.58542	-1.7479	-0.81875	-1.1958	-1.5375	-0.7	-1.4125	-1.5708	-0.73333	-1.6958	-1.225	-1.0375	-1.6604	-0.79167	-1.3937	-1.4875	71.425	97.736	107.069	373.676	227.906	152.543	346.097	215.371	105.552	234.491	123.870	287.499	124.102	273.724	362.849	142.334	0.0003893	0.00025483	2.8941e-05	930.24	1.6927e-06	7.09e-07	1008.7	195.91	3.0369e-06	1.659e-06	247.05	70.667	55.7	15.837	2.3589e-06	22.194	4.7397e-05	2.4953e-05	7.4743e-06	915.92	3.2862e-07	3.1208e-07	994.1	195.06	3.4971e-07	2.858e-07	200.22	69.958	54.764	15.766	2.9398e-07	22.188	65.355	104.355	56.951	31.869	148.674	114.215	31.838	39.175	178.819	174.678	38.362	45.955	46.322	53.618	165.649	52.808	-8191	255	
1072.322	1	1	0	0	0.1204	0.29621	0.1902	0.050521	0.039133	0.36395	0.14551	0.2593	0.41672	0.26716	0.086609	0.070773	0.1021	0.15064	0.16329	0.13272	-0.44167	-1.7896	-1.0125	-1.1313	-1.8125	-0.84583	-1.6875	-1.7563	-0.75625	-1.8667	-1.0979	-0.84167	-1.8375	-0.80417	-0.8625	-1.5833	164.688	51.714	34.523	319.917	171.882	365.750	363.567	52.960	362.641	255.353	187.717	124.099	196.249	88.123	138.061	263.311	0.00040147	0.00021928	8.0353e-05	934.26	2.75e-06	2.4344e-06	1011.3	198.46	3.7802e-06	1.8342e-06	246.4	70.246	55.429	15.733	1.6562e-06	22.212	4.7924e-05	2.6418e-05	7.864e-06	916.39	3.3673e-07	3.1471e-07	993.59	195.42	3.4663e-07	2.7345e-07	199.55	69.933	54.614	15.754	3.097e-07	22.17	67.010	141.844	122.927	32.021	155.853	159.532	32.005	39.604	147.970	179.807	38.737	45.410	46.402	53.570	154.029	52.862	-8191	255	
1072.442	1	1	0	0	0.19309	0.049281	0.19148	0.18658	0.30073	0.21834	0.21131	0.32348	0.24068	0.15446	0.11506	0.10205	0.10168	0.13676	0.20087	0.15317	-0.29167	-1.7271	-1.3854	-0.94375	-1.7146	-1.075	-1.2375	-1.7042	-0.90625	-1.4979	-1.5667	-1.0146	-1.8146	-1.0833	-0.95417	-1.7875	56.254	267.135	265.228	274.764	87.820	350.586	315.692	233.770	335.718	346.122	289.759	211.058	43.954	47.114	304.012	214.103	0.00041394	0.00029855	5.4297e-05	928.73	2.1278e-06	1.6593e-06	1010	196.85	4.6052e-06	1.9099e-06	252.19	70.267	55.417	15.755	3.146e-06	22.257	4.5338e-05	2.5073e-05	7.2034e-06	914.85	3.269e-07	3.0471e-07	992.96	195.1	3.5119e-07	3.0157e-07	200.93	69.894	54.575	15.764	3.2796e-07	22.196	71.333	91.201	117.356	32.092	137.699	142.278	32.060	39.323	172.334	201.807	40.102	46.030	46.909	53.468	173.418	52.861	-8191	255	
1072.537	1	1	0	0	0.12869	0.098734	0.31283	0.33222	0.23997	0.30468	0.23085	0.2587	0.22969	0.15809	0.13849	0.37756	0.052775	0.17238	0.21296	0.35818	-0.65833	-1.2708	-1.3917	-1.0292	-1.6625	-1.2646	-1.1271	-1.7292	-0.83125	-1.2979	-1.5875	-0.65833	-1.7938	-1.275	-0.93958	-1.7604	152.464	241.900	132.498	337.753	339.750	218.708	326.901	102.069	290.187	66.814	44.243	243.119	257.451	332.024	189.930	320.349	0.00035819	0.00015349	4.2702e-05	937.32	2.024e-06	1.1499e-06	1010.9	197.25	2.9524e-06	2.0905e-06	248.64	70.112	55.932	15.795	1.9532e-06	22.084	4.8605e-05	2.6912e-05	7.4094e-06	915.71	3.2105e-07	2.942e-07	994.34	195.08	3.6821e-07	2.9003e-07	200.4	69.701	54.61	15.771	3.4065e-07	22.232	63.927	75.922	110.092	32.014	163.262	177.065	31.916	39.489	168.260	182.264	38.596	45.997	46.380	53.789	157.124	53.117	-8191	255	
1072.633	1	1	0	0	0.19283	0.089813	0.27771	0.20772	0.099746	0.14285	0.28031	0.36481	0.25616	0.22737	0.094434	0.20047	0.11828	0.031185	0.31399	0.19378	-0.45417	-1.25	-1.5083	-0.88542	-1.5104	-1.2792	-1.2458	-1.8937	-1.1104	-1.5729	-1.5896	-0.8375	-1.6979	-1.3792	-0.70208	-1.8771	166.023	334.511	120.123	334.478	84.239	250.399	297.584	313.070	65.270	329.554	256.979	80.710	71.319	301.615	322.283	348.825	0.00037386	0.00016901	5.3179e-05	929.12	2.5492e-06	2.4216e-06	1011.9	198.16	2.3109e-06	2.478e-06	253.88	70.048	55.32	15.492	2.1682e-06	21.918	4.6439e-05	2.7457e-05	7.262e-06	914.81	3.4184e-07	2.8183e-07	993.32	195.57	3.5317e-07	2.7613e-07	202.72	69.685	54.505	15.702	3.3415e-07	22.101	70.851	113.869	148.697	31.776	155.297	203.531	32.106	39.598	151.904	191.306	38.522	45.909	46.236	53.804	152.051	52.506	-8191	255	
1072.729	1	1	0	0	0.25266	0.2284	0.089685	0.22175	0.16219	0.058745	0.37416	0.29135	0.06515	0.15092	0.19659	0.23325	0.10492	0.10429	0.21437	0.15311	-0.67917	-1.2313	-1.7083	-0.91667	-1.5187	-1.5063	-0.81875	-1.9375	-1.1875	-0.97083	-1.7167	-1.0646	-1.4104	-1.5375	-0.84167	-1.6854	136.565	375.444	22.842	303.622	208.121	91.741	325.206	275.930	378.965	264.697	182.023	108.145	294.634	314.022	221.454	271.016	0.000395	0.00030071	7.8142e-05	915.17	2.8483e-06	1.9253e-06	1004.8	197.53	3.0825e-06	2.6244e-06	250.71	69.781	54.516	15.727	1.6927e-06	22.277	4.4508e-05	2.8649e-05	6.7408e-06	911.15	3.5893e-07	2.7833e-07	990.23	195.16	3.3744e-07	3.03e-07	200.03	69.472	54.267	15.749	3.3056e-07	22.203	77.833	121.814	128.587	31.868	152.409	188.713	31.815	39.535	167.646	178.791	40.150	45.986	46.528	53.730	184.199	53.158	-8191	255	
1072.825	1	1	0	0	0.052974	0.2013	0.27081	0.1911	0.16597	0.027237	0.078675	0.18728	0.29914	0.15599	0.030029	0.19379	0.032382	0.19525	0.071469	0.13856	-0.79167	-1.1	-1.8104	-1.1708	-1.2208	-1.4521	-0.91458	-1.4208	-1.3083	-0.78333	-1.8062	-0.96875	-1.4375	-1.5354	-0.70625	-1.7333	302.815	143.795	241.767	323.978	228.214	149.322	145.270	364.441	32.912	82.291	284.462	327.101	261.296	349.962	183.808	315.058	0.00035527	0.00016705	7.6172e-05	922.8	2.5419e-06	1.721e-06	1001.3	197.56	2.2952e-06	1.3541e-06	242.84	69.374	55.126	15.606	1.9322e-06	22.307	4.5615e-05	2.7655e-05	7.0402e-06	911.62	3.6551e-07	2.8845e-07	988.71	195.49	3.441e-07	3.1697e-07	198.94	69.427	54.49	15.709	3.3254e-07	22.139	73.711	107.142	125.738	31.956	176.011	159.928	31.687	39.495	196.775	149.571	40.309	45.506	46.496	54.169	149.225	52.563	-8191	255	
1072.921	1	1	0	0	0.19989	0.20522	0.1714	0.19564	0.096699	0.17321	0.27436	0.38956	0.068877	0.083694	0.31375	0.32047	0.1716	0.098467	0.31436	0.079286	-0.7875	-0.94167	-1.8167	-1.1625	-1.1562	-1.775	-0.83958	-1.5521	-1.4937	-0.87083	-1.5896	-1.2563	-1.2938	-1.5979	-0.97292	-1.5104	91.703	36.677	237.939	327.312	46.746	291.825	270.256	66.559	223.242	39.482	61.008	329.728	49.811	266.481	64.955	115.656	0.00042114	0.00015893	7.2478e-05	923.87	2.3913e-06	2.4971e-06	998.49	195.77	2.513e-06	2.1274e-06	246.48	70.018	55.272	15.591	9.1324e-07	21.911	4.5945e-05	2.7962e-05	7.7468e-06	911.39	3.5401e-07	2.8345e-07	986.17	194.68	3.211e-07	2.8748e-07	201.49	69.533	54.393	15.663	3.1614e-07	22.056	70.918	108.335	113.999	31.798	146.191	142.771	31.722	39.418	177.973	201.724	37.645	45.880	46.307	53.647	153.722	52.432	-8191	255	
1073.017	1	1	0	0	0.39132	0.26203	0.29091	0.27894	0.16635	0.12097	0.19553	0.27804	0.19435	0.14671	0.22677	0.16979	0.052946	0.22753	0.12672	0.09717	-1.1875	-0.57917	-1.7687	-1.2521	-0.9625	-1.8438	-0.90833	-1.3167	-1.5125	-0.75417	-1.5708	-1.2042	-0.95417	-1.7542	-0.63958	-1.3521	273.605	325.200	76.807	359.908	226.081	142.462	349.814	301.319	179.539	283.889	64.892	164.170	379.856	25.618	243.193	51.008	0.00038357	0.00016152	3.9776e-05	918.71	2.3727e-06	2.0086e-06	997.95	198.08	3.0549e-06	1.5348e-06	247.95	69.966	55.125	15.791	2.1171e-06	22.026	4.2981e-05	2.9137e-05	7.1115e-06	907.12	3.7105e-07	2.9233e-07	988.06	194.97	3.3547e-07	3.088e-07	200.79	69.529	54.457	15.775	3.3254e-07	22.122	79.752	118.870	123.318	31.700	158.388	199.063	31.554	39.183	129.903	145.383	38.765	45.888	46.462	53.593	156.543	52.785	-8191	255	
1073.138	1	1	0	0	0.25713	0.029687	0.18227	0.36668	0.27279	0.16212	0.16822	0.21256	0.118	0.018539	0.27758	0.16549	0.32081	0.28092	0.29471	0.18347	-1.1688	-0.90625	-1.6292	-1.4292	-0.87917	-1.7104	-1.2146	-1.3563	-1.7167	-0.68958	-1.6042	-1.4125	-0.72292	-1.7583	-0.95833	-1.1917	347.094	27.753	214.359	358.093	249.707	317.475	326.802	311.277	267.168	282.420	139.057	276.136	373.296	301.362	211.412	290.625	0.00043518	0.00024877	3.4205e-05	932.38	3.3284e-06	1.8307e-06	1008.1	196.92	2.6346e-06	2.3083e-06	247.37	70.321	55.216	15.718	3.1855e-06	22.045	4.62e-05	2.9108e-05	7.3302e-06	912.88	3.4024e-07	2.8508e-07	989.27	194.63	3.187e-07	2.9627e-07	199.46	69.376	54.496	15.719	3.3749e-07	22.102	73.289	100.888	105.517	31.767	134.249	163.864	31.909	39.343	154.953	200.994	37.943	45.360	46.695	53.887	156.167	53.087	-8191	255	
1073.234	1	1	0	0	0.097652	0.26557	0.29432	0.21366	0.21602	0.031777	0.26923	0.35073	0.059965	0.063155	0.16462	0.28995	0.22237	0.063757	0.35173	0.085013	-1.2833	-0.85	-1.525	-1.475	-0.85208	-1.7292	-1.0187	-1.0646	-1.8	-1.0063	-1.5438	-1.5	-0.81667	-1.7771	-1.0646	-1.1271	326.762	45.611	263.548	299.098	250.569	126.596	350.405	287.520	41.591	201.090	253.098	362.522	363.273	38.457	197.169	370.526	0.00036739	0.00015118	0.00010258	937.61	3.7938e-06	1.7781e-06	1000.8	196.71	9.3756e-07	1.9498e-06	249.4	70.196	55.177	15.606	2.2741e-06	21.815	4.446e-05	2.8972e-05	7.4854e-06	914.39	3.6717e-07	2.7532e-07	986.9	194.84	3.4244e-07	3.0918e-07	200.56	69.69	54.324	15.69	3.5773e-07	21.988	74.897	128.014	88.226	31.797	151.526	174.909	31.624	39.194	121.043	187.530	38.754	46.064	45.763	53.097	141.328	52.671	-8191	255	
1073.330	1	1	0	0	0.075508	0.20503	0.21619	0.12053	0.096752	0.23301	0.19954	0.088842	0.21752	0.11039	0.08789	0.21528	0.31006	0.1768	0.33587	0.20651	-1.2875	-0.76667	-1.3896	-1.5562	-0.84583	-1.7604	-1.2833	-1.0771	-1.9438	-0.87083	-1.3292	-1.6187	-0.71875	-1.5729	-1.1125	-1.0354	165.671	331.008	30.485	280.037	349.254	106.237	345.207	190.055	144.259	159.899	68.179	198.343	334.706	233.087	266.574	212.307	0.00037077	9.5971e-05	7.6185e-05	919.62	1.9511e-06	1.851e-06	1003.5	195.83	2.3251e-06	2.7262e-06	243.22	69.838	55.168	15.559	1.9611e-06	21.894	4.4551e-05	2.8887e-05	7.7341e-06	909.65	3.7271e-07	2.7783e-07	988.43	194.23	3.4096e-07	2.9671e-07	199.18	69.482	54.213	15.653	2.9887e-07	21.942	69.412	112.699	120.444	31.677	162.859	171.222	31.756	39.418	150.873	214.582	38.966	45.684	46.303	53.288	149.816	52.816	-8191	255	
1073.402	1	1	0	0	0.12245	0.1783	0.084938	0.13206	0.15159	0.13217	0.18315	0.11893	0.38963	0.17508	0.28143	0.21458	0.24841	0.2924	0.16763	0.19955	-1.2313	-0.95	-1.2583	-1.8521	-0.88542	-1.6292	-1.5646	-1.1187	-1.8646	-1.1042	-1.0708	-1.7021	-0.9	-1.5479	-1.2646	-0.87083	69.707	261.125	355.469	149.163	196.587	118.903	94.390	298.528	97.448	120.196	310.751	234.410	297.781	329.657	52.061	58.809	0.00036004	0.00032804	5.6389e-05	927.3	2.4925e-06	2.428e-06	1003.2	196.13	2.835e-06	1.6391e-06	245.28	69.44	54.942	15.362	2.2194e-06	21.706	4.4801e-05	2.9387e-05	7.7262e-06	911.43	3.756e-07	2.9358e-07	985.8	194.11	3.2295e-07	3.0225e-07	198.62	69.399	54.2	15.592	3.1348e-07	21.937	67.770	130.250	120.294	31.592	139.688	182.982	31.388	39.423	157.567	145.394	37.394	45.294	46.233	53.290	124.825	52.720	-8191	255	
1073.521	1	1	0	0	0.18218	0.19405	0.062361	0.23177	0.14945	0.11185	0.15932	0.062482	0.15214	0.1552	0.11695	0.12524	0.10547	0.16156	0.13782	0.14625	-1.4729	-1.0604	-0.95625	-2.0354	-0.80833	-1.4125	-1.8208	-0.8875	-1.6521	-1.1333	-1.175	-1.8125	-1.0875	-1.4292	-1.5312	-0.87083	244.682	73.068	176.359	359.164	88.056	335.016	58.900	178.087	32.610	252.782	109.888	372.957	340.659	69.245	21.290	286.423	0.00037991	0.00019411	4.3173e-05	921.31	3.2282e-06	2.6452e-07	997.88	195.9	1.9402e-06	2.6697e-06	243.64	69.362	54.012	15.537	1.3411e-06	21.92	4.4359e-05	2.6077e-05	7.8165e-06	910.08	3.5174e-07	2.887e-07	985.95	194.5	3.335e-07	2.9789e-07	199.2	69.194	53.989	15.597	2.9906e-07	22.036	73.927	115.869	90.302	31.820	134.389	173.813	31.946	39.026	167.939	200.017	38.380	46.052	45.953	53.255	175.301	52.976	-8191	255	
