BOXY.EXE: ISS Imagent and Oximeter Data Acquisition Program Version 0.80
Ascii Record File

#ACQ INFORMATION
2  Detector Channels 
16  External MUX Channels 
1  Auxiliary Channels 
5000  Waveform (CCF) Frequency (Hz)
1  Waveforms Skipped 
30  Waveforms Averaged 
1  Cycles Averaged 
16  Acquisitions per Waveform 
10.0806  Updata Rate (Hz) 

#FILE INFORMATION
TRUE -- External MUX Channel results are PARSED.
FALSE -- AC DC and Phase are NOT grouped.
TRUE -- Companion Program Settings File CREATED.
FALSE -- AC data not excluded
FALSE -- DC data not excluded
FALSE -- Phase data not excluded
FALSE -- Auxillary Chn. data not excluded
Tab delimiters

#CALIBRATION STATE
TRUE -- Waveform Calibration Values APPLIED.


#AUX CALIBRATION VALUES
Val Type	aux-1	

Term	1.0000e+00	
Factor	0.0000e+00	


#WF CALIBRATION VALUES
A = Detector Channel
Val Type	A-AC1	A-AC2	A-AC3	A-AC4	A-AC5	A-AC6	A-AC7	A-AC8	A-AC9	A-AC10	A-AC11	A-AC12	A-AC13	A-AC14	A-AC15	A-AC16	A-DC1	A-DC2	A-DC3	A-DC4	A-DC5	A-DC6	A-DC7	A-DC8	A-DC9	A-DC10	A-DC11	A-DC12	A-DC13	A-DC14	A-DC15	A-DC16	A-Ph1	A-Ph2	A-Ph3	A-Ph4	A-Ph5	A-Ph6	A-Ph7	A-Ph8	A-Ph9	A-Ph10	A-Ph11	A-Ph12	A-Ph13	A-Ph14	A-Ph15	A-Ph16	

Term	0.00000e+00	0.00000e+00	0.00000e+00	0.00000e+00	0.00000e+00	0.00000e+00	0.00000e+00	0.00000e+00	0.00000e+00	0.00000e+00	0.00000e+00	0.00000e+00	0.00000e+00	0.00000e+00	0.00000e+00	0.00000e+00	0.00000e+00	0.00000e+00	0.00000e+00	0.00000e+00	0.00000e+00	0.00000e+00	0.00000e+00	0.00000e+00	0.00000e+00	0.00000e+00	0.00000e+00	0.00000e+00	0.00000e+00	0.00000e+00	0.00000e+00	0.00000e+00	0.00000e+00	0.00000e+00	0.00000e+00	0.00000e+00	0.00000e+00	0.00000e+00	0.00000e+00	0.00000e+00	0.00000e+00	0.00000e+00	0.00000e+00	0.00000e+00	0.00000e+00	0.00000e+00	0.00000e+00	0.00000e+00	
Factor	1.00000e+00	1.00000e+00	1.00000e+00	1.00000e+00	1.00000e+00	1.00000e+00	1.00000e+00	1.00000e+00	1.00000e+00	1.00000e+00	1.00000e+00	1.00000e+00	1.00000e+00	1.00000e+00	1.00000e+00	1.00000e+00	1.00000e+00	1.00000e+00	1.00000e+00	1.00000e+00	1.00000e+00	1.00000e+00	1.00000e+00	1.00000e+00	1.00000e+00	1.00000e+00	1.00000e+00	1.00000e+00	1.00000e+00	1.00000e+00	1.00000e+00	1.00000e+00	X	X	X	X	X	X	X	X	X	X	X	X	X	X	X	X	

B = Detector Channel
Val Type	B-AC1	B-AC2	B-AC3	B-AC4	B-AC5	B-AC6	B-AC7	B-AC8	B-AC9	B-AC10	B-AC11	B-AC12	B-AC13	B-AC14	B-AC15	B-AC16	B-DC1	B-DC2	B-DC3	B-DC4	B-DC5	B-DC6	B-DC7	B-DC8	B-DC9	B-DC10	B-DC11	B-DC12	B-DC13	B-DC14	B-DC15	B-DC16	B-Ph1	B-Ph2	B-Ph3	B-Ph4	B-Ph5	B-Ph6	B-Ph7	B-Ph8	B-Ph9	B-Ph10	B-Ph11	B-Ph12	B-Ph13	B-Ph14	B-Ph15	B-Ph16	

Term	0.00000e+00	0.00000e+00	0.00000e+00	0.00000e+00	0.00000e+00	0.00000e+00	0.00000e+00	0.00000e+00	0.00000e+00	0.00000e+00	0.00000e+00	0.00000e+00	0.00000e+00	0.00000e+00	0.00000e+00	0.00000e+00	0.00000e+00	0.00000e+00	0.00000e+00	0.00000e+00	0.00000e+00	0.00000e+00	0.00000e+00	0.00000e+00	0.00000e+00	0.00000e+00	0.00000e+00	0.00000e+00	0.00000e+00	0.00000e+00	0.00000e+00	0.00000e+00	-8.19620e+01	-1.31387e+02	-1.23947e+02	-1.82180e+02	-6.73124e+01	-7.06461e+01	-1.57453e+02	-1.62015e+02	-5.26248e+01	-5.03545e+01	-1.74207e+02	-1.70246e+02	-1.81558e+02	-1.76604e+02	-6.38946e+01	-1.49731e+02	
Factor	1.74277e-05	1.42447e-04	4.46277e-05	1.46431e-01	1.15311e-06	1.52853e-06	1.67333e-01	5.49476e-02	1.18619e-06	1.77604e-06	9.88515e-02	2.93754e-02	2.77491e-02	9.55186e-03	1.29905e-06	1.36949e-02	3.85813e-06	4.49126e-06	1.24776e-06	7.72237e-02	4.81768e-08	4.92794e-08	8.25847e-02	2.90232e-02	4.80511e-08	4.91379e-08	5.01668e-02	1.50227e-02	1.47801e-02	5.06767e-03	4.82509e-08	7.00746e-03	X	X	X	X	X	X	X	X	X	X	X	X	X	X	X	X	



#DISTANCE SETTINGS
A = Detector Channel
A-1	A-2	A-3	A-4	A-5	A-6	A-7	A-8	A-9	A-10	A-11	A-12	A-13	A-14	A-15	A-16	

2.5000e+00	3.0000e+00	2.5000e+00	3.0000e+00	2.0000e+00	3.0000e+00	1.5000e+00	3.0000e+00	3.0000e+00	3.0000e+00	3.0000e+00	3.0000e+00	3.0000e+00	3.0000e+00	1.5000e+00	3.0000e+00	

B = Detector Channel
B-1	B-2	B-3	B-4	B-5	B-6	B-7	B-8	B-9	B-10	B-11	B-12	B-13	B-14	B-15	B-16	

1.0000e+01	1.0000e+01	1.0000e+01	1.4400e+00	1.0000e+01	1.0000e+01	1.5100e+00	1.9400e+00	1.0000e+01	1.0000e+01	1.9900e+00	2.4900e+00	2.4100e+00	2.9000e+00	1.0000e+01	2.9800e+00	




#DATA BEGINS
time	group	step	mark	flag	A-AC1	A-AC2	A-AC3	A-AC4	A-AC5	A-AC6	A-AC7	A-AC8	A-AC9	A-AC10	A-AC11	A-AC12	A-AC13	A-AC14	A-AC15	A-AC16	A-DC1	A-DC2	A-DC3	A-DC4	A-DC5	A-DC6	A-DC7	A-DC8	A-DC9	A-DC10	A-DC11	A-DC12	A-DC13	A-DC14	A-DC15	A-DC16	A-Ph1	A-Ph2	A-Ph3	A-Ph4	A-Ph5	A-Ph6	A-Ph7	A-Ph8	A-Ph9	A-Ph10	A-Ph11	A-Ph12	A-Ph13	A-Ph14	A-Ph15	A-Ph16	B-AC1	B-AC2	B-AC3	B-AC4	B-AC5	B-AC6	B-AC7	B-AC8	B-AC9	B-AC10	B-AC11	B-AC12	B-AC13	B-AC14	B-AC15	B-AC16	B-DC1	B-DC2	B-DC3	B-DC4	B-DC5	B-DC6	B-DC7	B-DC8	B-DC9	B-DC10	B-DC11	B-DC12	B-DC13	B-DC14	B-DC15	B-DC16	B-Ph1	B-Ph2	B-Ph3	B-Ph4	B-Ph5	B-Ph6	B-Ph7	B-Ph8	B-Ph9	B-Ph10	B-Ph11	B-Ph12	B-Ph13	B-Ph14	B-Ph15	B-Ph16	aux-1	digaux	

1970.957	1	1	0	768	0.12705	0.069542	0.1446	0.15451	0.094675	0.055858	0.27901	0.14554	0.14455	0.079202	0.082565	0.16122	0.23217	0.075802	0.021269	0.07211	-0.95208	-1.9625	-2.1667	-1.5542	-2.15	-1.4813	-1.7938	-2.2479	-1.3146	-1.9271	-2.3396	-1.3042	-2.2292	-1.825	-1.5229	-2.4313	107.651	178.444	242.370	272.471	94.211	103.969	335.685	348.462	48.543	62.174	150.881	228.035	352.640	272.333	198.939	223.487	0.00025263	0.00097846	0.00042897	811.72	1.1977e-05	4.1735e-05	965.48	262.5	2.3141e-05	2.9936e-05	357.51	124.72	82.719	32.338	5.2766e-06	54.61	0.020329	0.023548	0.006572	1179.6	0.00025192	0.00025832	1351.9	399.62	0.00024907	0.00025298	597.5	195.67	153.44	56.52	0.00024237	86.812	140.554	205.619	70.917	5.644	175.556	94.166	5.705	10.642	148.918	257.384	9.261	14.426	16.090	20.234	155.109	17.852	-8191	255	
1971.054	1	1	0	0	0.013819	0.32882	0.1551	0.12765	0.19706	0.20328	0.085933	0.15124	0.2436	0.20589	0.18295	0.22404	0.097609	0.16157	0.0852	0.14103	-1.0021	-1.6833	-2.1354	-1.4542	-2.1667	-1.8771	-1.7271	-2.3688	-1.7125	-1.7167	-2.2875	-1.5063	-2.2083	-2.0479	-1.4667	-2.2438	113.085	307.344	32.024	330.023	220.263	119.594	39.163	280.405	200.070	241.481	-4.914	313.426	72.256	257.674	99.616	280.282	0.00029681	0.0023084	0.0003919	802.25	6.8621e-06	2.9136e-05	958.96	258.03	1.1362e-05	3.3059e-05	354.04	123.32	82.359	31.969	3.6425e-05	54.1	0.019271	0.022228	0.0062012	1146	0.00023598	0.0002406	1310.6	386.22	0.00023017	0.00023582	578.37	190.18	148.71	55.014	0.00023361	85.52	235.338	184.671	19.783	5.339	102.549	128.201	5.642	10.820	97.577	337.323	9.719	14.897	15.696	19.553	-6.052	18.428	-8191	255	
1971.150	1	1	0	0	0.20431	0.10836	0.058861	0.068445	0.099686	0.14344	0.40046	0.35754	0.0091039	0.084749	0.20956	0.25624	0.12458	0.055462	0.18208	0.050724	-1.2938	-1.6917	-2.3667	-1.4771	-2.1917	-2.0958	-1.5875	-2.2292	-1.6083	-1.4125	-2.3604	-1.6667	-2.0604	-2.1875	-1.2583	-2.4938	188.943	216.350	321.129	311.343	316.222	124.856	18.064	278.674	221.111	263.712	303.810	274.205	352.688	130.473	114.393	146.914	0.00027026	0.0026267	0.00057216	807.45	1.093e-05	4.7584e-05	960.35	260.01	3.4494e-05	1.8538e-05	357.03	124.5	81.804	32.427	1.5817e-05	55.294	0.018648	0.021746	0.0060412	1138.1	0.00023102	0.00023786	1311.6	385.02	0.00022734	0.00023171	573.91	189.07	147.32	54.821	0.00022614	84.884	208.685	143.235	255.943	5.915	233.632	322.255	5.660	11.120	139.839	13.267	9.369	14.623	15.339	19.896	-3.496	17.968	-8191	255	
1971.246	1	1	0	0	0.077608	0.34206	0.17526	0.13966	0.010882	0.21559	0.039094	0.30398	0.21727	0.12186	0.11817	0.22606	0.10937	0.045395	0.13783	0.17014	-1.3646	-1.7083	-2.15	-1.3813	-1.9042	-1.95	-1.5438	-2.3396	-1.6792	-1.5896	-2.3667	-1.275	-1.8625	-2.1083	-1.2292	-2.3208	213.376	9.197	118.444	115.568	229.505	344.779	-1.146	306.574	101.707	285.268	30.031	302.644	251.889	335.733	152.500	194.866	0.00016499	0.0028764	0.00077825	807.26	1.3462e-05	1.2369e-05	963.12	262.33	3.1841e-05	2.7446e-05	362.94	126.86	82.874	33.375	2.2593e-05	56.375	0.018061	0.020973	0.0058116	1128.9	0.00022112	0.0002281	1295.6	380.77	0.00021915	0.00022319	570.6	189.29	146.22	54.71	0.00021809	85.257	95.088	37.606	114.127	5.745	96.672	145.386	5.497	10.688	87.436	204.633	9.457	14.743	15.300	19.848	335.580	17.929	-8191	255	
1971.342	1	1	0	0	0.083841	0.10184	0.31023	0.32426	0.15743	0.19646	0.2011	0.10803	0.15729	0.30497	0.20759	0.19719	0.27322	0.088151	0.073877	0.17326	-1.5	-1.3979	-2.2708	-1.5792	-1.7083	-2.0125	-1.3896	-2.1854	-1.9417	-1.4042	-2.4437	-1.5688	-1.6583	-2.2021	-1.3917	-2.125	296.453	117.654	331.406	347.643	194.872	287.482	280.852	97.859	329.966	255.360	59.083	236.541	105.357	333.405	114.582	315.545	7.9644e-05	0.0014443	0.0010036	815.59	2.5575e-05	3.1927e-05	961.81	262.32	3.2716e-05	2.7601e-05	361.53	127.95	83.611	33.617	2.0468e-05	57.399	0.017401	0.020108	0.0055534	1112.4	0.00021095	0.00021635	1275.6	375.17	0.00020796	0.00021262	559.45	186.74	143.53	53.728	0.00020503	83.742	86.570	91.020	169.296	5.443	13.590	231.410	5.676	10.840	123.259	1.530	9.643	14.617	15.872	19.454	106.237	18.169	-8191	255	
1971.438	1	1	0	0	0.0782	0.12025	0.10654	0.27933	0.090164	0.14043	0.15645	0.29513	0.088838	0.13925	0.047581	0.33302	0.26711	0.23977	0.039774	0.15305	-1.5896	-1.3417	-2.0771	-1.7062	-1.5958	-2.3417	-1.4062	-1.9271	-1.9688	-1.4625	-2.1396	-1.7083	-1.8021	-2.3083	-1.3	-1.9417	171.968	88.432	263.872	348.624	82.543	67.134	66.796	264.466	290.730	109.143	53.890	293.192	306.326	332.136	134.339	1.371	0.00047627	0.00095597	0.00046638	797.22	2.28e-05	1.6254e-05	956.65	259.09	2.038e-05	1.3832e-05	356.15	125.56	81.951	33.38	1.2045e-05	56.223	0.016385	0.018975	0.0052318	1077.4	0.00019994	0.00020493	1247.1	365.91	0.00019781	0.00020161	542.58	181.06	139.06	52.134	0.00019617	81.578	195.582	250.544	32.150	5.678	179.096	125.690	5.493	10.902	212.953	244.039	9.526	14.093	15.727	19.624	80.606	17.903	-8191	255	
1971.559	1	1	0	0	0.22297	0.062716	0.33683	0.2533	0.092624	0.28143	0.18733	0.21752	0.28434	0.060713	0.22028	0.27849	0.075317	0.32326	0.12405	0.20099	-1.7417	-1.3604	-2.1354	-1.7792	-1.5812	-2.2333	-1.5104	-1.7104	-1.9062	-1.3792	-2.1312	-1.7792	-1.3771	-2.2625	-1.2917	-2.0938	221.639	112.844	284.697	339.380	-5.806	322.452	253.115	265.237	179.894	293.381	240.111	-6.214	2.932	200.745	176.646	263.338	0.0004255	0.002183	0.00049671	800.13	3.3233e-05	1.7618e-05	948.01	259.71	1.7362e-05	2.6797e-05	356.56	125.7	81.737	32.953	1.3135e-05	55.648	0.015758	0.018178	0.0050436	1068	0.0001953	0.00019983	1235.6	364.06	0.00019413	0.00019881	538.94	179.8	136.94	51.386	0.00018897	80.322	196.335	178.053	120.532	5.517	270.122	352.834	5.491	10.869	262.956	67.534	10.426	14.352	15.759	20.041	187.510	17.721	-8191	255	
1971.653	1	1	0	0	0.25065	0.22988	0.19273	0.11701	0.2715	0.13444	0.18786	0.18831	0.26182	0.1603	0.26118	0.082068	0.27446	0.12014	0.13092	0.21118	-1.7583	-1.3583	-2.1104	-1.9188	-1.3396	-2.2458	-1.6125	-1.7333	-2.1958	-1.2979	-2.1917	-1.9979	-1.4271	-2.1562	-1.6167	-1.8646	220.150	72.570	184.639	57.854	113.467	22.179	220.758	307.619	224.067	286.451	231.218	347.507	159.141	258.362	281.582	7.305	0.00020853	0.0026566	0.00039924	800.79	1.3327e-05	3.2188e-05	957.24	257.93	1.7385e-05	3.2785e-05	358.71	126.7	82.97	33.507	9.8661e-06	56.979	0.015065	0.017306	0.0047748	1055.3	0.00018421	0.00018913	1226.6	357.71	0.00018494	0.00018857	533.84	178.88	136.06	51.391	0.00018609	80.961	224.541	316.160	173.953	5.657	163.708	335.633	5.764	11.087	339.272	32.652	9.573	14.345	15.633	19.831	178.286	18.161	-8191	255	
1971.749	1	1	0	0	0.1783	0.21227	0.081424	0.077636	0.061847	0.07272	0.18279	0.38286	0.10956	0.24497	0.3531	0.026822	0.057129	0.14695	0.031808	0.20907	-1.8062	-1.4042	-2.1417	-2.1479	-1.4188	-2.2625	-1.7854	-1.7354	-2.275	-1.4146	-2.0375	-1.8479	-1.1771	-2.3	-1.7167	-1.6437	256.839	294.224	117.777	5.367	103.462	299.958	272.468	313.799	347.006	98.807	312.108	92.096	12.664	307.096	17.249	243.587	8.1953e-05	0.0012743	0.00037545	806.45	2.1694e-05	7.2183e-06	964.62	263.38	2.5649e-05	2.208e-05	367.61	128.91	85.051	34.332	7.9896e-06	57.366	0.01495	0.017285	0.0048115	1058.6	0.00018464	0.00018823	1230.1	360.44	0.00018371	0.00018831	539.01	181.69	138	52.223	0.00018827	82.467	305.512	29.165	173.558	5.740	148.342	148.602	5.639	11.074	70.007	115.583	9.595	14.546	15.528	20.297	333.847	18.300	-8191	255	
1971.846	1	1	0	0	0.23761	0.16038	0.091057	0.057017	0.031291	0.18721	0.091398	0.048337	0.062821	0.12835	0.14177	0.15437	0.32146	0.12037	0.19039	0.067409	-1.9375	-1.2313	-1.9542	-2.2333	-1.2458	-2.2562	-1.7167	-1.4625	-2.2438	-1.4542	-2.0563	-2.2354	-1.3896	-2.3292	-1.7938	-1.6771	0.360	81.499	319.458	121.018	2.097	222.578	119.158	85.360	337.177	79.233	35.657	342.915	323.337	165.361	333.396	162.900	0.00017086	0.0023128	0.00078789	807.45	1.4866e-05	3.9278e-05	965.8	262.93	1.4204e-05	1.9303e-05	363.27	127.28	82.732	33.482	2.3455e-05	57.612	0.015274	0.017828	0.0049558	1074.1	0.00019296	0.00019795	1246.6	366.52	0.00019245	0.00019759	543.63	181.51	138.13	52.097	0.000193	82.119	161.516	66.965	85.667	5.980	195.760	186.083	5.597	11.030	135.393	299.141	9.531	14.333	15.675	19.496	9.685	18.076	-8191	255	
1971.942	1	1	0	0	0.1201	0.10418	0.15759	0.18807	0.16817	0.23836	0.2081	0.11821	0.34227	0.076917	0.22412	0.2244	0.052553	0.32865	0.12457	0.21224	-1.9417	-1.3125	-1.6917	-2.3208	-1.1792	-2.025	-2.0771	-1.4458	-2.2958	-1.4729	-1.6875	-2.4208	-1.3813	-2.0896	-1.9375	-1.4979	258.151	324.246	344.866	306.799	81.159	39.872	314.465	70.315	56.049	36.757	143.296	0.374	194.664	310.573	286.315	85.443	7.268e-05	0.0015779	0.00036737	800.54	8.2608e-06	5.5185e-06	961.37	258.46	2.485e-05	2.1564e-05	361.04	125.86	82.118	33.098	2.7614e-06	56	0.015516	0.018088	0.0050721	1077.1	0.0001973	0.0002025	1250.6	366.76	0.00019892	0.00020239	547.04	182.23	139.69	52.638	0.0002022	82.756	119.393	165.788	129.911	5.730	175.190	42.815	5.435	10.891	332.171	132.502	9.747	14.660	15.750	20.316	303.117	18.473	-8191	255	
1972.038	1	1	0	0	0.19608	0.14095	0.04718	0.16762	0.21972	0.25396	0.19643	0.23354	0.48069	0.25155	0.23411	0.078031	0.014569	0.28304	0.12002	0.088997	-2.0104	-1.7021	-1.6417	-2.3958	-1.5771	-1.9104	-2.0771	-1.4354	-2.2687	-1.6354	-1.7104	-2.2292	-1.5083	-1.9188	-1.9146	-1.3604	127.594	231.914	337.730	65.613	332.093	87.836	311.628	47.577	281.452	304.985	304.758	171.200	119.626	338.523	330.359	271.568	0.00067719	0.0024303	0.00025869	805	2.3749e-05	1.5811e-05	963.52	259.82	4.1783e-05	3.2137e-05	359.96	125.31	83.505	33.144	1.3648e-05	55.974	0.016281	0.019005	0.0052891	1093.5	0.00020465	0.00020932	1266.4	370.57	0.00020232	0.00020706	551.38	182.86	140.5	52.866	0.00020232	82.676	192.535	58.550	233.064	5.640	349.883	142.893	5.281	10.562	174.318	185.897	9.556	14.396	15.289	19.647	140.825	18.065	-8191	255	
1972.134	1	1	0	0	0.049905	0.040432	0.088727	0.23311	0.24121	0.1021	0.080809	0.23763	0.44871	0.35994	0.3059	0.1619	0.1901	0.34216	0.091277	0.074241	-1.7979	-1.8083	-1.4896	-2.3979	-1.3583	-1.9146	-2.4458	-1.5875	-1.9771	-1.7333	-1.2625	-2.3042	-1.4417	-1.7708	-2.2042	-1.5063	135.066	105.366	11.211	305.746	73.312	52.173	235.464	313.407	119.564	333.967	312.726	290.159	348.412	253.248	335.406	304.643	0.00037194	0.0031147	0.00087904	809.02	2.0492e-05	3.5975e-05	961.09	261.26	4.8422e-06	2.6157e-05	361.38	125.92	83.278	33.887	1.0587e-05	57.156	0.016183	0.018875	0.0052245	1092.8	0.00020064	0.00020471	1260.5	368.59	0.00019735	0.00020387	549.84	182.81	139.91	52.858	0.00019922	83.127	171.836	-1.826	194.508	5.432	101.062	12.798	5.604	10.753	254.544	346.265	10.100	14.533	15.616	19.917	81.039	18.527	-8191	255	
1972.255	1	1	0	0	0.10597	0.17152	0.21925	0.20075	0.060146	0.14355	0.26479	0.17597	0.30157	0.19056	0.26266	0.32131	0.20018	0.067548	0.10787	0.3112	-1.8292	-1.8687	-1.3458	-2.3292	-1.4042	-1.7354	-2.3792	-1.2479	-1.9854	-1.8667	-1.4604	-2.3667	-1.6521	-1.8	-2.3708	-1.5771	4.317	38.768	88.131	331.622	311.617	123.706	279.648	325.650	69.032	160.332	46.980	322.663	212.314	237.608	253.912	181.668	0.00043799	0.0012391	0.00061928	814.79	2.5718e-05	1.9845e-05	969.24	263.23	3.0768e-06	4.1717e-06	362.11	127.1	83.283	33.807	4.2934e-06	56.993	0.015948	0.018663	0.0052045	1092.5	0.00020033	0.00020478	1268	371.54	0.0002011	0.00020632	553.31	184.2	140.65	53.181	0.00019878	82.815	239.170	346.112	27.694	5.659	154.384	79.736	5.894	10.487	128.089	279.647	10.307	14.788	15.697	19.905	72.967	17.584	-8191	255	
1972.351	1	1	0	0	0.10634	0.20396	0.23423	0.19664	0.20402	0.32731	0.21735	0.067318	0.10913	0.35457	0.047581	0.047668	0.27977	0.24595	0.11493	0.32746	-1.5271	-2.1188	-1.1479	-2.2479	-1.5833	-1.6063	-2.3167	-1.5583	-1.8542	-2.0938	-1.4979	-2.0875	-1.8042	-1.6458	-2.1521	-1.3438	244.317	38.794	163.388	209.189	173.705	68.567	35.966	311.690	108.058	199.207	281.165	251.612	350.425	275.448	175.419	288.764	9.0272e-05	0.0023325	0.00073569	806.34	1.2388e-05	1.1594e-05	961.63	259.66	5.1236e-06	5.638e-06	357.16	125.4	82.094	33.089	8.7216e-06	55.864	0.015681	0.018211	0.0050415	1074.6	0.00019154	0.00019623	1238.6	361.13	0.00019049	0.00019425	534.74	177.33	134.91	51.204	0.00018715	80.209	82.950	345.367	29.089	5.704	176.100	133.335	5.531	10.150	137.407	59.803	9.638	14.628	15.681	20.219	264.562	18.537	-8191	255	
1972.445	1	1	0	0	0.20967	0.063524	0.07184	0.08836	0.35876	0.088388	0.10339	0.32463	0.0462	0.13696	0.098664	0.18282	0.068144	0.20905	0.16755	0.29539	-1.4688	-2.1229	-1.1583	-2.1792	-1.5958	-1.5812	-2.2687	-1.4625	-1.4833	-2.0667	-1.3208	-2.3271	-1.8479	-1.4625	-2.0958	-1.6375	181.947	135.940	225.376	308.885	214.026	82.461	6.538	12.786	7.693	271.969	230.345	53.206	217.298	15.948	338.862	24.130	0.0003433	0.00082283	0.00035741	803.13	1.4732e-05	1.5783e-05	957.43	259.04	1.3347e-05	1.9934e-05	357.51	124.25	81.516	32.737	5.1985e-06	55.09	0.015057	0.017724	0.0049419	1067.9	0.00019112	0.00019677	1239.3	361.88	0.00019319	0.00019887	541.26	180.09	138.31	52.064	0.00019836	81.391	157.170	279.604	287.947	5.398	170.198	144.076	5.647	11.033	330.798	92.131	9.867	14.320	14.826	20.154	186.152	17.745	-8191	255	
1972.519	1	1	0	0	0.25227	0.13151	0.17014	0.17783	0.042279	0.13015	0.34916	0.30072	0.26627	0.17349	0.22446	0.27129	0.28136	0.093682	0.052333	0.18843	-1.0542	-2.1833	-1.3708	-2.0479	-1.8979	-1.4208	-2.4458	-1.4604	-1.6083	-2.1667	-1.4562	-2.1417	-1.8937	-1.3229	-2.2958	-1.6729	37.198	78.338	77.224	35.975	189.453	223.591	238.853	230.831	349.340	164.626	294.052	308.173	283.402	316.175	258.461	177.615	0.00029457	0.0016321	0.00048868	807.12	1.6506e-05	4.8228e-05	961.65	259.11	9.8575e-06	3.2072e-05	357.31	125.46	81.626	33.193	1.9512e-05	56.286	0.015879	0.018687	0.005184	1084.8	0.00020002	0.00020504	1261.3	367.89	0.00020296	0.00020984	551.8	183.47	141.29	53.167	0.00020597	83.725	212.760	301.076	93.389	5.474	293.996	151.632	5.154	10.537	109.097	130.141	9.342	14.785	15.616	19.597	308.517	18.014	-8191	255	
1972.637	1	1	0	0	0.12874	0.085078	0.38932	0.035797	0.014842	0.20153	0.35772	0.086251	0.24196	0.23194	0.34875	0.18519	0.15988	0.030478	0.1673	0.033612	-1.1437	-2.2625	-1.4125	-2.1229	-1.9521	-1.2583	-2.4188	-1.5562	-1.6104	-2.2479	-1.5458	-1.9083	-2.1854	-1.3687	-2.2146	-1.8813	285.592	231.172	323.584	316.164	347.633	265.626	291.631	54.672	110.838	118.514	295.641	335.399	147.439	310.604	307.171	294.264	0.00039099	0.0020083	0.0004219	816.3	7.8589e-06	1.3653e-05	977.6	261.59	4.9113e-06	2.5278e-05	359.96	126.36	82.191	33.477	2.7957e-05	57.352	0.016602	0.019497	0.0053639	1107.6	0.00020832	0.00021304	1280	372.48	0.00020642	0.00021139	557.4	185.51	142.36	53.79	0.00020607	84.403	210.651	281.899	223.441	5.367	163.878	110.445	5.499	10.756	261.850	70.932	9.595	14.505	15.308	19.330	22.038	18.275	-8191	255	
