BOXY.EXE: ISS Imagent and Oximeter Data Acquisition Program Version 0.80
Ascii Record File

#ACQ INFORMATION
2  Detector Channels 
16  External MUX Channels 
1  Auxiliary Channels 
5000  Waveform (CCF) Frequency (Hz)
1  Waveforms Skipped 
30  Waveforms Averaged 
1  Cycles Averaged 
16  Acquisitions per Waveform 
10.0806  Updata Rate (Hz) 

#FILE INFORMATION
TRUE -- External MUX Channel results are PARSED.
FALSE -- AC DC and Phase are NOT grouped.
TRUE -- Companion Program Settings File CREATED.
FALSE -- AC data not excluded
FALSE -- DC data not excluded
FALSE -- Phase data not excluded
FALSE -- Auxillary Chn. data not excluded
Tab delimiters

#CALIBRATION STATE
TRUE -- Waveform Calibration Values APPLIED.


#AUX CALIBRATION VALUES
Val Type	aux-1	

Term	1.0000e+00	
Factor	0.0000e+00	


#WF CALIBRATION VALUES
A = Detector Channel
Val Type	A-AC1	A-AC2	A-AC3	A-AC4	A-AC5	A-AC6	A-AC7	A-AC8	A-AC9	A-AC10	A-AC11	A-AC12	A-AC13	A-AC14	A-AC15	A-AC16	A-DC1	A-DC2	A-DC3	A-DC4	A-DC5	A-DC6	A-DC7	A-DC8	A-DC9	A-DC10	A-DC11	A-DC12	A-DC13	A-DC14	A-DC15	A-DC16	A-Ph1	A-Ph2	A-Ph3	A-Ph4	A-Ph5	A-Ph6	A-Ph7	A-Ph8	A-Ph9	A-Ph10	A-Ph11	A-Ph12	A-Ph13	A-Ph14	A-Ph15	A-Ph16	

Term	0.00000e+00	0.00000e+00	0.00000e+00	0.00000e+00	0.00000e+00	0.00000e+00	0.00000e+00	0.00000e+00	0.00000e+00	0.00000e+00	0.00000e+00	0.00000e+00	0.00000e+00	0.00000e+00	0.00000e+00	0.00000e+00	0.00000e+00	0.00000e+00	0.00000e+00	0.00000e+00	0.00000e+00	0.00000e+00	0.00000e+00	0.00000e+00	0.00000e+00	0.00000e+00	0.00000e+00	0.00000e+00	0.00000e+00	0.00000e+00	0.00000e+00	0.00000e+00	0.00000e+00	0.00000e+00	0.00000e+00	0.00000e+00	0.00000e+00	0.00000e+00	0.00000e+00	0.00000e+00	0.00000e+00	0.00000e+00	0.00000e+00	0.00000e+00	0.00000e+00	0.00000e+00	0.00000e+00	0.00000e+00	
Factor	1.00000e+00	1.00000e+00	1.00000e+00	1.00000e+00	1.00000e+00	1.00000e+00	1.00000e+00	1.00000e+00	1.00000e+00	1.00000e+00	1.00000e+00	1.00000e+00	1.00000e+00	1.00000e+00	1.00000e+00	1.00000e+00	1.00000e+00	1.00000e+00	1.00000e+00	1.00000e+00	1.00000e+00	1.00000e+00	1.00000e+00	1.00000e+00	1.00000e+00	1.00000e+00	1.00000e+00	1.00000e+00	1.00000e+00	1.00000e+00	1.00000e+00	1.00000e+00	X	X	X	X	X	X	X	X	X	X	X	X	X	X	X	X	

B = Detector Channel
Val Type	B-AC1	B-AC2	B-AC3	B-AC4	B-AC5	B-AC6	B-AC7	B-AC8	B-AC9	B-AC10	B-AC11	B-AC12	B-AC13	B-AC14	B-AC15	B-AC16	B-DC1	B-DC2	B-DC3	B-DC4	B-DC5	B-DC6	B-DC7	B-DC8	B-DC9	B-DC10	B-DC11	B-DC12	B-DC13	B-DC14	B-DC15	B-DC16	B-Ph1	B-Ph2	B-Ph3	B-Ph4	B-Ph5	B-Ph6	B-Ph7	B-Ph8	B-Ph9	B-Ph10	B-Ph11	B-Ph12	B-Ph13	B-Ph14	B-Ph15	B-Ph16	

Term	0.00000e+00	0.00000e+00	0.00000e+00	0.00000e+00	0.00000e+00	0.00000e+00	0.00000e+00	0.00000e+00	0.00000e+00	0.00000e+00	0.00000e+00	0.00000e+00	0.00000e+00	0.00000e+00	0.00000e+00	0.00000e+00	0.00000e+00	0.00000e+00	0.00000e+00	0.00000e+00	0.00000e+00	0.00000e+00	0.00000e+00	0.00000e+00	0.00000e+00	0.00000e+00	0.00000e+00	0.00000e+00	0.00000e+00	0.00000e+00	0.00000e+00	0.00000e+00	3.94855e+01	-1.32128e+02	-1.27181e+02	-1.84490e+02	-6.72028e+01	-7.11501e+01	-1.59062e+02	-1.62015e+02	-4.80925e+01	-6.50300e+01	-1.70682e+02	-1.71722e+02	-1.81139e+02	-1.78172e+02	-6.66378e+01	-1.50327e+02	
Factor	6.14565e-05	1.43988e-04	4.12154e-05	2.02262e-01	1.95690e-06	1.65095e-06	1.56930e-01	5.15347e-02	2.54719e-06	1.60944e-06	8.43913e-02	3.21709e-02	2.84674e-02	9.18122e-03	1.99602e-06	1.31396e-02	2.11529e-05	3.98913e-05	1.12962e-05	1.08715e-01	3.85736e-07	4.59041e-07	7.93570e-02	2.79075e-02	3.67363e-07	4.60695e-07	4.42269e-02	1.68013e-02	1.55642e-02	5.02853e-03	4.02019e-07	6.94216e-03	X	X	X	X	X	X	X	X	X	X	X	X	X	X	X	X	



#DISTANCE SETTINGS
A = Detector Channel
A-1	A-2	A-3	A-4	A-5	A-6	A-7	A-8	A-9	A-10	A-11	A-12	A-13	A-14	A-15	A-16	

2.5000e+00	3.0000e+00	2.5000e+00	3.0000e+00	2.0000e+00	3.0000e+00	1.5000e+00	3.0000e+00	3.0000e+00	3.0000e+00	3.0000e+00	3.0000e+00	3.0000e+00	3.0000e+00	1.5000e+00	3.0000e+00	

B = Detector Channel
B-1	B-2	B-3	B-4	B-5	B-6	B-7	B-8	B-9	B-10	B-11	B-12	B-13	B-14	B-15	B-16	

1.0000e+01	1.0000e+01	1.0000e+01	1.4400e+00	1.0000e+01	1.0000e+01	1.5100e+00	1.9400e+00	1.0000e+01	1.0000e+01	1.9900e+00	2.4900e+00	2.4100e+00	2.9000e+00	1.0000e+01	2.9800e+00	




#DATA BEGINS
time	group	step	mark	flag	A-AC1	A-AC2	A-AC3	A-AC4	A-AC5	A-AC6	A-AC7	A-AC8	A-AC9	A-AC10	A-AC11	A-AC12	A-AC13	A-AC14	A-AC15	A-AC16	A-DC1	A-DC2	A-DC3	A-DC4	A-DC5	A-DC6	A-DC7	A-DC8	A-DC9	A-DC10	A-DC11	A-DC12	A-DC13	A-DC14	A-DC15	A-DC16	A-Ph1	A-Ph2	A-Ph3	A-Ph4	A-Ph5	A-Ph6	A-Ph7	A-Ph8	A-Ph9	A-Ph10	A-Ph11	A-Ph12	A-Ph13	A-Ph14	A-Ph15	A-Ph16	B-AC1	B-AC2	B-AC3	B-AC4	B-AC5	B-AC6	B-AC7	B-AC8	B-AC9	B-AC10	B-AC11	B-AC12	B-AC13	B-AC14	B-AC15	B-AC16	B-DC1	B-DC2	B-DC3	B-DC4	B-DC5	B-DC6	B-DC7	B-DC8	B-DC9	B-DC10	B-DC11	B-DC12	B-DC13	B-DC14	B-DC15	B-DC16	B-Ph1	B-Ph2	B-Ph3	B-Ph4	B-Ph5	B-Ph6	B-Ph7	B-Ph8	B-Ph9	B-Ph10	B-Ph11	B-Ph12	B-Ph13	B-Ph14	B-Ph15	B-Ph16	aux-1	digaux	

1708.111	1	1	0	256	0.17782	0.10076	0.031979	0.11801	0.15336	0.28174	0.31194	0.23007	0.1948	0.04666	0.24906	0.1827	0.26232	0.22396	0.1864	0.26689	-0.51042	-1.5542	-1.5771	-0.9	-1.8021	-1.475	-1.1854	-2.0938	-1.0146	-1.6792	-1.7479	-1.125	-1.7437	-1.4396	-1.0042	-1.8854	182.174	146.091	372.944	286.452	106.854	67.110	306.258	371.478	101.073	321.781	70.513	290.343	89.914	263.109	302.953	255.886	0.00099661	0.001516	0.00030622	334.48	2.9656e-05	8.8105e-06	574.24	85.34	2.0886e-05	3.546e-05	176.24	66.968	27.992	10.268	7.6889e-06	26.267	0.14826	0.27923	0.078929	1101.5	0.0026831	0.003193	1126.9	278.93	0.0025388	0.0031885	483.21	182.35	133.03	44.456	0.0027086	73.48	275.590	373.514	179.792	48.281	186.461	156.422	49.097	54.113	59.504	143.644	52.567	57.873	58.087	61.665	358.400	60.994	-8191	255	
1708.231	1	1	0	0	0.12575	0.12518	0.12604	0.30662	0.077774	0.093328	0.25458	0.095128	0.24495	0.23795	0.087651	0.28055	0.28941	0.1981	0.061679	0.12071	-0.8625	-1.4062	-1.8083	-0.9625	-1.7542	-1.4542	-1.1958	-1.9375	-1.1958	-1.4667	-1.7542	-1.0396	-1.7771	-1.7146	-1.0917	-1.9813	340.461	219.475	82.077	369.385	290.288	84.910	348.950	309.844	84.835	180.246	307.917	357.678	278.033	222.191	320.821	393.159	0.0010344	0.0032802	0.0010799	342.82	1.8701e-05	1.3022e-06	573.94	85.889	1.3981e-05	2.0551e-05	176.63	66.405	27.201	10.227	2.0974e-05	26.184	0.14169	0.26665	0.075415	1072.3	0.0025837	0.0030607	1109.2	272.17	0.0024403	0.0030561	472.09	177.92	130.4	43.516	0.0026439	72.218	348.434	276.313	305.636	47.767	131.498	148.580	48.188	53.818	45.519	393.739	52.241	57.372	57.889	63.097	164.333	60.058	-8191	255	
1708.327	1	1	0	0	0.35201	0.10506	0.20571	0.18669	0.096432	0.19397	0.32198	0.1031	0.17188	0.11482	0.26831	0.18151	0.17943	0.14251	0.092959	0.064337	-0.86875	-1.4729	-1.8458	-1.1313	-1.6896	-1.5583	-1.0229	-1.8292	-1.2792	-1.1771	-1.9646	-1.1833	-1.5021	-1.6583	-0.92083	-1.8729	65.229	322.119	37.851	338.659	93.403	130.828	317.234	103.159	147.001	365.950	270.583	369.828	318.141	163.479	259.041	388.003	0.0017611	0.0010361	0.0011845	341.89	1.4301e-05	1.072e-05	568.03	85.761	3.0853e-05	1.731e-05	178.62	66.143	28.04	10.162	6.681e-06	25.917	0.13906	0.26206	0.074103	1055.9	0.0025165	0.0029765	1090.9	265.89	0.0023519	0.0029456	462.79	174.93	127.38	42.592	0.0025677	70.967	322.519	370.021	296.439	48.284	187.261	396.075	48.321	54.325	91.905	278.153	53.286	57.575	59.308	63.247	75.384	60.984	-8191	255	
1708.424	1	1	0	0	0.19609	0.079664	0.11125	0.21309	0.47265	0.26663	0.15166	0.22928	0.049045	0.32665	0.16373	0.21574	0.11221	0.062381	0.25536	0.1725	-0.92917	-1.0521	-2	-1.1458	-1.4708	-1.6812	-1.1083	-1.8646	-1.5333	-1.1854	-2.0417	-1.2792	-1.3354	-1.7042	-1.1333	-1.8396	177.852	348.724	168.897	227.500	328.687	263.396	318.660	267.865	240.927	292.498	177.101	374.446	394.036	372.817	194.296	329.661	0.0014409	0.0016812	0.0010934	340.22	3.4326e-05	9.9318e-06	576.11	85.538	3.5139e-05	3.7205e-05	177.45	66.441	27.719	10.386	3.4956e-05	26.647	0.13499	0.25484	0.072084	1039	0.0024646	0.0029387	1089.3	265.56	0.0023531	0.0029519	463.72	175.52	127.41	42.727	0.0025685	71.315	316.413	146.361	37.597	49.008	98.782	167.723	48.509	53.830	146.525	199.105	52.686	57.059	58.935	61.809	352.998	60.891	-8191	255	
1708.520	1	1	0	0	0.16642	0.26014	0.055337	0.12117	0.19303	0.15831	0.12705	0.34744	0.20091	0.16916	0.071225	0.029652	0.16907	0.35277	0.19778	0.20635	-1.0604	-1.0917	-1.9333	-1.3062	-1.325	-1.7792	-1.0854	-1.6375	-1.5021	-1.0333	-1.8146	-1.2104	-1.3396	-1.9208	-1.0521	-1.3458	103.748	132.872	217.039	87.163	47.441	229.382	381.289	137.532	124.247	268.977	84.024	387.234	229.495	108.576	238.154	318.076	0.0017761	0.0020632	0.00029457	341.06	3.1421e-05	9.6018e-06	576.22	86.42	7.3181e-06	1.9698e-05	181.48	67.178	27.629	10.427	1.3868e-05	26.382	0.13493	0.25379	0.07186	1038.1	0.0024485	0.0029051	1084.7	262.94	0.0023086	0.0028764	458.25	172.74	124.7	41.863	0.0024862	70.064	310.647	84.594	235.324	48.789	82.908	158.903	48.285	54.820	265.079	194.238	52.983	57.818	58.461	62.261	395.613	61.258	-8191	255	
1708.614	1	1	0	0	0.41941	0.12848	0.054277	0.27781	0.10588	0.20759	0.24648	0.10621	0.3299	0.037709	0.06201	0.1177	0.37793	0.20903	0.1055	0.13965	-1.1375	-0.91458	-1.6958	-1.375	-1.1333	-1.8937	-1.1771	-1.5292	-1.7146	-0.82292	-1.9125	-1.5292	-1.0938	-1.7708	-1.1187	-1.4354	375.108	74.141	191.621	111.713	307.959	137.862	309.134	174.693	333.225	388.403	281.446	66.149	381.396	282.894	324.314	267.694	0.00020029	0.0025992	0.00098313	341.86	5.2955e-05	1.8537e-05	579.96	85.598	8.4368e-06	2.1506e-05	175.72	66.156	27.559	10.395	1.5313e-05	25.936	0.13125	0.24717	0.070147	1019.5	0.0023909	0.002831	1070.3	258.61	0.0022514	0.0028215	449.39	169.54	122.51	41.112	0.0024463	68.845	161.220	158.247	292.213	47.887	189.073	376.881	48.429	54.069	183.413	99.217	52.960	56.870	58.524	61.556	343.186	60.025	-8191	255	
1708.712	1	1	0	0	0.29692	0.21069	0.18195	0.14278	0.25539	0.13541	0.027513	0.05637	0.35828	0.16843	0.11255	0.081985	0.11548	0.1086	0.33495	0.10536	-1.325	-0.97708	-1.8958	-1.4167	-0.97083	-1.9458	-1.0604	-1.3083	-1.6917	-1.0167	-1.7396	-1.4813	-0.97083	-1.7313	-1.3312	-1.35	77.560	375.521	266.298	101.266	105.680	376.509	148.012	176.090	250.209	63.336	66.814	359.158	198.215	176.963	213.928	220.509	0.00072223	0.0035993	0.00083864	347.81	1.6232e-05	4.0594e-05	566.8	85.775	1.8379e-05	1.0062e-05	177.41	66.734	27.221	10.288	1.7883e-05	26.001	0.12917	0.24381	0.069235	1014	0.0023737	0.0028283	1065.3	258.14	0.0022569	0.0028478	453.53	171.04	123.58	41.64	0.0024835	69.384	40.212	105.695	308.148	48.328	343.916	289.652	48.325	54.247	101.734	288.537	53.061	57.250	58.833	61.923	79.224	61.172	-8191	255	
1708.831	1	1	0	0	0.15569	0.16076	0.19944	0.24534	0.35137	0.15961	0.16315	0.13627	0.16725	0.18714	0.1935	0.034998	0.2546	0.1016	0.31519	0.077409	-1.4625	-0.91667	-1.4062	-1.4354	-0.83125	-1.8604	-1.2875	-1.1604	-1.7792	-0.85625	-1.6104	-1.7479	-0.94792	-1.7542	-1.1458	-1.1958	265.098	153.182	330.906	379.968	255.561	395.043	370.193	298.806	56.014	378.958	283.286	116.131	372.360	341.560	36.666	209.710	0.0016328	0.0023908	0.00041894	345.62	7.1454e-06	6.2464e-05	572.77	86.046	5.3047e-05	3.3814e-05	178.61	65.751	27.341	10.096	1.2724e-05	25.969	0.13063	0.24668	0.070048	1020.6	0.0024023	0.0028767	1074	262.12	0.0023149	0.00291	460.18	173.72	126.36	42.468	0.0025653	71.034	305.000	384.972	372.526	48.647	200.524	234.506	48.324	53.429	129.194	223.518	52.670	57.708	58.270	62.307	290.307	60.010	-8191	255	
1708.927	1	1	0	0	0.23594	0.066335	0.21156	0.086514	0.11737	0.22226	0.079537	0.24918	0.15057	0.057669	0.13217	0.18006	0.080604	0.31644	0.2101	0.14038	-1.5021	-0.91667	-1.5083	-1.8729	-0.95417	-1.8563	-1.4813	-1.0021	-1.8062	-0.99167	-1.4667	-1.7563	-0.8875	-1.9	-1.4896	-1.2542	70.678	110.910	67.345	330.740	168.770	301.747	40.926	56.098	189.998	356.937	244.419	368.533	295.284	264.777	176.498	125.388	0.0012921	0.0018793	0.00020541	342.27	2.6879e-05	1.7048e-05	575.06	86.125	3.8266e-05	1.9403e-05	178.85	66.133	27.459	10.392	1.5348e-06	25.943	0.13606	0.2577	0.073017	1052.2	0.0025095	0.002996	1098.5	269.11	0.0023959	0.0030116	470.83	177.64	130.72	43.9	0.002678	72.636	337.176	377.765	182.259	48.438	270.599	152.945	48.150	53.218	153.023	118.691	53.242	56.884	58.518	62.338	68.442	60.817	-8191	255	
1709.023	1	1	0	0	0.13843	0.20853	0.34394	0.20702	0.19066	0.14343	0.29245	0.039877	0.13684	0.25009	0.24676	0.24911	0.17841	0.054609	0.15504	0.14727	-1.5479	-1.1271	-1.3208	-1.9792	-1.0042	-1.7833	-1.5646	-0.97083	-1.9292	-1.2479	-1.5104	-1.7417	-1.1313	-1.5917	-1.5604	-1.1646	265.225	266.737	229.469	110.304	352.332	75.982	276.620	77.168	380.197	175.623	296.242	118.532	395.770	301.473	185.934	269.226	0.0017329	0.0024655	0.00099805	342.29	1.9481e-05	1.6517e-05	574.42	85.508	1.3033e-05	3.1198e-05	177.61	65.566	27.246	10.026	2.2477e-05	25.279	0.14179	0.26816	0.076085	1080.5	0.0025987	0.0030988	1116.1	274.12	0.0024735	0.0031048	477.66	180.41	132.89	44.551	0.002741	73.385	338.960	359.875	377.585	48.129	236.893	142.045	48.035	54.423	98.784	323.349	53.033	56.881	57.418	61.672	238.707	59.809	-8191	255	
1709.119	1	1	0	0	0.12501	0.15909	0.34823	0.20427	0.17628	0.2001	0.28353	0.12129	0.059832	0.12685	0.20037	0.21714	0.16025	0.24911	0.21296	0.26883	-1.5167	-1.3854	-1.0604	-1.9	-1.1104	-1.7167	-2.0187	-1.1854	-1.9062	-1.5417	-1.1896	-2.0312	-1.2833	-1.5125	-1.95	-1.1562	218.481	79.882	204.179	230.230	45.353	341.983	251.118	235.641	338.068	61.403	101.297	389.080	49.117	54.556	113.780	62.066	0.00094968	0.0011525	0.00028693	342.05	3.8045e-05	1.959e-05	578.42	85.019	1.7232e-05	2.026e-05	174.4	65.137	26.817	10.259	3.4369e-05	25.344	0.14435	0.27259	0.077773	1097.8	0.0026803	0.003218	1141.7	282.81	0.0025869	0.0032526	490.38	183.94	136.11	45.413	0.0027983	74.38	312.131	192.822	292.187	48.390	81.589	276.810	48.005	54.311	60.667	66.321	52.668	57.969	57.917	61.491	100.861	60.954	-8191	255	
1709.216	1	1	0	0	0.23147	0.027894	0.20793	0.22779	0.27619	0.098573	0.30611	0.092773	0.27171	0.24173	0.2614	0.11752	0.12931	0.1351	0.079842	0.25734	-1.4896	-1.3458	-1.0146	-2.0187	-1.1042	-1.5875	-1.8375	-1.0458	-1.7146	-1.5875	-1.0083	-1.95	-1.3146	-1.0979	-1.8687	-1.0896	55.401	250.620	76.401	300.387	56.834	348.203	347.797	48.419	104.804	243.837	327.317	356.069	131.418	383.448	343.939	311.975	0.00076382	0.0022962	0.0004521	346.14	5.601e-06	3.8706e-05	574.79	86.712	2.3535e-05	3.1944e-05	178.07	66.302	27.241	10.165	3.4957e-05	25.946	0.14742	0.27765	0.078763	1109.2	0.0026883	0.0031954	1137.3	281.18	0.0025574	0.0032147	489.38	184.68	136.61	45.849	0.0028338	75.36	265.944	259.620	364.478	48.484	278.410	176.542	47.981	54.399	118.605	263.016	51.857	57.808	57.559	62.368	302.977	60.195	-8191	255	
1709.312	1	1	0	0	0.38605	0.20764	0.23279	0.12851	0.1174	0.044477	0.10233	0.19967	0.33808	0.075548	0.35879	0.13858	0.29755	0.050227	0.12687	0.17517	-1.1854	-1.7479	-1.0292	-1.8708	-1.3625	-1.2208	-2	-1.0604	-1.5833	-1.5938	-1.2354	-1.7875	-1.3021	-1.0896	-1.8375	-1.0938	345.196	122.876	136.823	279.943	112.633	258.814	215.332	233.707	254.448	48.517	363.645	116.418	301.672	335.998	149.327	78.479	0.00037471	0.0021241	0.00071354	348.43	3.6631e-05	6.9055e-06	580.82	87.664	5.9003e-06	1.974e-05	176.12	66.381	27.35	10.148	2.0671e-05	25.578	0.149	0.2795	0.078976	1108.4	0.0026762	0.0031825	1135	281.43	0.0025674	0.0032332	492.48	185.75	137.83	46.02	0.0028511	75.153	240.547	137.588	318.229	47.721	373.895	361.180	48.073	53.660	216.874	251.498	53.396	57.833	59.014	63.012	221.964	61.226	-8191	255	
1709.408	1	1	0	0	0.1726	0.095608	0.24572	0.042866	0.099852	0.091291	0.26256	0.024506	0.081977	0.018414	0.21955	0.14496	0.15771	0.26053	0.067698	0.056206	-1.1938	-1.5708	-0.78333	-1.8042	-1.6292	-0.98958	-1.9104	-1.3125	-1.375	-1.8625	-0.99167	-1.95	-1.3917	-1.0938	-1.8917	-1.3979	39.222	181.494	37.494	394.758	354.035	41.781	163.648	154.732	324.789	108.279	176.071	135.344	371.453	147.458	231.987	168.750	0.000871	0.0027009	0.0010344	351.3	6.5308e-05	5.398e-05	574.98	85.656	3.4218e-05	1.5291e-05	175.54	65.482	26.729	10.093	2.7902e-05	25.256	0.14938	0.27955	0.079236	1107.7	0.0026826	0.0031988	1132.7	279.94	0.0025474	0.0032017	485.33	183.27	135.84	45.412	0.0027986	74.017	339.849	318.636	290.865	49.227	158.743	221.595	48.484	53.092	58.636	315.229	52.880	57.519	58.395	62.611	206.604	60.288	-8191	255	
1709.528	1	1	0	0	0.021793	0.25043	0.12779	0.10475	0.023283	0.17562	0.15333	0.12808	0.063141	0.14396	0.32149	0.12455	0.13265	0.12147	0.16358	0.28493	-0.9375	-1.8438	-0.96875	-1.9042	-1.4937	-1.1604	-1.9583	-1.1583	-1.325	-1.825	-1.1271	-1.6167	-1.85	-0.92917	-2.1063	-1.2854	260.855	135.511	160.234	253.613	280.735	178.533	306.515	328.748	267.608	382.252	143.230	393.986	69.836	46.892	184.137	129.948	0.0010427	0.0024693	0.00054806	342.5	1.7934e-05	8.8243e-06	576.72	83.662	2.4823e-05	8.5256e-06	174.47	65.225	27.132	10.235	4.2334e-05	25.478	0.1477	0.27943	0.079157	1108.6	0.0027001	0.0032001	1133.2	279.42	0.002538	0.0031829	483.17	181.11	134.07	44.741	0.0027477	73.447	79.934	42.751	183.933	48.431	268.726	92.510	48.544	53.803	351.886	357.941	53.079	57.750	58.834	62.416	141.469	59.988	-8191	255	
1709.623	1	1	0	0	0.21117	0.16816	0.093872	0.09098	0.27666	0.16638	0.18045	0.15903	0.15601	0.16155	0.30045	0.3587	0.060249	0.087477	0.033956	0.02987	-0.87083	-1.6875	-0.95417	-1.5688	-1.5833	-0.94375	-2.1063	-1.4896	-1.2542	-1.7917	-1.0604	-1.4208	-1.7687	-1.1271	-1.6875	-1.3937	38.328	60.535	189.826	271.974	68.848	97.439	362.080	96.503	200.770	235.200	385.250	365.978	128.509	229.052	216.692	113.525	0.0010971	0.001865	0.00044168	344.69	7.1832e-06	4.2011e-05	575.08	84.621	4.7473e-05	2.6447e-05	176.59	66.742	26.966	10.126	1.7118e-05	25.738	0.14486	0.27353	0.077645	1095.9	0.0026456	0.0031398	1124.5	276.99	0.0025057	0.0031401	481.03	181.33	133.52	44.477	0.0027091	72.77	327.484	361.384	78.658	48.548	387.448	330.646	48.340	53.888	116.594	183.947	52.989	58.091	57.868	63.322	185.020	60.705	-8191	255	
1709.719	1	1	0	0	0.4134	0.24835	0.23373	0.067503	0.17124	0.17645	0.18741	0.27126	0.077254	0.18301	0.21308	0.15858	0.088476	0.10682	0.28592	0.32041	-0.63333	-1.9083	-1.1437	-1.5667	-1.9896	-1.0646	-2.1188	-1.6458	-1.2167	-2.0521	-1.2042	-1.3521	-1.9146	-1.1104	-1.7812	-1.6583	252.115	307.898	170.343	99.549	249.089	41.096	378.891	370.670	205.587	127.234	54.520	388.497	249.269	115.793	167.705	281.642	0.00027573	0.0016584	0.00026229	343.76	5.1514e-05	2.6936e-05	575.83	86.405	3.3013e-05	2.098e-05	177.02	65.451	26.961	10.023	1.8653e-05	25.047	0.14158	0.26503	0.074817	1065.7	0.0025329	0.0030119	1100.3	269.76	0.0024075	0.0030288	470.44	177.18	130.28	43.509	0.0026515	71.211	211.086	350.222	263.044	48.908	189.478	85.270	49.005	53.466	305.558	356.709	52.512	58.143	59.540	62.441	130.625	61.162	-8191	255	
1709.792	1	1	0	0	0.10568	0.25708	0.15107	0.1157	0.015687	0.18248	0.10282	0.075007	0.26258	0.35451	0.048473	0.076747	0.15374	0.36512	0.1234	0.12429	-0.79792	-2.0729	-1.2667	-1.2646	-1.9188	-1.1	-1.8458	-1.6417	-1.0958	-1.9875	-1.4271	-1.3083	-1.8583	-1.05	-1.4667	-1.7292	132.464	163.781	155.717	164.610	316.428	373.176	39.292	53.466	186.195	178.863	59.178	84.932	312.691	316.846	82.251	264.963	0.0010715	0.0015489	0.00086665	345.18	1.5749e-05	3.4042e-06	577.09	84.65	3.0804e-05	7.5936e-06	174.9	64.507	26.726	9.9592	3.2577e-05	24.641	0.13913	0.26179	0.074215	1062.1	0.0025482	0.0030341	1110.4	272.72	0.0024615	0.0030952	474.48	178.49	131.46	44.006	0.0027005	72.213	63.323	73.475	341.291	49.277	306.290	69.691	48.693	53.609	253.718	238.804	52.639	57.799	58.959	62.468	369.530	60.897	-8191	255	
1709.911	1	1	0	0	0.20558	0.089062	0.31771	0.11753	0.26062	0.12559	0.034572	0.11745	0.089923	0.22202	0.10647	0.26362	0.37949	0.13936	0.086424	0.10173	-0.54375	-1.8417	-1.2167	-1.1792	-1.8417	-0.93958	-1.6458	-1.6229	-0.85833	-1.9271	-1.5187	-1.0125	-1.7833	-1.1958	-1.4417	-1.8	272.982	250.302	74.876	36.797	255.844	101.426	347.735	288.848	266.166	218.060	189.487	335.986	394.786	197.044	143.278	51.418	0.00068109	0.0015734	0.00032662	344.11	2.4625e-05	4.9227e-05	582.86	86.109	1.7198e-05	2.1321e-05	177.67	64.935	27.008	9.9968	1.8396e-05	25.183	0.1425	0.26869	0.076231	1081	0.0026086	0.0030953	1118.6	274.67	0.0024759	0.0031054	477.66	179.76	132.61	44.336	0.0027219	72.734	347.417	248.691	177.707	48.011	118.818	83.493	48.248	53.734	125.976	391.313	52.291	58.380	59.609	61.094	66.544	61.277	-8191	255	
