BOXY.EXE: ISS Imagent and Oximeter Data Acquisition Program Version 0.80
Ascii Record File

#ACQ INFORMATION
2  Detector Channels 
16  External MUX Channels 
1  Auxiliary Channels 
5000  Waveform (CCF) Frequency (Hz)
1  Waveforms Skipped 
30  Waveforms Averaged 
1  Cycles Averaged 
16  Acquisitions per Waveform 
10.0806  Updata Rate (Hz) 

#FILE INFORMATION
TRUE -- External MUX Channel results are PARSED.
FALSE -- AC DC and Phase are NOT grouped.
TRUE -- Companion Program Settings File CREATED.
FALSE -- AC data not excluded
FALSE -- DC data not excluded
FALSE -- Phase data not excluded
FALSE -- Auxillary Chn. data not excluded
Tab delimiters

#CALIBRATION STATE
TRUE -- Waveform Calibration Values APPLIED.


#AUX CALIBRATION VALUES
Val Type	aux-1	

Term	1.0000e+00	
Factor	0.0000e+00	


#WF CALIBRATION VALUES
A = Detector Channel
Val Type	A-AC1	A-AC2	A-AC3	A-AC4	A-AC5	A-AC6	A-AC7	A-AC8	A-AC9	A-AC10	A-AC11	A-AC12	A-AC13	A-AC14	A-AC15	A-AC16	A-DC1	A-DC2	A-DC3	A-DC4	A-DC5	A-DC6	A-DC7	A-DC8	A-DC9	A-DC10	A-DC11	A-DC12	A-DC13	A-DC14	A-DC15	A-DC16	A-Ph1	A-Ph2	A-Ph3	A-Ph4	A-Ph5	A-Ph6	A-Ph7	A-Ph8	A-Ph9	A-Ph10	A-Ph11	A-Ph12	A-Ph13	A-Ph14	A-Ph15	A-Ph16	

Term	0.00000e+00	0.00000e+00	0.00000e+00	0.00000e+00	0.00000e+00	0.00000e+00	0.00000e+00	0.00000e+00	0.00000e+00	0.00000e+00	0.00000e+00	0.00000e+00	0.00000e+00	0.00000e+00	0.00000e+00	0.00000e+00	0.00000e+00	0.00000e+00	0.00000e+00	0.00000e+00	0.00000e+00	0.00000e+00	0.00000e+00	0.00000e+00	0.00000e+00	0.00000e+00	0.00000e+00	0.00000e+00	0.00000e+00	0.00000e+00	0.00000e+00	0.00000e+00	0.00000e+00	0.00000e+00	0.00000e+00	0.00000e+00	0.00000e+00	0.00000e+00	0.00000e+00	0.00000e+00	0.00000e+00	0.00000e+00	0.00000e+00	0.00000e+00	0.00000e+00	0.00000e+00	0.00000e+00	0.00000e+00	
Factor	1.00000e+00	1.00000e+00	1.00000e+00	1.00000e+00	1.00000e+00	1.00000e+00	1.00000e+00	1.00000e+00	1.00000e+00	1.00000e+00	1.00000e+00	1.00000e+00	1.00000e+00	1.00000e+00	1.00000e+00	1.00000e+00	1.00000e+00	1.00000e+00	1.00000e+00	1.00000e+00	1.00000e+00	1.00000e+00	1.00000e+00	1.00000e+00	1.00000e+00	1.00000e+00	1.00000e+00	1.00000e+00	1.00000e+00	1.00000e+00	1.00000e+00	1.00000e+00	X	X	X	X	X	X	X	X	X	X	X	X	X	X	X	X	

B = Detector Channel
Val Type	B-AC1	B-AC2	B-AC3	B-AC4	B-AC5	B-AC6	B-AC7	B-AC8	B-AC9	B-AC10	B-AC11	B-AC12	B-AC13	B-AC14	B-AC15	B-AC16	B-DC1	B-DC2	B-DC3	B-DC4	B-DC5	B-DC6	B-DC7	B-DC8	B-DC9	B-DC10	B-DC11	B-DC12	B-DC13	B-DC14	B-DC15	B-DC16	B-Ph1	B-Ph2	B-Ph3	B-Ph4	B-Ph5	B-Ph6	B-Ph7	B-Ph8	B-Ph9	B-Ph10	B-Ph11	B-Ph12	B-Ph13	B-Ph14	B-Ph15	B-Ph16	

Term	0.00000e+00	0.00000e+00	0.00000e+00	0.00000e+00	0.00000e+00	0.00000e+00	0.00000e+00	0.00000e+00	0.00000e+00	0.00000e+00	0.00000e+00	0.00000e+00	0.00000e+00	0.00000e+00	0.00000e+00	0.00000e+00	0.00000e+00	0.00000e+00	0.00000e+00	0.00000e+00	0.00000e+00	0.00000e+00	0.00000e+00	0.00000e+00	0.00000e+00	0.00000e+00	0.00000e+00	0.00000e+00	0.00000e+00	0.00000e+00	0.00000e+00	0.00000e+00	-2.62276e+01	-1.15878e+02	-1.08409e+02	-1.83494e+02	-6.33589e+01	-7.54221e+01	-1.57928e+02	-1.62015e+02	-5.48854e+01	-9.11149e+01	-1.72828e+02	-1.71611e+02	-1.77707e+02	-1.75907e+02	-7.81365e+01	-1.49620e+02	
Factor	2.61661e-05	9.26201e-05	2.46974e-05	1.98797e-01	9.62366e-07	8.91135e-07	1.79104e-01	5.14304e-02	1.05170e-06	1.02584e-06	1.02012e-01	2.95886e-02	2.20963e-02	8.96045e-03	1.07712e-06	1.32210e-02	5.86835e-07	5.95880e-07	1.65773e-07	9.66592e-02	6.53574e-09	6.52599e-09	8.24644e-02	2.52020e-02	6.53566e-09	6.54143e-09	4.62961e-02	1.36781e-02	1.07972e-02	4.30996e-03	6.51163e-09	6.04044e-03	X	X	X	X	X	X	X	X	X	X	X	X	X	X	X	X	



#DISTANCE SETTINGS
A = Detector Channel
A-1	A-2	A-3	A-4	A-5	A-6	A-7	A-8	A-9	A-10	A-11	A-12	A-13	A-14	A-15	A-16	

2.5000e+00	3.0000e+00	2.5000e+00	3.0000e+00	2.0000e+00	3.0000e+00	1.5000e+00	3.0000e+00	3.0000e+00	3.0000e+00	3.0000e+00	3.0000e+00	3.0000e+00	3.0000e+00	1.5000e+00	3.0000e+00	

B = Detector Channel
B-1	B-2	B-3	B-4	B-5	B-6	B-7	B-8	B-9	B-10	B-11	B-12	B-13	B-14	B-15	B-16	

1.0000e+01	1.0000e+01	1.0000e+01	1.4400e+00	1.0000e+01	1.0000e+01	1.5100e+00	1.9400e+00	1.0000e+01	1.0000e+01	1.9900e+00	2.4900e+00	2.4100e+00	2.9000e+00	1.0000e+01	2.9800e+00	




#DATA BEGINS
time	group	step	mark	flag	A-AC1	A-AC2	A-AC3	A-AC4	A-AC5	A-AC6	A-AC7	A-AC8	A-AC9	A-AC10	A-AC11	A-AC12	A-AC13	A-AC14	A-AC15	A-AC16	A-DC1	A-DC2	A-DC3	A-DC4	A-DC5	A-DC6	A-DC7	A-DC8	A-DC9	A-DC10	A-DC11	A-DC12	A-DC13	A-DC14	A-DC15	A-DC16	A-Ph1	A-Ph2	A-Ph3	A-Ph4	A-Ph5	A-Ph6	A-Ph7	A-Ph8	A-Ph9	A-Ph10	A-Ph11	A-Ph12	A-Ph13	A-Ph14	A-Ph15	A-Ph16	B-AC1	B-AC2	B-AC3	B-AC4	B-AC5	B-AC6	B-AC7	B-AC8	B-AC9	B-AC10	B-AC11	B-AC12	B-AC13	B-AC14	B-AC15	B-AC16	B-DC1	B-DC2	B-DC3	B-DC4	B-DC5	B-DC6	B-DC7	B-DC8	B-DC9	B-DC10	B-DC11	B-DC12	B-DC13	B-DC14	B-DC15	B-DC16	B-Ph1	B-Ph2	B-Ph3	B-Ph4	B-Ph5	B-Ph6	B-Ph7	B-Ph8	B-Ph9	B-Ph10	B-Ph11	B-Ph12	B-Ph13	B-Ph14	B-Ph15	B-Ph16	aux-1	digaux	

7676.348	1	1	0	256	0.24764	0.031712	0.196	0.095323	0.22295	0.20004	0.31829	0.27985	0.16651	0.034145	0.039834	0.1788	0.019305	0.21359	0.2818	0.077228	-1.2625	-2.1729	-1.4188	-2.1396	-1.9854	-1.3062	-2.4292	-1.6104	-1.45	-2.3208	-1.4229	-2.1104	-2.2146	-1.3458	-1.8854	-1.6833	246.839	157.742	236.779	73.084	89.780	255.941	396.316	133.423	177.729	158.790	297.926	222.509	121.486	392.959	128.757	171.209	0.00034177	0.00051547	0.00023927	1150.1	2.088e-06	5.8695e-07	1235.6	241.93	5.0223e-06	6.06e-06	303.08	83.772	66.783	19.367	5.4684e-06	26.712	0.00042828	0.00041098	0.00012298	1142	4.7541e-06	4.4458e-06	1219.4	247.28	4.7571e-06	4.581e-06	308.04	87.398	69.857	20.95	5.148e-06	29.194	259.961	263.261	123.962	73.025	139.770	136.349	73.040	80.665	169.048	162.030	80.009	87.288	87.557	94.236	176.035	93.885	-8191	255	
7676.444	1	1	0	0	0.43402	0.32181	0.34123	0.095877	0.085331	0.17815	0.25264	0.26767	0.12141	0.27687	0.072786	0.064366	0.1319	0.20402	0.21539	0.22596	-1.1042	-2.1729	-1.5167	-1.9604	-1.9917	-1.4937	-2.3292	-1.8292	-1.5333	-2.1979	-1.3396	-1.8875	-2.2562	-1.3875	-2.3208	-1.7833	175.581	231.106	346.252	283.064	164.723	203.222	345.701	349.809	220.047	292.687	191.207	208.897	319.917	391.437	273.270	71.018	0.00044753	0.00060837	0.00018443	1152	5.9189e-06	2.3414e-06	1237.2	242.3	3.8167e-06	7.0187e-06	300.7	83.442	67.246	19.415	8.9848e-06	26.753	0.00043268	0.00042028	0.00013171	1144.2	4.7576e-06	4.6387e-06	1225.4	247.19	4.7017e-06	4.72e-06	309.75	86.925	69.908	21.082	5.3573e-06	29.106	237.256	217.349	136.618	72.652	295.362	283.359	73.292	80.640	175.381	211.018	79.931	87.203	86.872	93.550	265.965	92.968	-8191	255	
7676.565	1	1	0	0	0.10535	0.11799	0.11638	0.22847	0.12035	0.13326	0.3469	0.034366	0.10859	0.03736	0.11034	0.19248	0.27225	0.034306	0.19899	0.34673	-1.05	-2.1688	-1.4146	-1.8458	-2.1354	-1.2542	-2.2896	-1.8875	-1.4125	-2.2354	-1.7771	-1.6646	-1.9583	-1.4167	-1.85	-1.8542	171.443	177.585	137.596	415.640	218.194	96.292	421.136	309.167	405.634	385.949	106.063	147.441	271.934	162.186	225.677	395.958	0.00036102	0.00044017	0.00011575	1154	3.4957e-06	9.0923e-06	1241.6	243.22	2.58e-06	2.0733e-06	301.02	82.363	67.228	19.412	9.8469e-06	26.748	0.00042273	0.00044312	0.00013551	1142.1	4.6836e-06	4.9246e-06	1226.1	247.16	4.6294e-06	5.0425e-06	309.58	86.191	69.684	21.298	5.3213e-06	28.938	254.127	215.098	113.721	72.672	344.779	170.283	72.488	80.091	305.104	200.153	79.377	86.960	86.979	93.892	244.827	92.824	-8191	255	
7676.636	1	1	0	0	0.050703	0.027278	0.11377	0.20484	0.3156	0.091406	0.21432	0.2793	0.18681	0.10648	0.16715	0.26491	0.10636	0.3047	0.092218	0.18913	-1.0208	-2.1771	-1.9542	-1.65	-2.2625	-1.4125	-1.8229	-2.25	-1.3458	-2.1792	-1.8729	-1.6313	-2.1333	-1.5375	-1.7479	-1.9833	322.345	275.053	108.105	210.692	230.241	133.794	410.408	378.984	397.499	193.686	85.331	336.888	146.079	404.933	173.243	82.308	0.00041345	0.00036234	9.3765e-05	1152.9	3.3435e-06	4.2663e-06	1239.8	242.18	8.988e-06	5.7733e-06	302.01	82.918	66.76	19.497	5.6577e-06	26.958	0.0004243	0.00047902	0.00013561	1141.7	4.7172e-06	5.291e-06	1224.9	246.11	4.7033e-06	5.3759e-06	309.49	86.33	69.853	21.499	5.1765e-06	28.932	270.493	136.762	79.107	72.308	285.734	203.184	72.727	80.184	250.639	112.691	79.920	86.898	87.074	94.145	75.959	92.759	-8191	255	
7676.733	1	1	0	0	0.26734	0.063722	0.07499	0.12633	0.084224	0.050648	0.26882	0.43335	0.20026	0.087438	0.22876	0.13705	0.12275	0.071289	0.21256	0.29312	-1.0667	-2.0354	-1.9292	-1.4542	-2.4229	-1.5792	-2.0646	-2.1854	-1.3312	-2.0875	-2.0854	-1.575	-2.4396	-1.7583	-1.8062	-2.1813	182.931	186.396	134.149	402.464	243.935	320.842	364.635	100.100	105.285	176.624	383.730	99.736	94.509	142.618	130.929	263.396	0.00032698	0.00069283	0.00016959	1150.9	6.1667e-06	3.3938e-06	1240.7	244	3.3238e-06	8.6336e-06	300.86	83.413	66.79	19.593	6.7584e-06	26.602	0.00043906	0.00049245	0.00013068	1139.4	4.8449e-06	5.4303e-06	1223.9	245.78	4.8396e-06	5.4007e-06	306.61	86.184	70.005	21.551	4.9798e-06	28.729	247.595	129.270	171.379	72.523	190.943	224.040	72.734	80.161	366.224	142.568	79.934	86.990	87.001	94.285	334.671	93.726	-8191	255	
7676.853	1	1	0	0	0.054527	0.25543	0.098062	0.31944	0.17822	0.11873	0.15992	0.19385	0.051721	0.13934	0.13318	0.36402	0.13638	0.22967	0.12426	0.38727	-1.0917	-2.0687	-1.825	-1.7854	-2.125	-1.6021	-1.7333	-2.2146	-1.2458	-2.1104	-1.9333	-1.3896	-2.3833	-1.6542	-1.5979	-2.1896	144.707	316.391	389.441	378.127	224.476	281.138	99.900	369.842	175.829	414.621	390.134	305.060	265.716	418.559	329.569	353.766	0.00044301	0.0003717	0.00013244	1153.2	7.8474e-06	6.3679e-06	1242.7	243.54	5.3933e-06	4.3418e-06	301.68	83.349	67.42	19.385	2.6425e-06	26.675	0.00045691	0.00049229	0.00012608	1138	5.1088e-06	5.3595e-06	1223.1	245.64	5.1881e-06	5.3014e-06	306.88	86.029	70.681	21.429	4.8288e-06	28.772	251.626	148.454	198.150	72.700	237.130	69.270	72.843	80.177	296.204	77.923	79.923	87.236	87.251	94.310	103.182	93.110	-8191	255	
7676.949	1	1	0	0	0.10826	0.28072	0.16643	0.18905	0.2292	0.23169	0.34342	0.14084	0.11694	0.20445	0.12657	0.12416	0.32427	0.25248	0.2305	0.035595	-1.0021	-2	-2.1208	-1.4271	-2.2125	-1.9667	-1.4125	-2.225	-1.5146	-1.8125	-2.3312	-1.3729	-2.0958	-1.7917	-1.4104	-2.2938	374.591	205.173	195.174	344.448	281.706	411.942	405.687	416.699	72.594	281.300	269.237	95.931	81.245	371.855	167.426	351.911	0.00042673	0.00048588	0.00012552	1153.5	5.0128e-06	1.5909e-06	1239.1	244.02	9.7824e-06	7.7146e-06	300.6	83.331	67.097	19.337	8.5671e-06	26.791	0.00048543	0.00047215	0.00012404	1139.3	5.4152e-06	5.1555e-06	1220.4	246.23	5.4139e-06	5.1397e-06	305.63	86.405	70.824	21.257	4.7241e-06	28.973	272.727	401.465	202.069	72.710	308.306	146.364	72.809	80.267	243.880	388.060	79.520	87.494	87.407	93.676	156.778	93.417	-8191	255	
7677.044	1	1	0	0	0.24032	0.12387	0.18463	0.34657	0.33405	0.1689	0.16182	0.22007	0.22497	0.24422	0.059346	0.10858	0.084232	0.072385	0.079736	0.081789	-1.3375	-1.6292	-1.9896	-1.7396	-1.9458	-1.7958	-1.7458	-2.1771	-1.5167	-1.7583	-2.275	-1.4937	-2.1354	-1.8146	-1.3042	-2.4104	405.395	154.219	219.571	369.925	191.160	356.244	329.471	230.198	174.957	216.208	127.771	318.190	318.196	404.551	392.045	337.126	0.00038675	0.00060229	0.00026483	1155.1	4.5469e-06	5.4159e-06	1238.3	244.4	4.4808e-06	3.1939e-06	301.17	83.469	66.769	19.365	7.0257e-06	27.019	0.00049383	0.00045512	0.00012079	1141.6	5.4263e-06	5.0042e-06	1215.5	247.38	5.4062e-06	4.9765e-06	304.83	86.807	70.757	21.166	4.6377e-06	29.212	250.967	317.271	85.026	72.803	169.192	270.036	72.716	80.349	86.014	144.967	79.845	87.094	87.260	93.948	113.133	93.606	-8191	255	
7677.142	1	1	0	0	0.16213	0.26685	0.26619	0.21983	0.062313	0.23331	0.22416	0.12265	0.11941	0.31845	0.23339	0.10153	0.10681	0.098996	0.089804	0.23775	-1.1938	-1.3708	-2.1792	-1.6042	-1.8646	-1.7875	-1.5562	-2.4	-1.7479	-1.3875	-2.2917	-1.5646	-2.0792	-2.0479	-1.2854	-2.2062	275.462	192.670	144.377	387.380	266.419	228.633	111.107	340.238	291.373	363.259	137.591	407.671	402.629	338.606	176.459	151.417	0.00043404	0.0005816	0.00015006	1156.4	4.1048e-06	5.9243e-06	1244.8	243.38	1.1147e-05	2.5067e-06	302.55	83.594	67.118	19.392	4.7588e-06	27.106	0.0004869	0.000447	0.00011905	1147.7	5.2524e-06	4.8611e-06	1217.7	247.83	5.1901e-06	4.7964e-06	305.18	87.499	70.396	21.057	4.6024e-06	29.514	246.758	213.514	153.249	72.684	274.610	248.993	72.834	80.294	262.083	203.409	79.689	86.809	87.247	93.488	291.412	93.371	-8191	255	
7677.236	1	1	0	0	0.20136	0.17269	0.1103	0.10641	0.14349	0.2651	0.18436	0.25467	0.21223	0.079814	0.041266	0.19003	0.014574	0.14742	0.18601	0.15707	-1.3958	-1.3917	-2.0458	-1.4646	-1.6729	-2.2479	-1.5187	-1.9896	-1.7958	-1.4146	-2.5271	-1.6167	-1.7583	-2.0875	-1.3438	-2.1792	173.680	246.496	239.369	370.536	171.781	63.823	64.680	339.350	64.331	273.367	337.972	81.957	283.927	409.537	278.362	237.045	0.00026736	0.00069169	0.00013364	1155.4	6.3595e-06	2.0204e-06	1243.2	244.78	3.1393e-06	6.1962e-06	302.78	83.424	66.858	19.449	1.458e-05	27.012	0.00045809	0.00042655	0.0001193	1149.1	4.9657e-06	4.6904e-06	1219.5	248.48	4.9468e-06	4.6842e-06	307.02	87.477	70.059	21.076	4.9414e-06	29.448	249.869	293.100	175.944	72.388	315.161	281.555	73.015	80.383	315.902	134.541	79.669	86.938	87.236	94.391	165.922	93.241	-8191	255	
7677.332	1	1	0	0	0.17207	0.11947	0.12867	0.42869	0.20973	0.1277	0.325	0.15841	0.22497	0.16015	0.14709	0.27453	0.12881	0.20054	0.27103	0.054814	-1.4646	-1.2854	-2.0396	-1.7854	-1.5292	-2.3167	-1.5208	-1.8188	-1.9354	-1.2375	-2.1625	-1.7646	-1.4438	-2.2396	-1.4146	-1.9042	346.932	93.261	318.064	346.687	64.627	416.989	354.410	381.671	272.387	238.430	289.965	409.978	232.531	318.028	260.033	285.695	0.00039257	0.00053508	0.00025883	1152.1	6.9792e-06	1.91e-06	1240.2	241.92	6.7095e-06	1.6678e-06	301.27	83.346	67.016	19.38	1.0088e-05	26.98	0.00044931	0.00042158	0.00012795	1148.1	4.9083e-06	4.6458e-06	1224.5	248.07	4.9114e-06	4.6503e-06	309.01	87.374	69.992	21.054	5.2832e-06	29.342	302.145	312.996	176.411	72.569	107.765	183.009	72.617	80.380	253.382	268.272	79.996	87.022	87.117	93.757	177.394	93.650	-8191	255	
7677.453	1	1	0	0	0.46819	0.050829	0.042102	0.30685	0.079331	0.17565	0.12004	0.19889	0.23324	0.26063	0.16021	0.39012	0.27876	0.036194	0.1488	0.10029	-1.575	-1.5479	-1.9729	-1.8708	-1.3854	-2.3729	-1.7792	-1.8479	-1.9875	-1.3542	-2.0292	-1.8208	-1.5854	-2.3875	-1.3208	-1.7708	281.620	218.837	254.205	404.247	155.309	353.564	362.193	326.584	330.318	407.752	409.274	93.413	232.968	191.822	303.363	272.166	0.0002779	0.00045872	9.8163e-05	1151.5	1.073e-05	4.6569e-06	1243.2	242.62	6.8908e-06	1.0742e-05	302.7	82.757	66.958	19.493	9.1998e-06	26.587	0.00044168	0.00042853	0.0001358	1144.3	4.7885e-06	4.7083e-06	1228.4	247.2	4.804e-06	4.7444e-06	310.31	86.728	69.818	21.188	5.3933e-06	29.024	267.699	174.025	125.502	72.364	327.095	236.538	72.637	80.431	320.312	256.439	79.459	86.795	87.333	94.120	227.111	93.108	-8191	255	
7677.549	1	1	0	0	0.3295	0.15867	0.1588	0.18399	0.22065	0.086668	0.17994	0.34096	0.13118	0.19426	0.12602	0.093246	0.2906	0.23001	0.20123	0.12646	-1.825	-1.1625	-1.9438	-2.1271	-1.3312	-2.3458	-1.45	-1.7229	-2.0896	-1.4833	-2.125	-1.9229	-1.3875	-2.1917	-1.4917	-1.6292	243.678	207.493	230.834	292.413	323.723	259.735	355.547	311.757	308.082	240.651	89.046	281.304	350.090	388.032	162.179	116.123	0.00023719	0.00051045	3.1197e-05	1154.7	4.4823e-06	4.5659e-06	1242.3	243.19	1.6681e-06	6.2731e-06	302.2	83.385	67.201	19.444	3.8343e-06	26.777	0.00043219	0.00044619	0.00013685	1142.4	4.6403e-06	5.0009e-06	1227.4	246.68	4.6577e-06	4.9995e-06	309.57	86.67	69.656	21.361	5.2486e-06	28.976	229.744	334.711	416.103	72.714	142.338	229.838	72.572	80.184	181.343	178.470	79.954	87.043	87.553	94.283	357.101	92.979	-8191	255	
7677.645	1	1	0	0	0.056363	0.037519	0.19621	0.39922	0.13439	0.24088	0.081835	0.18017	0.098803	0.1168	0.092032	0.23785	0.14452	0.15336	0.24355	0.025164	-1.8542	-1.2229	-2.1708	-2.1333	-1.2604	-2.0271	-1.9521	-1.6625	-2.1292	-1.4958	-1.8208	-2.0542	-1.3604	-2.1688	-1.4792	-1.5312	117.833	390.681	267.523	353.912	208.918	293.514	148.947	71.040	305.542	348.969	160.102	65.224	378.079	276.860	363.060	306.449	0.00040977	0.00048343	0.00013827	1157.3	6.5938e-06	4.6492e-06	1247.5	244.53	1.0531e-05	6.1149e-06	303.65	83.589	67.305	19.526	2.6037e-06	26.792	0.00042195	0.00046691	0.00013313	1145.3	4.6321e-06	5.2143e-06	1230.1	247.09	4.6702e-06	5.3314e-06	310.64	86.923	70.081	21.671	5.2953e-06	29.156	261.692	135.878	299.904	72.596	181.146	198.115	72.826	80.407	215.919	205.400	79.785	87.179	87.195	94.010	268.556	93.834	-8191	255	
7677.741	1	1	0	0	0.30566	0.063172	0.13901	0.4435	0.18994	0.28424	0.43243	0.23336	0.12862	0.031899	0.061258	0.24521	0.16792	0.17082	0.30967	0.33054	-1.8708	-1.3583	-1.7771	-2.3312	-1.25	-2.1479	-1.9062	-1.4021	-2.3312	-1.3146	-1.8042	-2.175	-1.5479	-2.2625	-2.0875	-1.425	200.352	259.310	121.716	363.753	190.653	352.076	336.179	295.157	174.281	306.341	387.677	281.930	372.453	337.079	217.423	370.919	0.0006472	0.0008082	7.2486e-05	1157.8	8.1792e-06	9.9338e-07	1243.8	243	7.4272e-06	7.135e-06	303.64	83.311	67.134	19.353	1.1705e-05	26.756	0.00045349	0.00051588	0.00013588	1145.6	5.1133e-06	5.7847e-06	1226.9	247.02	5.2388e-06	5.7788e-06	310.73	86.831	70.739	21.779	5.3607e-06	29.051	279.955	154.535	216.304	72.550	178.299	306.441	72.558	79.985	232.448	300.956	79.709	86.930	87.243	94.110	141.136	92.942	-8191	255	
7677.862	1	1	0	0	0.24552	0.18878	0.10214	0.17998	0.28713	0.20029	0.32573	0.11845	0.18674	0.02742	0.35795	0.16728	0.21512	0.20032	0.15076	0.061416	-1.5958	-1.6396	-1.725	-2.1917	-1.3042	-2.1792	-2.225	-1.3708	-2.2646	-1.7062	-1.5688	-2.5125	-1.4729	-1.8937	-2.05	-1.4604	305.762	348.705	325.663	359.109	245.156	318.028	385.532	332.591	172.637	162.138	399.209	307.272	396.164	84.812	303.971	214.590	0.0005318	0.00049626	5.4368e-05	1156.2	5.0132e-06	4.3402e-06	1240.2	244.03	8.3856e-06	6.1636e-06	306	83.073	66.885	19.365	5.8323e-06	27.058	0.00050247	0.00054126	0.00013846	1148.2	5.7192e-06	5.9891e-06	1230.5	248.31	5.9026e-06	6.0753e-06	312.3	87.235	71.942	21.902	5.5464e-06	29.345	259.804	284.472	320.108	72.728	186.923	170.258	72.670	80.307	246.161	72.855	79.843	87.064	87.265	94.481	266.949	93.268	-8191	255	
7677.934	1	1	0	0	0.19238	0.10343	0.16806	0.40258	0.20364	0.13532	0.45428	0.32536	0.13276	0.21289	0.14653	0.1876	0.19931	0.10425	0.34957	0.1699	-1.7708	-1.7188	-1.4979	-2.5208	-1.5	-1.9979	-2.1479	-1.4771	-2.075	-1.7458	-1.4979	-2.3312	-1.8583	-1.8083	-2.1688	-1.5625	218.313	362.925	195.195	329.236	254.826	403.505	312.634	314.395	97.446	75.420	102.857	266.868	351.190	167.338	148.877	72.515	0.00045018	0.00017271	6.2684e-05	1155.5	1.7153e-06	9.1921e-06	1249.6	244.34	8.4547e-06	9.5791e-06	300.96	83.611	67.569	19.612	3.3768e-06	26.871	0.000546	0.00053298	0.00013708	1149.8	5.9547e-06	5.6731e-06	1228.9	248.44	5.9348e-06	5.5744e-06	309.11	87.47	71.85	21.647	5.132e-06	29.329	265.970	395.733	341.451	72.321	151.404	302.096	72.792	80.388	283.307	145.865	79.453	87.006	86.819	94.440	168.876	93.278	-8191	255	
7678.030	1	1	0	0	0.23824	0.18824	0.26866	0.35947	0.13451	0.14246	0.44388	0.35374	0.42217	0.1476	0.44289	0.14293	0.29951	0.12028	0.19723	0.25825	-1.7021	-2.0854	-1.5042	-2.3812	-1.425	-1.7458	-2.0958	-1.5875	-2.1146	-1.8458	-1.3937	-2.3438	-1.7604	-1.5729	-2.225	-1.3083	407.237	186.042	403.434	420.757	152.237	414.947	283.374	362.590	377.050	100.751	304.293	415.308	421.185	379.809	224.523	94.855	0.00049977	0.00047907	0.00011765	1156.2	5.4771e-06	3.5698e-06	1244.7	243.72	2.8794e-06	2.047e-06	302.4	84.067	67.084	19.393	9.6057e-07	26.89	0.00053122	0.00049162	0.00012789	1151.2	5.8051e-06	5.3159e-06	1226.6	248.81	5.7464e-06	5.3025e-06	307.69	88.019	71.549	21.461	5.0263e-06	29.637	279.627	328.327	208.783	72.695	309.718	242.731	72.788	80.158	155.937	383.002	79.808	86.902	87.062	93.949	138.417	93.384	-8191	255	
