BOXY.EXE: ISS Imagent and Oximeter Data Acquisition Program Version 0.80
Ascii Record File

#ACQ INFORMATION
2  Detector Channels 
16  External MUX Channels 
1  Auxiliary Channels 
5000  Waveform (CCF) Frequency (Hz)
1  Waveforms Skipped 
30  Waveforms Averaged 
1  Cycles Averaged 
16  Acquisitions per Waveform 
10.0806  Updata Rate (Hz) 

#FILE INFORMATION
TRUE -- External MUX Channel results are PARSED.
FALSE -- AC DC and Phase are NOT grouped.
TRUE -- Companion Program Settings File CREATED.
FALSE -- AC data not excluded
FALSE -- DC data not excluded
FALSE -- Phase data not excluded
FALSE -- Auxillary Chn. data not excluded
Tab delimiters

#CALIBRATION STATE
TRUE -- Waveform Calibration Values APPLIED.


#AUX CALIBRATION VALUES
Val Type	aux-1	

Term	1.0000e+00	
Factor	0.0000e+00	


#WF CALIBRATION VALUES
A = Detector Channel
Val Type	A-AC1	A-AC2	A-AC3	A-AC4	A-AC5	A-AC6	A-AC7	A-AC8	A-AC9	A-AC10	A-AC11	A-AC12	A-AC13	A-AC14	A-AC15	A-AC16	A-DC1	A-DC2	A-DC3	A-DC4	A-DC5	A-DC6	A-DC7	A-DC8	A-DC9	A-DC10	A-DC11	A-DC12	A-DC13	A-DC14	A-DC15	A-DC16	A-Ph1	A-Ph2	A-Ph3	A-Ph4	A-Ph5	A-Ph6	A-Ph7	A-Ph8	A-Ph9	A-Ph10	A-Ph11	A-Ph12	A-Ph13	A-Ph14	A-Ph15	A-Ph16	

Term	0.00000e+00	0.00000e+00	0.00000e+00	0.00000e+00	0.00000e+00	0.00000e+00	0.00000e+00	0.00000e+00	0.00000e+00	0.00000e+00	0.00000e+00	0.00000e+00	0.00000e+00	0.00000e+00	0.00000e+00	0.00000e+00	0.00000e+00	0.00000e+00	0.00000e+00	0.00000e+00	0.00000e+00	0.00000e+00	0.00000e+00	0.00000e+00	0.00000e+00	0.00000e+00	0.00000e+00	0.00000e+00	0.00000e+00	0.00000e+00	0.00000e+00	0.00000e+00	0.00000e+00	0.00000e+00	0.00000e+00	0.00000e+00	0.00000e+00	0.00000e+00	0.00000e+00	0.00000e+00	0.00000e+00	0.00000e+00	0.00000e+00	0.00000e+00	0.00000e+00	0.00000e+00	0.00000e+00	0.00000e+00	
Factor	1.00000e+00	1.00000e+00	1.00000e+00	1.00000e+00	1.00000e+00	1.00000e+00	1.00000e+00	1.00000e+00	1.00000e+00	1.00000e+00	1.00000e+00	1.00000e+00	1.00000e+00	1.00000e+00	1.00000e+00	1.00000e+00	1.00000e+00	1.00000e+00	1.00000e+00	1.00000e+00	1.00000e+00	1.00000e+00	1.00000e+00	1.00000e+00	1.00000e+00	1.00000e+00	1.00000e+00	1.00000e+00	1.00000e+00	1.00000e+00	1.00000e+00	1.00000e+00	X	X	X	X	X	X	X	X	X	X	X	X	X	X	X	X	

B = Detector Channel
Val Type	B-AC1	B-AC2	B-AC3	B-AC4	B-AC5	B-AC6	B-AC7	B-AC8	B-AC9	B-AC10	B-AC11	B-AC12	B-AC13	B-AC14	B-AC15	B-AC16	B-DC1	B-DC2	B-DC3	B-DC4	B-DC5	B-DC6	B-DC7	B-DC8	B-DC9	B-DC10	B-DC11	B-DC12	B-DC13	B-DC14	B-DC15	B-DC16	B-Ph1	B-Ph2	B-Ph3	B-Ph4	B-Ph5	B-Ph6	B-Ph7	B-Ph8	B-Ph9	B-Ph10	B-Ph11	B-Ph12	B-Ph13	B-Ph14	B-Ph15	B-Ph16	

Term	0.00000e+00	0.00000e+00	0.00000e+00	0.00000e+00	0.00000e+00	0.00000e+00	0.00000e+00	0.00000e+00	0.00000e+00	0.00000e+00	0.00000e+00	0.00000e+00	0.00000e+00	0.00000e+00	0.00000e+00	0.00000e+00	0.00000e+00	0.00000e+00	0.00000e+00	0.00000e+00	0.00000e+00	0.00000e+00	0.00000e+00	0.00000e+00	0.00000e+00	0.00000e+00	0.00000e+00	0.00000e+00	0.00000e+00	0.00000e+00	0.00000e+00	0.00000e+00	-8.19620e+01	-1.31387e+02	-1.23947e+02	-1.82180e+02	-6.73124e+01	-7.06461e+01	-1.57453e+02	-1.62015e+02	-5.26248e+01	-5.03545e+01	-1.74207e+02	-1.70246e+02	-1.81558e+02	-1.76604e+02	-6.38946e+01	-1.49731e+02	
Factor	1.74277e-05	1.42447e-04	4.46277e-05	1.46431e-01	1.15311e-06	1.52853e-06	1.67333e-01	5.49476e-02	1.18619e-06	1.77604e-06	9.88515e-02	2.93754e-02	2.77491e-02	9.55186e-03	1.29905e-06	1.36949e-02	3.85813e-06	4.49126e-06	1.24776e-06	7.72237e-02	4.81768e-08	4.92794e-08	8.25847e-02	2.90232e-02	4.80511e-08	4.91379e-08	5.01668e-02	1.50227e-02	1.47801e-02	5.06767e-03	4.82509e-08	7.00746e-03	X	X	X	X	X	X	X	X	X	X	X	X	X	X	X	X	



#DISTANCE SETTINGS
A = Detector Channel
A-1	A-2	A-3	A-4	A-5	A-6	A-7	A-8	A-9	A-10	A-11	A-12	A-13	A-14	A-15	A-16	

2.5000e+00	3.0000e+00	2.5000e+00	3.0000e+00	2.0000e+00	3.0000e+00	1.5000e+00	3.0000e+00	3.0000e+00	3.0000e+00	3.0000e+00	3.0000e+00	3.0000e+00	3.0000e+00	1.5000e+00	3.0000e+00	

B = Detector Channel
B-1	B-2	B-3	B-4	B-5	B-6	B-7	B-8	B-9	B-10	B-11	B-12	B-13	B-14	B-15	B-16	

1.0000e+01	1.0000e+01	1.0000e+01	1.4400e+00	1.0000e+01	1.0000e+01	1.5100e+00	1.9400e+00	1.0000e+01	1.0000e+01	1.9900e+00	2.4900e+00	2.4100e+00	2.9000e+00	1.0000e+01	2.9800e+00	




#DATA BEGINS
time	group	step	mark	flag	A-AC1	A-AC2	A-AC3	A-AC4	A-AC5	A-AC6	A-AC7	A-AC8	A-AC9	A-AC10	A-AC11	A-AC12	A-AC13	A-AC14	A-AC15	A-AC16	A-DC1	A-DC2	A-DC3	A-DC4	A-DC5	A-DC6	A-DC7	A-DC8	A-DC9	A-DC10	A-DC11	A-DC12	A-DC13	A-DC14	A-DC15	A-DC16	A-Ph1	A-Ph2	A-Ph3	A-Ph4	A-Ph5	A-Ph6	A-Ph7	A-Ph8	A-Ph9	A-Ph10	A-Ph11	A-Ph12	A-Ph13	A-Ph14	A-Ph15	A-Ph16	B-AC1	B-AC2	B-AC3	B-AC4	B-AC5	B-AC6	B-AC7	B-AC8	B-AC9	B-AC10	B-AC11	B-AC12	B-AC13	B-AC14	B-AC15	B-AC16	B-DC1	B-DC2	B-DC3	B-DC4	B-DC5	B-DC6	B-DC7	B-DC8	B-DC9	B-DC10	B-DC11	B-DC12	B-DC13	B-DC14	B-DC15	B-DC16	B-Ph1	B-Ph2	B-Ph3	B-Ph4	B-Ph5	B-Ph6	B-Ph7	B-Ph8	B-Ph9	B-Ph10	B-Ph11	B-Ph12	B-Ph13	B-Ph14	B-Ph15	B-Ph16	aux-1	digaux	

1694.880	1	1	0	768	0.38263	0.13385	0.42059	0.18189	0.22816	0.28593	0.19886	0.20802	0.18146	0.048806	0.14054	0.18164	0.24305	0.24969	0.090512	0.29544	-0.97083	-2.2354	-1.2687	-1.8833	-1.8667	-1.3292	-2.1813	-1.8354	-1.2604	-2.2354	-1.1458	-1.8458	-2.075	-1.3292	-1.8479	-1.8333	211.111	351.918	144.420	300.190	108.530	70.759	255.699	276.287	400.989	167.803	231.963	350.384	340.209	145.039	52.151	219.511	0.00018029	0.00025754	0.00013312	799.64	3.312e-06	2.8101e-06	907.12	183.46	1.7839e-06	3.2601e-06	235.71	67.441	51.054	14.949	2.2737e-06	21.375	8.9927e-05	7.1785e-05	2.1571e-05	785.69	8.4209e-07	8.0058e-07	892.16	182.03	8.415e-07	7.7873e-07	232.05	67.127	50.952	15.093	7.9724e-07	21.53	198.578	135.840	150.935	54.037	213.420	211.289	54.759	61.705	200.908	195.845	60.878	68.564	68.553	75.439	207.426	75.377	-8191	255	
1694.975	1	1	0	0	0.062106	0.067551	0.058989	0.10621	0.14087	0.29968	0.12353	0.34345	0.16664	0.057131	0.10183	0.12958	0.12969	0.089279	0.18492	0.13674	-0.92917	-1.9708	-1.4188	-1.7021	-2.0938	-1.0979	-2.1417	-1.7229	-1.2729	-2.0771	-1.5312	-1.5396	-2.0583	-1.3208	-1.8417	-1.8854	186.953	100.801	235.947	54.465	368.518	138.071	170.127	302.316	325.122	291.900	331.112	57.037	271.935	148.149	267.675	259.690	0.00017581	0.00035019	9.625e-05	799.82	1.5083e-06	2.6244e-06	911.12	183.11	2.6852e-06	9.9259e-07	235.19	66.657	51.233	14.989	1.1463e-06	21.563	8.9332e-05	7.2103e-05	1.9985e-05	786.17	8.3045e-07	8.1506e-07	892.63	182.12	8.8224e-07	7.3205e-07	231.92	67.056	50.939	15.051	7.9513e-07	21.602	206.571	107.454	137.364	53.807	208.128	187.869	54.038	61.791	232.777	224.061	61.189	68.802	68.944	75.858	171.291	75.790	-8191	255	
1695.073	1	1	0	0	0.24944	0.29255	0.21645	0.055083	0.24723	0.067947	0.26972	0.10312	0.12559	0.071614	0.098777	0.13731	0.17141	0.071332	0.14533	0.30933	-0.80833	-1.9875	-1.2812	-1.5396	-2	-1.1063	-1.9042	-1.8354	-1.2667	-1.8146	-1.6063	-1.3	-2.0687	-1.1917	-1.8312	-1.9062	129.980	339.562	353.875	305.461	172.870	179.801	317.426	289.722	219.526	303.468	87.568	402.413	366.856	244.323	353.707	83.784	0.0001578	0.0002316	9.0197e-05	800.89	2.0978e-06	2.1116e-06	908.26	184.29	1.3454e-06	3.343e-06	233.85	67.229	51.213	15.024	1.5604e-06	21.368	9.6293e-05	7.5809e-05	2.0804e-05	784.85	8.9759e-07	8.3426e-07	889.9	182.11	8.9035e-07	8.0658e-07	230.99	66.929	50.789	15.025	8.463e-07	21.514	202.854	158.915	146.625	54.095	219.831	194.283	54.228	61.873	222.346	232.313	60.847	68.675	68.331	75.607	192.639	75.053	-8191	255	
1695.167	1	1	0	0	0.23428	0.061401	0.23536	0.10741	0.15424	0.27163	0.20544	0.18661	0.21741	0.25014	0.2305	0.23529	0.20432	0.12703	0.047226	0.32211	-0.74375	-1.9021	-1.5896	-1.5	-2.1125	-1.2146	-1.6917	-1.9083	-1.2125	-1.8875	-1.5958	-1.2208	-1.9813	-1.1833	-1.5104	-1.9104	287.831	55.678	163.322	388.295	57.252	385.627	233.634	334.726	113.995	164.365	62.515	75.853	332.275	317.442	265.170	71.721	0.00016329	0.00023061	3.5006e-05	797.85	2.2152e-06	2.872e-06	900.06	183.49	2.8547e-06	3.4508e-06	232.88	67.192	51.28	15.007	2.1907e-06	21.518	9.876e-05	7.4293e-05	2.1355e-05	782.17	8.8615e-07	8.1414e-07	886.63	181.85	8.9105e-07	7.9706e-07	231.15	66.876	50.811	15.075	8.3132e-07	21.537	202.957	124.463	127.230	54.130	181.162	195.120	54.312	61.763	218.641	239.577	61.200	68.402	68.480	75.245	210.265	74.592	-8191	255	
1695.263	1	1	0	0	0.1535	0.21666	0.32271	0.1592	0.16292	0.21118	0.13746	0.079596	0.1822	0.086304	0.36161	0.18711	0.1847	0.20264	0.074358	0.14046	-0.81667	-1.725	-1.8312	-1.3354	-2.0417	-1.3604	-1.6917	-2.1208	-1.1396	-1.8104	-1.775	-1.4542	-2.1833	-1.4417	-1.6042	-2.1604	121.007	221.095	285.515	244.888	398.229	255.068	51.502	219.130	237.503	100.633	322.034	52.255	146.845	88.594	238.251	58.709	0.00014391	0.00010641	6.7041e-05	797.59	2.9375e-06	1.8304e-06	902.07	182.67	3.3626e-06	2.592e-06	233.33	66.591	51.157	14.958	2.1979e-06	21.484	9.5633e-05	7.3114e-05	2.0765e-05	782	8.6678e-07	8.0007e-07	885.64	181.34	9.0426e-07	8.2654e-07	231.44	66.822	50.81	15.029	8.1564e-07	21.49	207.446	111.369	121.233	54.058	178.457	169.094	54.251	61.625	207.860	196.455	61.262	68.584	68.880	75.903	185.640	75.573	-8191	255	
1695.359	1	1	0	0	0.17042	0.097536	0.11598	0.089211	0.20897	0.083453	0.11368	0.098112	0.19539	0.19032	0.32067	0.13028	0.084593	0.16157	0.21498	0.25377	-0.83125	-1.8979	-1.6896	-1.2979	-1.9979	-1.6812	-1.3375	-2.1333	-1.2396	-1.8167	-1.9937	-1.2188	-1.9917	-1.4167	-1.2208	-2.1854	240.656	237.544	142.268	259.042	172.729	314.781	359.187	71.433	229.464	248.476	81.377	307.593	107.707	345.841	376.868	180.227	0.00015115	9.1597e-05	8.8364e-05	793.24	2.4545e-06	2.815e-06	904.37	182.61	3.5771e-06	3.7844e-06	233.95	66.866	50.967	14.868	2.4583e-06	21.468	8.8616e-05	7.1196e-05	1.9834e-05	779.6	8.2121e-07	7.7451e-07	888.54	181.66	8.9435e-07	7.7546e-07	230.97	66.839	50.826	14.972	8.2238e-07	21.504	201.153	100.262	157.568	54.037	226.202	185.373	54.067	61.639	246.782	191.739	61.105	68.651	68.929	75.635	214.359	75.144	-8191	255	
1695.480	1	1	0	0	0.21962	0.17296	0.14816	0.23519	0.16492	0.16059	0.13439	0.08092	0.1425	0.16049	0.082499	0.10999	0.092038	0.25545	0.11831	0.35001	-0.94167	-1.4667	-1.9792	-1.0979	-2.0146	-1.5187	-1.3687	-2.1833	-1.4708	-1.7062	-2.1646	-1.0938	-1.8937	-1.9292	-1.3312	-2.2021	189.530	136.302	345.546	76.901	296.433	230.268	217.536	189.879	272.312	323.083	125.168	357.151	138.458	212.903	121.875	51.151	0.00015713	0.00018944	8.7512e-05	792.56	1.9471e-06	2.8499e-06	901.42	183.19	1.9991e-06	4.4706e-06	235.15	66.384	51.146	14.975	2.8611e-06	21.522	9.0095e-05	7.3881e-05	2.006e-05	779.76	8.2794e-07	7.9545e-07	885.43	181.59	8.6202e-07	8.4179e-07	231.45	66.618	50.847	15.016	8.3464e-07	21.482	202.125	148.726	137.095	54.076	221.802	192.155	54.132	61.666	232.996	226.025	61.014	68.423	68.410	75.398	217.976	74.853	-8191	255	
1695.576	1	1	0	0	0.059228	0.14432	0.16842	0.20444	0.31558	0.097237	0.11884	0.20157	0.05988	0.31483	0.10467	0.30649	0.10784	0.081007	0.21827	0.14326	-1.0688	-1.4896	-2.0312	-1.2375	-1.7896	-1.7729	-1.3542	-2.325	-1.5646	-1.4021	-2.1104	-1.3479	-1.9833	-1.7625	-1.0479	-2.05	123.762	60.497	125.512	356.744	229.640	60.584	63.930	361.463	383.120	209.683	110.018	385.877	360.426	387.662	316.479	403.644	0.00015526	0.00015068	0.0001107	791.84	2.3397e-06	1.4492e-06	903.94	181.74	2.4589e-06	4.6325e-06	233.27	66.609	50.625	14.872	5.7431e-07	21.292	9.4331e-05	7.3975e-05	1.9793e-05	776.82	8.7893e-07	8.0531e-07	884.96	181.06	9.0396e-07	8.1999e-07	230.21	66.617	50.462	14.966	9.0661e-07	21.388	203.191	128.173	163.506	53.934	202.437	150.920	54.196	61.771	194.145	195.132	61.181	68.636	68.973	75.522	141.551	75.168	-8191	255	
1695.672	1	1	0	0	0.024606	0.14086	0.20473	0.092556	0.14638	0.1727	0.27429	0.20279	0.034804	0.081056	0.23956	0.24688	0.30272	0.040846	0.062188	0.050493	-1.1667	-1.5438	-2.0896	-1.1979	-1.7146	-2.0854	-1.6063	-1.9188	-1.5187	-1.25	-2.1937	-1.3229	-1.7375	-1.9188	-1.25	-1.9854	299.671	114.878	252.251	62.814	94.709	392.634	335.415	178.159	201.158	162.749	332.194	322.839	379.471	332.391	390.997	102.506	0.0001732	0.00016907	6.9534e-05	785	1.6403e-06	3.6281e-06	896.52	182.77	2.5973e-06	3.3326e-06	233.77	66.722	50.216	14.719	2.3821e-06	21.317	9.4701e-05	7.9982e-05	2.1747e-05	773.17	8.7732e-07	8.2409e-07	880.44	181.02	8.9575e-07	7.9747e-07	229.67	66.521	50.31	14.867	8.647e-07	21.345	199.700	121.610	166.252	53.949	220.655	193.039	54.335	61.924	229.429	217.210	60.834	68.032	68.753	76.054	174.654	75.205	-8191	255	
1695.768	1	1	0	0	0.05068	0.13395	0.14897	0.12725	0.061227	0.15969	0.1732	0.28617	0.26442	0.27234	0.093076	0.12959	0.10556	0.16968	0.1372	0.24245	-1.2479	-1.1604	-2.0563	-1.4375	-1.7563	-2.0521	-1.3917	-2.025	-1.7896	-1.375	-2.2854	-1.3958	-1.5625	-1.8083	-0.95208	-1.9125	136.200	242.716	176.737	55.006	117.499	60.914	154.942	54.224	176.467	224.569	96.193	177.611	397.914	385.611	342.850	155.578	0.00015417	0.00034043	8.161e-05	786.34	2.6338e-06	2.2933e-06	895.16	182.41	2.5304e-06	3.5994e-06	233.17	65.919	50.635	14.953	3.0687e-06	21.296	9.2169e-05	7.7409e-05	2.078e-05	772.73	8.6096e-07	8.2163e-07	879.67	180.6	8.5311e-07	8.162e-07	229.57	66.199	50.371	14.958	8.7575e-07	21.35	206.739	133.492	115.694	53.871	186.248	250.458	54.435	61.710	242.536	197.449	60.728	68.594	68.979	75.923	178.188	75.578	-8191	255	
1695.865	1	1	0	0	0.10144	0.1879	0.092718	0.10532	0.2271	0.36887	0.13835	0.20074	0.10313	0.1721	0.21777	0.16678	0.25195	0.10352	0.15583	0.2497	-1.3417	-1.1771	-2.1562	-1.4625	-1.4646	-1.9792	-1.3667	-1.9208	-1.8208	-1.2979	-2.1688	-1.525	-1.3667	-2.2438	-1.2	-1.8167	51.441	179.721	200.430	191.630	90.571	176.841	108.469	72.471	200.823	116.659	126.373	336.461	243.382	257.503	358.556	73.926	0.00015951	0.00013181	8.9776e-05	787.94	1.9033e-06	1.9959e-06	891.03	183.12	3.4445e-06	3.1685e-06	232.67	66.555	50.011	14.916	1.4926e-06	21.41	9.2306e-05	7.6904e-05	2.0692e-05	773.69	9.3935e-07	7.9145e-07	878.43	180.8	8.9335e-07	8.7936e-07	229.68	66.272	50.132	14.917	8.3414e-07	21.385	205.438	122.191	133.053	53.850	165.522	199.481	54.292	62.005	234.716	215.580	61.434	68.325	69.140	76.102	187.259	75.211	-8191	255	
1695.959	1	1	0	0	0.29859	0.20349	0.20726	0.069881	0.31012	0.28274	0.11627	0.18697	0.13563	0.27575	0.036335	0.15666	0.22382	0.31495	0.0944	0.33668	-1.3333	-1	-2.0708	-1.4062	-1.2396	-2.0708	-1.4125	-1.7979	-2.0333	-1.1417	-1.9854	-1.6396	-1.3625	-2.1875	-1.3271	-1.6417	64.966	156.111	80.905	235.621	383.305	228.906	79.738	47.128	206.512	54.514	235.743	393.506	201.946	293.179	392.209	152.590	0.0001632	0.00019684	3.4719e-05	783.1	2.3403e-06	3.1683e-06	893.46	182.09	2.777e-06	2.6045e-06	233.9	66.192	50.328	14.868	2.4249e-06	21.293	9.3873e-05	7.9421e-05	2.0445e-05	770.85	8.8946e-07	8.0192e-07	878.68	180.15	8.8314e-07	8.5131e-07	229.8	66.223	50.162	14.924	8.4117e-07	21.358	205.374	128.787	90.297	54.124	207.969	203.033	54.326	61.852	197.722	233.315	61.136	68.274	68.634	75.878	217.708	75.351	-8191	255	
1696.055	1	1	0	0	0.096584	0.10863	0.17503	0.13883	0.096717	0.21319	0.35713	0.36842	0.049646	0.097795	0.35447	0.29135	0.14196	0.13471	0.021141	0.093016	-1.5125	-1.1812	-2.0438	-1.8188	-1.3583	-2.1875	-1.5729	-1.5458	-1.8958	-0.98125	-1.9833	-1.6292	-1.2458	-1.8646	-1.3875	-1.5708	147.768	216.989	228.064	395.355	370.432	328.473	85.188	64.955	331.499	296.093	350.099	345.866	338.986	269.211	389.568	108.727	0.00014783	0.00017006	7.9228e-05	789.05	1.6465e-06	2.9617e-06	893.98	182.3	1.8888e-06	1.4114e-06	233.73	66.416	50.95	14.887	3.3159e-06	21.507	9.3053e-05	7.4489e-05	2.1207e-05	771.78	8.7923e-07	7.8919e-07	876.84	180.08	8.7333e-07	8.5623e-07	229.85	66.33	50.407	14.919	8.5273e-07	21.411	190.223	114.196	158.957	54.020	226.754	165.752	54.073	61.819	200.342	215.772	61.302	68.386	68.999	75.367	212.393	75.476	-8191	255	
1696.176	1	1	0	0	0.11172	0.095231	0.24481	0.28614	0.24902	0.093816	0.33269	0.10879	0.09478	0.092235	0.16009	0.12584	0.03166	0.057345	0.28208	0.23422	-1.6083	-1.1938	-1.8792	-1.8396	-1.1146	-2.1958	-1.6229	-1.5354	-2.0729	-1.2708	-1.9292	-1.9667	-1.3188	-2.1229	-1.5312	-1.3687	286.017	388.744	125.345	365.153	199.026	126.310	315.888	384.384	340.047	309.161	74.044	108.294	281.620	132.210	201.117	185.689	0.00015514	0.00030603	6.7399e-05	781.92	2.4877e-06	1.8774e-06	893.6	181.46	1.6909e-06	1.1647e-06	231.95	66.074	50.297	14.804	1.9903e-06	21.246	9.1888e-05	7.8635e-05	2.0806e-05	769.88	9.1385e-07	8.1178e-07	875.38	180.05	8.5841e-07	8.4855e-07	229.79	66.172	50.21	14.875	8.7575e-07	21.344	202.466	123.924	137.309	53.960	223.010	145.784	54.086	61.911	192.644	193.516	61.075	68.130	68.456	76.115	216.748	74.883	-8191	255	
1696.272	1	1	0	0	0.1924	0.077189	0.41577	0.096578	0.17722	0.28776	0.10603	0.19798	0.18396	0.084419	0.20817	0.18546	0.16171	0.021588	0.090574	0.32909	-1.7333	-1.2958	-1.8146	-1.9542	-0.97083	-2.1729	-1.6979	-1.475	-2.0187	-1.2375	-1.6812	-1.9833	-1.2854	-2.0917	-1.5604	-1.3104	391.231	331.727	51.731	228.444	109.871	368.527	311.537	317.378	134.865	101.372	268.630	369.406	293.635	77.910	110.061	377.068	0.0001524	0.00028993	5.1148e-05	785.93	1.9459e-06	4.4237e-07	886.68	181.13	2.7688e-06	4.6088e-06	233.54	66.391	50.183	14.817	2.2989e-06	21.175	8.9284e-05	7.826e-05	1.9899e-05	768.16	9.3232e-07	7.934e-07	874.78	180.02	8.6542e-07	8.6063e-07	229.37	66.287	50.105	14.906	8.4117e-07	21.286	203.967	137.448	162.142	53.727	212.884	169.683	54.004	62.150	223.135	196.044	60.893	68.847	68.678	75.885	213.639	75.339	-8191	255	
1696.368	1	1	0	0	0.0050311	0.38819	0.13615	0.10306	0.28737	0.31497	0.035425	0.16886	0.18455	0.0827	0.17244	0.30182	0.037766	0.3607	0.30523	0.14781	-1.8146	-1.4813	-1.4312	-2.0812	-1.2729	-1.8646	-1.8062	-1.2812	-1.9875	-1.3937	-1.6521	-1.95	-1.125	-1.9188	-1.7563	-1.2458	148.392	212.749	160.647	47.117	110.108	260.536	382.666	382.415	44.864	75.570	91.593	339.454	177.524	65.395	162.612	324.045	0.00016194	0.00022813	8.617e-05	785.56	3.0027e-06	2.4092e-06	893.51	181.7	3.3837e-06	2.4239e-06	233.86	66.587	50.574	14.879	2.132e-06	21.482	9.0457e-05	7.6632e-05	2.0583e-05	769.08	8.8886e-07	7.779e-07	877.33	180.28	8.5141e-07	8.2838e-07	229.56	66.269	50.188	14.933	7.9011e-07	21.407	207.640	150.775	97.792	53.831	207.255	214.108	54.319	61.840	237.349	212.846	60.990	68.305	68.708	76.084	198.829	74.917	-8191	255	
1696.440	1	1	0	0	0.093941	0.1476	0.023275	0.14055	0.23789	0.084974	0.36043	0.12746	0.06857	0.20753	0.087335	0.10736	0.20191	0.164	0.12626	0.3043	-1.8146	-1.3687	-1.4125	-2.1958	-1.2896	-1.7667	-1.9896	-1.1729	-2.0417	-1.3167	-1.2875	-2.0521	-1.2458	-1.9042	-1.8292	-1.0417	175.498	373.074	69.576	312.421	109.200	312.171	295.770	381.933	256.755	115.552	371.079	316.242	297.203	120.545	323.608	375.850	0.00017195	0.00017501	4.6333e-05	784.5	1.8404e-06	2.4325e-06	891.88	181.41	3.1855e-06	2.2087e-06	232.42	66.705	50.312	14.878	1.7544e-06	21.366	8.9372e-05	7.3423e-05	2.1007e-05	770.66	8.985e-07	8.0284e-07	875.41	180.27	8.0335e-07	8.2777e-07	229.51	66.024	50.122	14.893	8.1755e-07	21.313	196.174	111.761	107.623	53.942	211.544	254.603	54.545	61.737	227.689	115.302	61.231	68.620	68.534	75.573	205.441	75.070	-8191	255	
1696.560	1	1	0	0	0.067092	0.072371	0.13773	0.29235	0.19362	0.20803	0.10172	0.045872	0.1794	0.28906	0.080537	0.165	0.30518	0.14898	0.23461	0.12024	-1.8042	-1.4125	-1.3833	-2.2042	-1.0812	-1.6854	-2.2354	-1.2563	-1.9021	-1.55	-1.4229	-2.0979	-1.3854	-1.7062	-1.8	-1.1521	367.880	75.245	350.740	356.819	231.427	273.349	328.543	309.044	110.285	211.934	359.182	392.514	132.293	338.940	115.332	269.283	0.00014632	0.00033695	3.8704e-05	786.53	2.1422e-06	2.9988e-06	890.64	182.22	2.1013e-06	2.5339e-06	231.69	66.393	50.214	14.788	1.3416e-06	21.221	8.9444e-05	7.7718e-05	2.0643e-05	770.28	8.6678e-07	7.7646e-07	875.52	180.38	8.3669e-07	8.0381e-07	229.45	66.295	50.021	14.892	8.3564e-07	21.317	204.292	116.615	92.272	53.733	214.000	193.358	54.306	61.352	186.983	218.271	60.867	68.092	68.629	75.715	236.695	75.097	-8191	255	
