BOXY.EXE: ISS Imagent and Oximeter Data Acquisition Program Version 0.80
Ascii Record File

#ACQ INFORMATION
2  Detector Channels 
16  External MUX Channels 
1  Auxiliary Channels 
5000  Waveform (CCF) Frequency (Hz)
1  Waveforms Skipped 
30  Waveforms Averaged 
1  Cycles Averaged 
16  Acquisitions per Waveform 
10.0806  Updata Rate (Hz) 

#FILE INFORMATION
TRUE -- External MUX Channel results are PARSED.
FALSE -- AC DC and Phase are NOT grouped.
TRUE -- Companion Program Settings File CREATED.
FALSE -- AC data not excluded
FALSE -- DC data not excluded
FALSE -- Phase data not excluded
FALSE -- Auxillary Chn. data not excluded
Tab delimiters

#CALIBRATION STATE
TRUE -- Waveform Calibration Values APPLIED.


#AUX CALIBRATION VALUES
Val Type	aux-1	

Term	1.0000e+00	
Factor	0.0000e+00	


#WF CALIBRATION VALUES
A = Detector Channel
Val Type	A-AC1	A-AC2	A-AC3	A-AC4	A-AC5	A-AC6	A-AC7	A-AC8	A-AC9	A-AC10	A-AC11	A-AC12	A-AC13	A-AC14	A-AC15	A-AC16	A-DC1	A-DC2	A-DC3	A-DC4	A-DC5	A-DC6	A-DC7	A-DC8	A-DC9	A-DC10	A-DC11	A-DC12	A-DC13	A-DC14	A-DC15	A-DC16	A-Ph1	A-Ph2	A-Ph3	A-Ph4	A-Ph5	A-Ph6	A-Ph7	A-Ph8	A-Ph9	A-Ph10	A-Ph11	A-Ph12	A-Ph13	A-Ph14	A-Ph15	A-Ph16	

Term	0.00000e+00	0.00000e+00	0.00000e+00	0.00000e+00	0.00000e+00	0.00000e+00	0.00000e+00	0.00000e+00	0.00000e+00	0.00000e+00	0.00000e+00	0.00000e+00	0.00000e+00	0.00000e+00	0.00000e+00	0.00000e+00	0.00000e+00	0.00000e+00	0.00000e+00	0.00000e+00	0.00000e+00	0.00000e+00	0.00000e+00	0.00000e+00	0.00000e+00	0.00000e+00	0.00000e+00	0.00000e+00	0.00000e+00	0.00000e+00	0.00000e+00	0.00000e+00	0.00000e+00	0.00000e+00	0.00000e+00	0.00000e+00	0.00000e+00	0.00000e+00	0.00000e+00	0.00000e+00	0.00000e+00	0.00000e+00	0.00000e+00	0.00000e+00	0.00000e+00	0.00000e+00	0.00000e+00	0.00000e+00	
Factor	1.00000e+00	1.00000e+00	1.00000e+00	1.00000e+00	1.00000e+00	1.00000e+00	1.00000e+00	1.00000e+00	1.00000e+00	1.00000e+00	1.00000e+00	1.00000e+00	1.00000e+00	1.00000e+00	1.00000e+00	1.00000e+00	1.00000e+00	1.00000e+00	1.00000e+00	1.00000e+00	1.00000e+00	1.00000e+00	1.00000e+00	1.00000e+00	1.00000e+00	1.00000e+00	1.00000e+00	1.00000e+00	1.00000e+00	1.00000e+00	1.00000e+00	1.00000e+00	X	X	X	X	X	X	X	X	X	X	X	X	X	X	X	X	

B = Detector Channel
Val Type	B-AC1	B-AC2	B-AC3	B-AC4	B-AC5	B-AC6	B-AC7	B-AC8	B-AC9	B-AC10	B-AC11	B-AC12	B-AC13	B-AC14	B-AC15	B-AC16	B-DC1	B-DC2	B-DC3	B-DC4	B-DC5	B-DC6	B-DC7	B-DC8	B-DC9	B-DC10	B-DC11	B-DC12	B-DC13	B-DC14	B-DC15	B-DC16	B-Ph1	B-Ph2	B-Ph3	B-Ph4	B-Ph5	B-Ph6	B-Ph7	B-Ph8	B-Ph9	B-Ph10	B-Ph11	B-Ph12	B-Ph13	B-Ph14	B-Ph15	B-Ph16	

Term	0.00000e+00	0.00000e+00	0.00000e+00	0.00000e+00	0.00000e+00	0.00000e+00	0.00000e+00	0.00000e+00	0.00000e+00	0.00000e+00	0.00000e+00	0.00000e+00	0.00000e+00	0.00000e+00	0.00000e+00	0.00000e+00	0.00000e+00	0.00000e+00	0.00000e+00	0.00000e+00	0.00000e+00	0.00000e+00	0.00000e+00	0.00000e+00	0.00000e+00	0.00000e+00	0.00000e+00	0.00000e+00	0.00000e+00	0.00000e+00	0.00000e+00	0.00000e+00	-2.62276e+01	-1.15878e+02	-1.08409e+02	-1.83494e+02	-6.33589e+01	-7.54221e+01	-1.57928e+02	-1.62015e+02	-5.48854e+01	-9.11149e+01	-1.72828e+02	-1.71611e+02	-1.77707e+02	-1.75907e+02	-7.81365e+01	-1.49620e+02	
Factor	2.61661e-05	9.26201e-05	2.46974e-05	1.98797e-01	9.62366e-07	8.91135e-07	1.79104e-01	5.14304e-02	1.05170e-06	1.02584e-06	1.02012e-01	2.95886e-02	2.20963e-02	8.96045e-03	1.07712e-06	1.32210e-02	5.86835e-07	5.95880e-07	1.65773e-07	9.66592e-02	6.53574e-09	6.52599e-09	8.24644e-02	2.52020e-02	6.53566e-09	6.54143e-09	4.62961e-02	1.36781e-02	1.07972e-02	4.30996e-03	6.51163e-09	6.04044e-03	X	X	X	X	X	X	X	X	X	X	X	X	X	X	X	X	



#DISTANCE SETTINGS
A = Detector Channel
A-1	A-2	A-3	A-4	A-5	A-6	A-7	A-8	A-9	A-10	A-11	A-12	A-13	A-14	A-15	A-16	

2.5000e+00	3.0000e+00	2.5000e+00	3.0000e+00	2.0000e+00	3.0000e+00	1.5000e+00	3.0000e+00	3.0000e+00	3.0000e+00	3.0000e+00	3.0000e+00	3.0000e+00	3.0000e+00	1.5000e+00	3.0000e+00	

B = Detector Channel
B-1	B-2	B-3	B-4	B-5	B-6	B-7	B-8	B-9	B-10	B-11	B-12	B-13	B-14	B-15	B-16	

1.0000e+01	1.0000e+01	1.0000e+01	1.4400e+00	1.0000e+01	1.0000e+01	1.5100e+00	1.9400e+00	1.0000e+01	1.0000e+01	1.9900e+00	2.4900e+00	2.4100e+00	2.9000e+00	1.0000e+01	2.9800e+00	




#DATA BEGINS
time	group	step	mark	flag	A-AC1	A-AC2	A-AC3	A-AC4	A-AC5	A-AC6	A-AC7	A-AC8	A-AC9	A-AC10	A-AC11	A-AC12	A-AC13	A-AC14	A-AC15	A-AC16	A-DC1	A-DC2	A-DC3	A-DC4	A-DC5	A-DC6	A-DC7	A-DC8	A-DC9	A-DC10	A-DC11	A-DC12	A-DC13	A-DC14	A-DC15	A-DC16	A-Ph1	A-Ph2	A-Ph3	A-Ph4	A-Ph5	A-Ph6	A-Ph7	A-Ph8	A-Ph9	A-Ph10	A-Ph11	A-Ph12	A-Ph13	A-Ph14	A-Ph15	A-Ph16	B-AC1	B-AC2	B-AC3	B-AC4	B-AC5	B-AC6	B-AC7	B-AC8	B-AC9	B-AC10	B-AC11	B-AC12	B-AC13	B-AC14	B-AC15	B-AC16	B-DC1	B-DC2	B-DC3	B-DC4	B-DC5	B-DC6	B-DC7	B-DC8	B-DC9	B-DC10	B-DC11	B-DC12	B-DC13	B-DC14	B-DC15	B-DC16	B-Ph1	B-Ph2	B-Ph3	B-Ph4	B-Ph5	B-Ph6	B-Ph7	B-Ph8	B-Ph9	B-Ph10	B-Ph11	B-Ph12	B-Ph13	B-Ph14	B-Ph15	B-Ph16	aux-1	digaux	

7638.727	1	1	0	256	0.12453	0.11358	0.26354	0.24165	0.24563	0.078156	0.31412	0.27352	0.043976	0.17914	0.055665	0.11173	0.096287	0.27854	0.14696	0.2372	-1.075	-2.0542	-1.1	-1.9062	-1.8188	-1.4396	-2.2458	-1.6854	-1.4813	-1.9438	-1.4042	-1.7104	-1.9667	-1.3813	-2.2646	-1.5958	68.102	136.011	234.114	367.499	76.804	130.913	115.895	334.740	303.328	75.993	155.832	345.021	334.118	387.828	318.370	98.149	0.00024007	8.8625e-05	5.9207e-05	1105.7	7.8971e-06	1.9707e-06	1187.7	231.4	3.1936e-06	8.8319e-06	292.27	80.517	64.097	18.703	8.173e-06	25.951	0.00029851	0.00028121	8.606e-05	1080.4	3.3399e-06	3.1029e-06	1153.8	230.98	3.3338e-06	3.2269e-06	287.78	81.595	64.856	19.394	3.7138e-06	27.049	275.415	91.749	262.645	72.255	161.684	265.357	72.458	79.748	92.747	172.911	79.067	86.314	86.777	93.605	208.979	92.889	-8191	255	
7638.846	1	1	0	0	0.32234	0.13548	0.16671	0.35804	0.14513	0.15652	0.10409	0.082854	0.046582	0.14911	0.1222	0.20066	0.19563	0.14817	0.20196	0.20788	-1.1104	-2.225	-1.175	-2.1167	-1.9229	-1.3667	-2.3604	-1.7833	-1.4542	-2.0187	-1.3771	-1.8062	-1.8542	-1.3354	-1.9292	-1.8021	169.457	253.674	81.556	374.759	401.343	157.133	68.408	77.578	279.755	318.927	374.522	127.113	395.342	64.668	314.857	375.823	0.00030491	0.00071784	0.0001106	1108.1	2.0917e-06	7.4927e-06	1179.9	231.78	8.0845e-06	6.2809e-06	289.79	80.51	64.144	18.649	1.5457e-06	25.841	0.0003086	0.00029791	9.6327e-05	1078.7	3.3823e-06	3.2876e-06	1156.8	230.48	3.3245e-06	3.3809e-06	288.38	80.992	64.697	19.479	3.888e-06	26.909	260.886	100.446	228.304	72.050	155.078	232.851	72.287	79.791	205.453	145.329	79.074	86.636	86.911	93.717	201.393	92.917	-8191	255	
7638.942	1	1	0	0	0.22756	0.054489	0.14708	0.21725	0.087429	0.23704	0.3216	0.10979	0.17963	0.11637	0.21411	0.090051	0.19795	0.26838	0.085842	0.12404	-0.90625	-2.1833	-1.4396	-1.6729	-2.2125	-1.2479	-2.0354	-1.8125	-1.2146	-2.2354	-1.5521	-1.5458	-2.1083	-1.1688	-1.9979	-1.9417	198.196	323.859	301.997	345.116	282.834	79.878	279.432	245.337	257.028	260.698	205.945	306.197	294.305	302.336	150.380	335.346	0.00036883	0.00045118	9.5688e-05	1106.8	4.0867e-06	9.5438e-06	1191.4	231.03	2.2107e-06	9.8553e-06	291	80.751	64.065	18.578	2.1562e-06	25.834	0.00030514	0.00031896	0.00010031	1079.8	3.4323e-06	3.645e-06	1160.8	230.75	3.4338e-06	3.7862e-06	290.75	81.374	64.902	19.721	3.962e-06	27.02	253.436	194.501	99.950	72.222	309.503	214.556	72.280	79.874	158.233	161.067	78.809	86.588	86.234	93.549	68.653	92.692	-8191	255	
7639.038	1	1	0	0	0.1186	0.16191	0.21378	0.19386	0.13221	0.11561	0.28932	0.21311	0.092757	0.20636	0.031104	0.19034	0.036192	0.2897	0.11839	0.092332	-0.96042	-2.1833	-1.6042	-1.6063	-2.025	-1.2437	-2.0354	-1.8188	-1.3458	-1.9688	-1.7167	-1.4562	-2.0396	-1.525	-1.4937	-1.9937	171.563	63.195	331.854	107.532	391.728	263.406	397.735	374.393	236.004	95.478	179.428	329.612	396.295	101.825	340.383	229.626	0.00026267	0.0001767	0.00010506	1104	5.2799e-06	5.0931e-06	1185.5	229.23	9.7891e-06	9.0054e-06	288.88	80.53	64.545	18.536	1.4618e-06	25.905	0.00031256	0.00035599	0.00010081	1079.8	3.4789e-06	3.9819e-06	1160.8	229.61	3.5146e-06	4.0811e-06	288.71	80.957	65.058	19.875	3.8056e-06	26.948	237.637	179.955	76.138	72.155	213.735	202.871	71.896	79.494	239.109	213.036	79.085	86.603	86.701	93.664	279.578	93.056	-8191	255	
7639.134	1	1	0	0	0.11225	0.12668	0.23619	0.086429	0.22181	0.045468	0.38998	0.13464	0.24422	0.0059367	0.027263	0.34732	0.058053	0.19085	0.27525	0.20614	-1.0708	-2.125	-1.8875	-1.4104	-2.1125	-1.5354	-1.6562	-2.2292	-1.1646	-1.95	-1.8333	-1.4396	-2.3187	-1.5646	-1.6542	-2.1979	302.828	214.276	342.883	310.633	90.484	407.499	281.383	98.648	221.461	211.912	293.964	288.061	361.264	72.290	199.363	334.203	0.0003901	7.5931e-05	8.7049e-05	1109.7	1.5079e-06	6.1606e-06	1187.8	229.52	5.6234e-06	2.1954e-06	287.51	80.78	63.721	18.548	1.6978e-06	25.997	0.00032569	0.00036844	9.539e-05	1081.3	3.6098e-06	4.0519e-06	1159.6	229.27	3.7138e-06	4.2359e-06	288.04	81.276	65.634	20.115	3.9675e-06	27.193	260.875	218.586	258.213	72.152	228.669	218.088	72.163	79.946	136.046	187.051	79.062	86.588	86.735	93.109	384.570	92.752	-8191	255	
7639.231	1	1	0	0	0.19084	0.066365	0.12472	0.019438	0.013532	0.17047	0.30593	0.055264	0.071637	0.061956	0.39299	0.20902	0.070698	0.12682	0.31387	0.20435	-0.72083	-2.0604	-1.6958	-1.7167	-2.1333	-1.5458	-1.7625	-2.2687	-1.3729	-1.7437	-1.8104	-1.125	-2.1479	-1.5417	-1.5063	-2.125	328.791	92.370	94.241	417.547	212.154	301.155	354.145	396.184	296.559	75.612	62.345	383.873	294.037	107.122	369.642	258.857	0.00046852	0.00018366	0.0001326	1114.1	8.6779e-06	3.1628e-06	1196.2	231.78	6.7117e-06	4.8875e-06	290.24	80.827	64.64	18.733	4.4673e-06	26.154	0.00037309	0.00040077	0.00010052	1086.2	4.1289e-06	4.2093e-06	1165.2	230.71	3.9842e-06	4.0322e-06	287.41	81.137	65.946	19.911	3.5944e-06	27.05	268.251	160.169	160.131	72.316	197.622	330.829	72.258	79.885	255.029	128.621	79.151	86.599	86.644	93.672	237.138	92.932	-8191	255	
7639.327	1	1	0	0	0.27785	0.18476	0.12941	0.29644	0.24392	0.18938	0.24032	0.10798	0.1319	0.16141	0.016243	0.13809	0.14951	0.11045	0.22037	0.17035	-0.99792	-1.8146	-2.0812	-1.4792	-1.9833	-1.6229	-1.5771	-2.2458	-1.3354	-1.7667	-2.0687	-1.225	-2.0854	-1.7771	-1.3813	-2.1312	328.472	153.968	252.567	357.916	181.746	142.610	307.154	258.862	219.776	251.665	197.456	392.562	399.581	410.908	231.824	339.205	0.00038585	0.00022421	0.00019104	1116.2	6.8613e-06	6.348e-06	1197.5	232.21	4.75e-06	1.9551e-06	289.74	80.647	64.723	18.799	8.1677e-07	26.187	0.00037123	0.00036307	9.3475e-05	1088.1	4.1455e-06	3.9816e-06	1163.4	231.2	4.2012e-06	3.9199e-06	287.52	81.647	66.529	19.879	3.5534e-06	27.237	264.063	105.571	155.231	72.103	220.992	414.926	72.292	79.702	299.815	62.824	79.588	86.820	86.972	93.404	293.948	92.452	-8191	255	
7639.447	1	1	0	0	0.35824	0.11851	0.18964	0.11862	0.12357	0.030333	0.12285	0.07395	0.22964	0.21156	0.041489	0.2493	0.28855	0.32809	0.43528	0.082311	-1.0583	-1.6	-2.0354	-1.6229	-1.7854	-1.7896	-1.4312	-2.15	-1.3604	-1.6313	-2.175	-1.1542	-1.8062	-1.8188	-1.2458	-2.0687	416.989	182.031	72.394	349.667	298.813	148.022	350.568	301.124	89.951	314.648	76.626	395.896	379.137	362.274	399.652	421.404	0.00039847	0.00025464	0.00011504	1119.1	3.3124e-06	3.5086e-06	1201.7	232.1	4.946e-06	2.6959e-06	291.57	80.997	64.315	18.845	2.9668e-06	26.219	0.00037787	0.00034315	9.0444e-05	1091.8	4.1106e-06	3.7113e-06	1165.4	232.23	4.1127e-06	3.724e-06	287.38	82.254	66.348	19.809	3.5171e-06	27.467	259.599	327.644	115.265	72.395	239.985	146.077	72.219	79.915	232.177	75.493	78.825	86.381	86.497	93.976	256.157	92.885	-8191	255	
7639.543	1	1	0	0	0.14141	0.14358	0.1864	0.18547	0.13251	0.092055	0.17173	0.33894	0.024137	0.26632	0.14391	0.071466	0.12608	0.22124	0.38085	0.1299	-1.1479	-1.5917	-2.2167	-1.3042	-1.9	-1.9229	-1.4083	-2.0896	-1.6542	-1.3229	-2.2687	-1.3708	-1.8917	-2.025	-1.4729	-2.0312	155.528	322.861	267.201	397.646	103.294	228.091	389.776	296.562	309.655	203.516	179.025	405.901	63.251	123.041	332.853	387.854	0.00032777	0.00025416	0.00011759	1111.3	4.5427e-06	4.5369e-06	1198.4	233.54	6.6803e-06	4.8241e-06	290.87	80.88	64.532	18.852	5.6911e-06	26.19	0.00037133	0.00034104	8.9411e-05	1092.3	3.9835e-06	3.6324e-06	1160.7	232.91	3.7896e-06	3.3904e-06	285.79	82.062	65.692	19.628	3.2315e-06	27.384	260.575	347.139	187.505	71.972	149.441	406.737	72.504	79.748	371.538	251.574	79.337	86.798	86.884	93.390	162.335	92.527	-8191	255	
7639.640	1	1	0	0	0.3725	0.064582	0.26142	0.37394	0.032209	0.20692	0.12867	0.092955	0.35508	0.041554	0.2037	0.091044	0.12221	0.10663	0.19086	0.11567	-1.2167	-1.2917	-2.2542	-1.4146	-1.7042	-1.7958	-1.5229	-1.9458	-1.9104	-1.375	-2.1542	-1.5021	-1.5333	-2.0833	-1.3583	-1.9354	71.486	94.941	317.545	360.417	189.374	410.679	305.011	352.486	417.697	348.990	364.289	81.983	388.856	303.189	359.363	264.140	0.00024928	7.9084e-05	0.00015771	1121.1	3.6065e-06	1.1898e-06	1194	233.24	1.7771e-06	2.5933e-06	290.41	80.945	64.735	18.798	6.7184e-06	26.283	0.00031955	0.0002976	8.2441e-05	1092.1	3.4299e-06	3.1803e-06	1157.7	232.43	3.3865e-06	3.1365e-06	285.7	81.649	65.271	19.45	3.3531e-06	27.228	279.361	106.864	94.324	72.049	175.005	150.303	72.017	80.111	262.501	126.568	79.264	86.691	86.990	93.315	224.751	92.492	-8191	255	
7639.736	1	1	0	0	0.23738	0.04059	0.14465	0.17666	0.24239	0.037877	0.12369	0.57177	0.32314	0.11573	0.25866	0.28559	0.19422	0.22894	0.17018	0.049454	-1.4542	-1.3646	-2.1708	-1.5063	-1.5792	-2.1958	-1.5271	-1.9708	-1.9729	-1.3229	-1.9646	-1.6437	-1.3937	-2.1333	-1.35	-1.8979	127.006	357.968	225.359	352.810	75.365	191.258	304.590	412.067	333.556	97.421	366.672	341.702	412.074	135.347	118.360	283.547	0.00045479	0.00020887	0.00010871	1114.2	3.5003e-06	3.1733e-06	1199	231.78	3.0579e-06	4.0106e-06	290.18	80.743	64.563	18.93	9.3594e-06	26.182	0.00030501	0.00028544	8.7259e-05	1087.4	3.2659e-06	3.1307e-06	1162.7	231.35	3.3144e-06	3.0942e-06	287.36	81.538	65.093	19.496	3.5605e-06	27.128	255.927	153.972	151.045	72.025	167.099	155.447	72.299	79.960	249.076	183.109	79.473	86.442	86.577	93.640	186.665	92.656	-8191	255	
7639.832	1	1	0	0	0.27022	0.071752	0.10934	0.12097	0.069602	0.080587	0.32863	0.27408	0.066276	0.24704	0.21454	0.087925	0.1239	0.14905	0.18668	0.039859	-1.7708	-1.0438	-2.2979	-1.6417	-1.2354	-1.9729	-1.5833	-1.8896	-2.0021	-1.3563	-2.0125	-1.5562	-1.5604	-2.1104	-1.5146	-1.6979	73.237	318.702	261.190	244.443	185.098	103.028	318.781	384.797	251.030	354.818	305.780	190.737	294.480	357.933	252.837	343.381	0.00032599	0.00018934	0.00011497	1114.2	2.3904e-06	4.6567e-06	1195.7	233.69	7.6047e-06	3.6981e-06	290.81	80.842	64.67	18.982	8.6667e-06	26.334	0.00029604	0.00028308	9.0439e-05	1085.1	3.2146e-06	3.139e-06	1163.7	231.16	3.2311e-06	3.1949e-06	288.64	81.355	65.057	19.583	3.6069e-06	27.003	248.119	153.475	131.620	72.074	224.463	340.293	72.045	79.700	247.699	223.928	78.997	86.232	86.391	93.396	203.694	93.104	-8191	255	
7639.928	1	1	0	0	0.099579	0.22242	0.15861	0.31075	0.019905	0.020918	0.29075	0.19813	0.10917	0.20466	0.27791	0.30285	0.14003	0.052354	0.10425	0.23006	-1.7437	-1.2271	-2.0479	-1.8104	-1.2292	-2.025	-1.8	-1.875	-1.9146	-1.1729	-1.9479	-1.9792	-1.1333	-2.1437	-1.5104	-1.5875	162.895	317.918	253.230	71.703	367.527	129.524	333.942	157.267	170.175	138.411	367.471	381.180	333.828	318.084	204.462	372.534	0.00034266	0.00079303	8.0478e-05	1116.3	2.7475e-06	3.941e-06	1195.6	233.83	5.846e-06	5.9164e-06	293.68	81.623	65.438	19.012	4.6291e-06	26.489	0.00028015	0.00028875	9.0371e-05	1084.3	3.0105e-06	3.1951e-06	1163.7	231.03	2.9791e-06	3.2442e-06	288.74	81.33	65.176	19.799	3.4687e-06	26.967	260.070	132.704	104.033	71.851	232.572	194.638	72.161	79.960	231.396	215.109	78.904	86.428	86.764	93.169	204.744	92.804	-8191	255	
7640.024	1	1	0	0	0.19212	0.11406	0.12911	0.42359	0.19886	0.26347	0.18368	0.36975	0.099849	0.30855	0.13762	0.15186	0.10548	0.24901	0.20882	0.16462	-1.7146	-1.2792	-1.8563	-1.9542	-1.3833	-2.0833	-1.5896	-1.6021	-2.0979	-1.35	-1.8937	-2.1604	-1.2167	-2.125	-1.6771	-1.5292	268.231	78.100	307.768	371.305	222.345	211.139	235.040	358.746	376.453	366.447	330.052	395.001	353.809	401.335	237.620	379.782	0.00043977	0.00043022	0.00010003	1117.8	2.326e-06	8.5112e-06	1197	234.5	3.436e-06	6.1302e-06	292.69	81.421	64.754	19.145	6.8901e-07	26.376	0.0002736	0.00030694	8.6624e-05	1083.7	2.9675e-06	3.4234e-06	1164.3	231.74	3.0016e-06	3.4642e-06	288.47	81.075	64.989	19.905	3.2772e-06	26.822	253.970	201.298	92.085	72.186	99.223	216.073	72.045	80.020	275.955	185.559	79.257	86.796	86.753	93.804	413.045	92.718	-8191	255	
7640.143	1	1	0	0	0.10065	0.18347	0.13983	0.0063436	0.20197	0.18238	0.13023	0.3956	0.10434	0.19547	0.23266	0.15317	0.12716	0.053196	0.20278	0.19901	-1.875	-1.5042	-1.7583	-2.075	-1.3208	-1.8792	-1.9312	-1.5229	-2.0187	-1.4021	-1.7646	-2.0104	-1.4562	-2.1312	-1.6708	-1.5708	342.437	258.167	139.261	165.130	194.416	117.907	372.081	378.026	303.461	199.224	122.768	76.706	373.521	223.834	154.154	82.567	0.00043273	0.00032602	6.8045e-05	1120	3.2782e-06	2.0219e-06	1199.9	234.88	8.2811e-06	2.7302e-06	293.27	81.829	64.919	18.988	5.9676e-06	26.518	0.00027617	0.00031676	8.152e-05	1081.8	2.9807e-06	3.4128e-06	1161.4	231.14	3.0078e-06	3.4138e-06	286.31	80.841	65.141	19.83	3.0464e-06	26.716	260.476	135.939	102.115	71.855	236.084	386.075	72.251	79.599	179.396	282.642	79.548	86.372	86.477	93.779	273.240	92.565	-8191	255	
7640.239	1	1	0	0	0.16439	0.20577	0.32028	0.056192	0.21163	0.21583	0.13294	0.31714	0.36056	0.13227	0.36528	0.062761	0.11807	0.13279	0.10572	0.32861	-1.7083	-1.4479	-1.4833	-2.2042	-1.2896	-1.8813	-2.1125	-1.4	-2.0062	-1.4438	-1.7833	-2.1979	-1.4062	-1.8792	-1.8937	-1.6042	225.238	68.327	275.101	118.378	183.398	79.596	382.916	333.273	185.360	308.375	318.122	260.110	164.600	150.219	79.354	330.675	0.00047632	0.00042567	5.4454e-05	1120.2	6.4381e-06	3.9889e-06	1201	235.73	5.083e-06	7.696e-06	294.41	82.025	65.333	19.152	3.7845e-06	26.697	0.0002867	0.00031001	7.6759e-05	1081	3.1976e-06	3.3592e-06	1160.3	231.69	3.2718e-06	3.3578e-06	287.01	81.119	65.907	19.863	3.0156e-06	26.853	266.004	134.383	143.373	72.019	210.396	225.250	72.434	79.937	211.801	258.752	78.982	86.625	86.769	93.057	300.621	92.354	-8191	255	
7640.335	1	1	0	0	0.32264	0.26153	0.22195	0.25368	0.27639	0.14329	0.10103	0.30813	0.088861	0.12913	0.25765	0.11117	0.13902	0.22242	0.20989	0.36571	-1.7333	-1.5125	-1.5458	-2.3083	-1.3396	-1.8146	-2.1937	-1.3792	-2.0354	-1.8104	-1.5917	-2.1375	-1.4854	-1.8146	-2.0646	-1.3188	113.364	401.525	234.399	333.348	345.686	246.244	108.193	68.685	348.256	126.090	402.471	172.877	272.957	366.708	119.384	335.989	0.00058144	0.00040854	0.00012052	1124.6	5.2584e-07	3.0218e-06	1203.7	237.01	4.1191e-06	2.9773e-06	293.19	81.591	65.319	19.193	2.6319e-06	26.411	0.00030807	0.00029654	7.4881e-05	1083.9	3.3731e-06	3.2058e-06	1163.5	232.71	3.4511e-06	3.2125e-06	286.09	81.236	66.134	19.758	2.9439e-06	26.918	255.861	379.208	204.365	72.320	358.290	109.441	72.165	79.667	193.782	295.825	79.022	86.247	86.679	93.218	69.874	92.698	-8191	255	
7640.407	1	1	0	0	0.3602	0.088268	0.13157	0.15019	0.28612	0.1621	0.31463	0.19246	0.005968	0.29184	0.22425	0.24653	0.22352	0.37498	0.11646	0.13455	-1.8375	-1.8292	-1.4229	-1.9667	-1.4354	-1.6479	-2.2083	-1.3813	-1.8438	-1.8813	-1.4438	-2.2708	-1.3146	-1.5333	-2.2125	-1.3771	240.237	352.556	373.917	342.803	184.165	119.190	350.501	274.058	355.271	380.975	266.154	278.064	367.671	417.479	110.083	216.880	0.00037838	0.0003973	6.0122e-05	1119.4	4.96e-06	4.1864e-06	1206.1	236.55	3.5029e-06	1.5652e-06	295.94	82.577	65.687	19.205	6.0828e-06	26.611	0.00031089	0.00028043	7.2048e-05	1086.1	3.3257e-06	2.9647e-06	1164	233.58	3.2699e-06	2.9314e-06	286.03	82.021	66.139	19.72	2.7844e-06	27.158	269.776	74.222	234.924	71.905	189.524	412.092	72.018	79.808	222.667	421.708	79.119	86.562	86.474	93.398	176.349	92.539	-8191	255	
