BOXY.EXE: ISS Imagent and Oximeter Data Acquisition Program Version 0.80
Ascii Record File

#ACQ INFORMATION
2  Detector Channels 
16  External MUX Channels 
1  Auxiliary Channels 
5000  Waveform (CCF) Frequency (Hz)
1  Waveforms Skipped 
30  Waveforms Averaged 
1  Cycles Averaged 
16  Acquisitions per Waveform 
10.0806  Updata Rate (Hz) 

#FILE INFORMATION
TRUE -- External MUX Channel results are PARSED.
FALSE -- AC DC and Phase are NOT grouped.
TRUE -- Companion Program Settings File CREATED.
FALSE -- AC data not excluded
FALSE -- DC data not excluded
FALSE -- Phase data not excluded
FALSE -- Auxillary Chn. data not excluded
Tab delimiters

#CALIBRATION STATE
TRUE -- Waveform Calibration Values APPLIED.


#AUX CALIBRATION VALUES
Val Type	aux-1	

Term	1.0000e+00	
Factor	0.0000e+00	


#WF CALIBRATION VALUES
A = Detector Channel
Val Type	A-AC1	A-AC2	A-AC3	A-AC4	A-AC5	A-AC6	A-AC7	A-AC8	A-AC9	A-AC10	A-AC11	A-AC12	A-AC13	A-AC14	A-AC15	A-AC16	A-DC1	A-DC2	A-DC3	A-DC4	A-DC5	A-DC6	A-DC7	A-DC8	A-DC9	A-DC10	A-DC11	A-DC12	A-DC13	A-DC14	A-DC15	A-DC16	A-Ph1	A-Ph2	A-Ph3	A-Ph4	A-Ph5	A-Ph6	A-Ph7	A-Ph8	A-Ph9	A-Ph10	A-Ph11	A-Ph12	A-Ph13	A-Ph14	A-Ph15	A-Ph16	

Term	0.00000e+00	0.00000e+00	0.00000e+00	0.00000e+00	0.00000e+00	0.00000e+00	0.00000e+00	0.00000e+00	0.00000e+00	0.00000e+00	0.00000e+00	0.00000e+00	0.00000e+00	0.00000e+00	0.00000e+00	0.00000e+00	0.00000e+00	0.00000e+00	0.00000e+00	0.00000e+00	0.00000e+00	0.00000e+00	0.00000e+00	0.00000e+00	0.00000e+00	0.00000e+00	0.00000e+00	0.00000e+00	0.00000e+00	0.00000e+00	0.00000e+00	0.00000e+00	0.00000e+00	0.00000e+00	0.00000e+00	0.00000e+00	0.00000e+00	0.00000e+00	0.00000e+00	0.00000e+00	0.00000e+00	0.00000e+00	0.00000e+00	0.00000e+00	0.00000e+00	0.00000e+00	0.00000e+00	0.00000e+00	
Factor	1.00000e+00	1.00000e+00	1.00000e+00	1.00000e+00	1.00000e+00	1.00000e+00	1.00000e+00	1.00000e+00	1.00000e+00	1.00000e+00	1.00000e+00	1.00000e+00	1.00000e+00	1.00000e+00	1.00000e+00	1.00000e+00	1.00000e+00	1.00000e+00	1.00000e+00	1.00000e+00	1.00000e+00	1.00000e+00	1.00000e+00	1.00000e+00	1.00000e+00	1.00000e+00	1.00000e+00	1.00000e+00	1.00000e+00	1.00000e+00	1.00000e+00	1.00000e+00	X	X	X	X	X	X	X	X	X	X	X	X	X	X	X	X	

B = Detector Channel
Val Type	B-AC1	B-AC2	B-AC3	B-AC4	B-AC5	B-AC6	B-AC7	B-AC8	B-AC9	B-AC10	B-AC11	B-AC12	B-AC13	B-AC14	B-AC15	B-AC16	B-DC1	B-DC2	B-DC3	B-DC4	B-DC5	B-DC6	B-DC7	B-DC8	B-DC9	B-DC10	B-DC11	B-DC12	B-DC13	B-DC14	B-DC15	B-DC16	B-Ph1	B-Ph2	B-Ph3	B-Ph4	B-Ph5	B-Ph6	B-Ph7	B-Ph8	B-Ph9	B-Ph10	B-Ph11	B-Ph12	B-Ph13	B-Ph14	B-Ph15	B-Ph16	

Term	0.00000e+00	0.00000e+00	0.00000e+00	0.00000e+00	0.00000e+00	0.00000e+00	0.00000e+00	0.00000e+00	0.00000e+00	0.00000e+00	0.00000e+00	0.00000e+00	0.00000e+00	0.00000e+00	0.00000e+00	0.00000e+00	0.00000e+00	0.00000e+00	0.00000e+00	0.00000e+00	0.00000e+00	0.00000e+00	0.00000e+00	0.00000e+00	0.00000e+00	0.00000e+00	0.00000e+00	0.00000e+00	0.00000e+00	0.00000e+00	0.00000e+00	0.00000e+00	-1.17792e+02	-1.43843e+02	-1.22546e+02	-1.82203e+02	-6.11667e+01	-7.34980e+01	-1.58195e+02	-1.62015e+02	-5.91422e+01	-6.39027e+01	-1.73093e+02	-1.71855e+02	-1.81390e+02	-1.76301e+02	-7.35693e+01	-1.49454e+02	
Factor	1.69170e-05	1.23924e-04	3.36262e-05	1.80272e-01	1.08088e-06	1.50264e-06	1.68832e-01	4.61094e-02	9.30486e-07	1.40809e-06	1.02341e-01	2.97290e-02	2.73267e-02	8.85118e-03	1.28260e-06	1.26478e-02	2.60707e-06	2.90429e-06	8.06884e-07	9.53293e-02	3.13924e-08	3.17865e-08	8.41259e-02	2.45373e-02	3.13704e-08	3.17759e-08	5.20466e-02	1.52571e-02	1.46120e-02	4.71344e-03	3.16051e-08	6.50126e-03	X	X	X	X	X	X	X	X	X	X	X	X	X	X	X	X	



#DISTANCE SETTINGS
A = Detector Channel
A-1	A-2	A-3	A-4	A-5	A-6	A-7	A-8	A-9	A-10	A-11	A-12	A-13	A-14	A-15	A-16	

2.5000e+00	3.0000e+00	2.5000e+00	3.0000e+00	2.0000e+00	3.0000e+00	1.5000e+00	3.0000e+00	3.0000e+00	3.0000e+00	3.0000e+00	3.0000e+00	3.0000e+00	3.0000e+00	1.5000e+00	3.0000e+00	

B = Detector Channel
B-1	B-2	B-3	B-4	B-5	B-6	B-7	B-8	B-9	B-10	B-11	B-12	B-13	B-14	B-15	B-16	

1.0000e+01	1.0000e+01	1.0000e+01	1.4400e+00	1.0000e+01	1.0000e+01	1.5100e+00	1.9400e+00	1.0000e+01	1.0000e+01	1.9900e+00	2.4900e+00	2.4100e+00	2.9000e+00	1.0000e+01	2.9800e+00	




#DATA BEGINS
time	group	step	mark	flag	A-AC1	A-AC2	A-AC3	A-AC4	A-AC5	A-AC6	A-AC7	A-AC8	A-AC9	A-AC10	A-AC11	A-AC12	A-AC13	A-AC14	A-AC15	A-AC16	A-DC1	A-DC2	A-DC3	A-DC4	A-DC5	A-DC6	A-DC7	A-DC8	A-DC9	A-DC10	A-DC11	A-DC12	A-DC13	A-DC14	A-DC15	A-DC16	A-Ph1	A-Ph2	A-Ph3	A-Ph4	A-Ph5	A-Ph6	A-Ph7	A-Ph8	A-Ph9	A-Ph10	A-Ph11	A-Ph12	A-Ph13	A-Ph14	A-Ph15	A-Ph16	B-AC1	B-AC2	B-AC3	B-AC4	B-AC5	B-AC6	B-AC7	B-AC8	B-AC9	B-AC10	B-AC11	B-AC12	B-AC13	B-AC14	B-AC15	B-AC16	B-DC1	B-DC2	B-DC3	B-DC4	B-DC5	B-DC6	B-DC7	B-DC8	B-DC9	B-DC10	B-DC11	B-DC12	B-DC13	B-DC14	B-DC15	B-DC16	B-Ph1	B-Ph2	B-Ph3	B-Ph4	B-Ph5	B-Ph6	B-Ph7	B-Ph8	B-Ph9	B-Ph10	B-Ph11	B-Ph12	B-Ph13	B-Ph14	B-Ph15	B-Ph16	aux-1	digaux	

28696.248	1	1	0	768	0.21119	0.21123	0.13824	0.047159	0.15061	0.20236	0.17656	0.34404	0.20793	0.066117	0.1189	0.28478	0.29007	0.034592	0.22847	0.29016	-1.7812	-1.3021	-1.9479	-2.1042	-1.4771	-2.0917	-1.8062	-1.6896	-2.1604	-1.3333	-2.2167	-2.0312	-1.4896	-2.3729	-1.5812	-1.7021	158.235	315.257	326.153	372.375	246.009	66.982	374.566	410.124	217.871	94.174	404.853	337.706	149.018	343.374	67.777	320.171	0.0003916	0.0020125	0.00023107	994.68	1.0858e-05	1.0713e-05	1314.4	305.68	1.0343e-05	2.8205e-06	498.54	176.02	96.611	30.721	7.9368e-06	61.46	0.0023337	0.0025019	0.00069031	947.03	2.7519e-05	2.7467e-05	1223	289.11	2.7968e-05	2.8655e-05	479.4	167.34	97.405	31.274	3.0196e-05	59.856	184.579	425.112	118.092	78.734	320.848	399.756	78.562	84.206	195.760	244.418	82.919	87.668	89.108	93.977	311.219	91.260	-8191	255	
28696.346	1	1	0	0	0.035718	0.10898	0.20118	0.012753	0.060055	0.17619	0.12967	0.10982	0.09468	0.29771	0.19261	0.39221	0.20619	0.16489	0.11085	0.066535	-1.7958	-1.4708	-1.8208	-2.0604	-1.3438	-2.0604	-1.8375	-1.7521	-2.15	-1.4562	-2.0062	-2.0958	-1.2646	-2.2104	-1.9208	-1.9021	297.783	170.967	248.019	425.863	108.117	191.446	298.061	274.471	382.015	68.964	239.414	392.348	318.398	118.196	198.544	276.735	0.00030316	0.0021375	0.00014863	994.72	5.4719e-06	3.5518e-06	1312.1	306.33	1.374e-05	1.8087e-05	503.17	175.89	96.657	31.065	8.902e-06	61.613	0.0026142	0.0028481	0.00078854	959.24	3.1463e-05	3.1214e-05	1231.9	292.15	3.1654e-05	3.1929e-05	485.78	168.63	98.914	31.806	3.24e-05	60.701	153.993	173.529	230.927	79.274	242.857	193.612	78.588	84.348	255.326	263.018	83.498	87.393	88.393	93.310	232.242	92.029	-8191	255	
28696.441	1	1	0	0	0.046683	0.37351	0.11175	0.11881	0.054388	0.16495	0.046331	0.081593	0.059341	0.16357	0.32434	0.10886	0.15636	0.38975	0.23714	0.21634	-1.6833	-1.4625	-1.9167	-2.1063	-1.3563	-2.2042	-1.9479	-1.6875	-2.3583	-1.4271	-1.7104	-2.4479	-1.5229	-2.1125	-1.7958	-1.6167	253.042	305.001	300.547	331.873	77.105	132.715	67.945	75.355	146.574	315.013	386.601	378.011	380.812	425.645	236.471	416.398	0.00031039	0.0029272	0.00021391	990.86	5.8149e-06	7.6347e-06	1320.8	305.96	1.2341e-05	1.5854e-05	503.66	175.5	96.292	31.16	1.264e-05	61.871	0.0027118	0.0029938	0.00082428	960.99	3.2524e-05	3.214e-05	1235	292.38	3.1764e-05	3.2185e-05	488.01	168.57	98.42	31.863	3.0729e-05	60.451	173.666	142.086	117.600	79.159	232.041	155.576	78.521	84.354	225.069	154.208	83.458	87.602	88.609	93.495	363.903	91.848	-8191	255	
28696.537	1	1	0	0	0.34532	0.11416	0.22644	0.36504	0.11338	0.032668	0.061036	0.19805	0.16138	0.078061	0.28387	0.082884	0.27253	0.36603	0.30116	0.31877	-1.7354	-1.5979	-1.7729	-2.1083	-1.6271	-2.3375	-2.1479	-1.3396	-2.2792	-1.6729	-1.6917	-2.2833	-1.4146	-1.9146	-2.0312	-1.6187	71.149	79.990	223.728	425.809	409.240	311.745	155.896	329.556	307.761	315.775	344.942	100.934	331.638	414.208	386.366	340.748	0.00046874	0.0004637	0.00040331	990.63	5.1406e-06	1.0281e-05	1308.4	306.85	3.9197e-06	2.0019e-05	504.03	175.64	97.324	31.423	1.055e-05	62.034	0.0025359	0.0027781	0.000769	949.69	2.965e-05	2.9618e-05	1222.7	290.14	2.9434e-05	3.0152e-05	483.52	168.18	98.331	31.77	3.0372e-05	60.166	166.082	129.469	113.982	78.962	93.605	178.614	78.846	84.594	238.736	237.015	83.166	87.136	88.263	93.219	152.134	91.761	-8191	255	
28696.633	1	1	0	0	0.11469	0.081034	0.18653	0.081844	0.29904	0.16726	0.31364	0.37445	0.15616	0.20535	0.23303	0.19957	0.10998	0.10518	0.040199	0.074087	-1.8208	-1.6812	-1.4521	-2.3542	-1.2896	-1.8167	-2.2354	-1.2875	-2.2313	-1.8583	-1.4542	-2.3021	-1.5438	-1.8271	-2.0854	-1.5417	375.162	80.576	358.628	171.075	333.443	203.191	351.899	326.030	400.016	147.284	363.083	80.409	82.675	372.813	182.554	246.319	0.00047201	0.00099012	0.00037048	989.34	1.0622e-06	1.6027e-05	1309.9	305.6	4.578e-06	1.3899e-05	499.66	174.95	96.866	30.933	1.014e-05	61.49	0.00245	0.0027373	0.00075297	946.21	2.9391e-05	2.9504e-05	1220.7	290.05	2.8873e-05	2.9647e-05	483.01	167.09	97.363	31.497	2.985e-05	59.835	161.949	301.011	157.478	79.251	186.096	127.203	78.713	84.812	167.316	241.931	83.083	87.582	88.420	93.417	108.294	91.718	-8191	255	
28696.730	1	1	0	0	0.044692	0.099628	0.03393	0.29847	0.18719	0.14913	0.25727	0.11568	0.11756	0.050437	0.23109	0.32149	0.18349	0.13796	0.37512	0.30673	-1.7729	-1.8	-1.4104	-2.0854	-1.6063	-1.6833	-2.1813	-1.6604	-2.0542	-2.0375	-1.6646	-2.4104	-1.7917	-1.6917	-2.0563	-1.4292	101.955	399.160	366.610	418.610	123.856	371.382	329.079	336.523	101.323	301.529	77.393	337.110	214.160	363.768	86.046	254.073	0.00056816	0.0014354	0.00012314	987.28	1.3966e-05	2.2662e-05	1311.3	308.83	9.6871e-06	1.1293e-05	504.88	177.45	97.695	31.222	7.0765e-06	62.92	0.0024358	0.0027224	0.00075898	945.47	2.892e-05	2.8609e-05	1221.7	290.78	2.7944e-05	2.8998e-05	485.01	168.16	97.793	31.607	2.8794e-05	60.545	172.170	423.763	204.700	78.865	187.400	231.681	78.662	84.237	272.975	224.076	83.005	87.241	88.947	93.727	228.646	91.463	-8191	255	
28696.850	1	1	0	0	0.30081	0.12914	0.11289	0.10621	0.18028	0.2715	0.12341	0.38065	0.37675	0.18494	0.25594	0.46218	0.29549	0.21075	0.16792	0.088709	-1.6812	-2.0354	-1.3771	-2.3583	-1.5417	-1.6125	-2.4417	-1.5167	-1.7917	-2.2042	-1.4583	-2.3958	-1.9396	-1.6083	-2.2292	-1.7083	413.231	412.683	297.116	409.875	275.397	166.808	347.617	302.349	76.954	132.909	424.826	371.439	76.805	354.164	101.831	348.840	0.00041791	0.0018061	0.00037448	998.66	2.1428e-06	4.7712e-06	1325.6	309.2	5.9418e-06	8.4592e-06	509.71	178.88	98.403	31.849	1.9373e-05	63.552	0.002424	0.0027467	0.00076257	952.07	2.9656e-05	2.9925e-05	1228.7	292.46	2.8711e-05	2.9793e-05	488.78	169.94	98.507	32.228	2.8285e-05	61.184	143.881	241.085	153.987	78.528	168.872	205.039	78.644	84.354	130.781	111.273	83.234	87.580	88.463	93.608	244.520	91.016	-8191	255	
28696.945	1	1	0	0	0.071009	0.090432	0.18089	0.2632	0.14784	0.21143	0.11946	0.14494	0.11639	0.20525	0.088426	0.049304	0.10805	0.087097	0.13825	0.014755	-1.5812	-2.2167	-1.2875	-2.3896	-1.9292	-1.4667	-2.4479	-1.7833	-1.7958	-2.4271	-1.4979	-2.0542	-1.9292	-1.35	-2.2812	-1.6458	113.844	177.634	330.528	72.738	378.996	342.920	378.022	360.031	338.067	401.736	356.794	267.578	420.121	379.061	145.579	68.679	0.00051974	0.0005639	0.00042675	997.19	1.4012e-05	1.1403e-05	1317.4	306.67	1.1107e-05	2.9273e-05	508.69	178.01	98.619	32.01	5.7721e-06	63.575	0.0023217	0.0025653	0.00069973	943.62	2.7508e-05	2.7455e-05	1217.4	290.78	2.6844e-05	2.7333e-05	485.21	168.82	97.921	32.05	2.7035e-05	60.959	158.915	106.824	330.363	79.022	303.348	228.629	79.167	84.487	232.955	233.673	83.244	87.197	88.959	93.577	114.386	91.516	-8191	255	
28697.041	1	1	0	0	0.061424	0.11298	0.10984	0.30265	0.095826	0.11591	0.30349	0.16796	0.20327	0.27015	0.18518	0.13773	0.31362	0.26942	0.16462	0.20754	-1.2479	-2.2167	-1.5146	-2.0854	-1.9188	-1.3542	-2.275	-1.9604	-1.6688	-2.2271	-1.55	-1.9958	-2.2729	-1.3854	-2.1292	-1.9	119.806	283.792	119.595	344.055	185.442	163.007	357.439	410.295	425.472	303.313	98.033	369.478	227.568	416.097	323.230	368.267	0.00057439	0.00033365	0.00018565	985.14	1.0461e-05	1.2089e-05	1316.6	309.81	1.1229e-05	4.5557e-06	507.65	178.74	97.868	31.806	7.7826e-06	63.769	0.0022816	0.0024908	0.00068443	940.53	2.7007e-05	2.7013e-05	1217.2	291.7	2.6658e-05	2.7027e-05	484.13	168.89	97.648	31.806	2.6282e-05	60.788	163.238	291.668	388.219	79.195	198.720	288.381	78.706	84.140	206.867	256.241	82.855	87.260	88.466	93.376	401.522	91.459	-8191	255	
28697.137	1	1	0	0	0.12187	0.12376	0.040012	0.15813	0.11069	0.13239	0.22129	0.12417	0.36887	0.21767	0.063581	0.094877	0.16613	0.2158	0.11344	0.18146	-1.1979	-2.2521	-1.4813	-1.8771	-2.2542	-1.2	-2.2938	-1.9646	-1.3188	-2.1979	-1.5958	-1.9562	-2.1271	-1.4604	-1.9646	-1.9708	310.541	153.765	396.105	320.219	300.247	334.897	401.402	102.202	349.095	81.391	189.417	362.032	95.830	262.054	337.240	401.867	0.00037578	0.00083522	0.00075073	1004.1	9.8624e-06	7.0504e-06	1312.8	310.94	5.993e-06	1.2003e-05	515.82	181.38	99.586	32.652	5.7959e-06	65.041	0.0022373	0.0024294	0.00066861	942.89	2.6068e-05	2.5894e-05	1218.1	290.97	2.482e-05	2.4638e-05	485.93	170.67	97.937	32.066	2.3694e-05	61.843	173.869	182.287	190.263	79.341	190.341	408.522	78.444	84.116	290.873	80.614	83.155	87.312	88.379	93.568	227.836	91.081	-8191	255	
28697.232	1	1	0	0	0.25503	0.18279	0.16127	0.15681	0.18344	0.31496	0.0156	0.16574	0.21971	0.19779	0.13203	0.075648	0.24716	0.059269	0.050984	0.20977	-1.1396	-2.3438	-1.6167	-1.9583	-2.1937	-1.3896	-2.2125	-2.2396	-1.5729	-2.2896	-1.8979	-1.9146	-2.3083	-1.5187	-1.9292	-2.2	245.303	425.186	160.963	78.224	271.116	404.542	255.987	268.487	317.226	317.948	331.773	347.655	373.192	425.135	148.259	283.371	0.00049839	0.0014183	0.0001522	997.67	3.2085e-06	8.0948e-06	1323.8	313.26	1.2584e-05	1.1849e-05	518.24	183.91	101.54	33.142	1.0616e-05	65.636	0.0020459	0.002181	0.00061259	938	2.379e-05	2.424e-05	1222.8	293.91	2.3881e-05	2.4065e-05	487.98	172.08	98.891	32.53	2.3369e-05	62.262	180.051	219.070	200.338	79.289	389.566	230.944	78.641	84.266	283.569	306.287	82.852	87.321	88.069	93.576	348.073	90.993	-8191	255	
28697.328	1	1	0	0	0.17106	0.076532	0.29846	0.1722	0.14818	0.11199	0.27148	0.30294	0.26608	0.10358	0.24361	0.081142	0.03693	0.28085	0.18198	0.093343	-1.0375	-2.1875	-1.7375	-1.7479	-2.3312	-1.4708	-2.0958	-2.1771	-1.4167	-2.2958	-2.0208	-1.7792	-2.3396	-1.7729	-1.8417	-2.2396	409.967	364.148	158.864	316.896	163.697	89.253	321.190	361.707	138.043	190.774	353.882	376.535	412.108	353.204	353.986	322.091	0.0006705	0.0010146	0.0001435	997.2	7.3361e-06	1.4745e-05	1326.5	315.3	3.4177e-06	1.6748e-05	521.19	185.73	101.66	33.229	1.1092e-05	65.42	0.0019983	0.0020978	0.00059545	933.79	2.2552e-05	2.2756e-05	1215.3	292.66	2.2014e-05	2.1832e-05	485.66	172.08	98.03	32.231	2.1429e-05	61.648	169.725	95.846	339.994	79.130	288.609	256.166	79.192	84.326	248.260	186.060	83.239	87.335	88.464	92.904	233.810	91.623	-8191	255	
28697.449	1	1	0	0	0.066491	0.21309	0.17738	0.15595	0.26351	0.15248	0.23917	0.17492	0.077301	0.096237	0.22943	0.035376	0.14981	0.16245	0.10553	0.27884	-1.1042	-2.1417	-1.7104	-1.55	-2.2396	-1.6146	-2.0667	-2.1146	-1.2354	-1.9917	-2.2042	-1.7083	-2.3417	-1.7583	-1.8333	-2.3917	398.841	104.105	127.326	126.288	408.633	421.484	325.172	280.454	142.513	225.414	244.765	170.044	421.849	305.132	212.474	245.902	0.00047727	0.00056408	0.00026802	1009	6.1518e-06	1.2487e-05	1344.6	316.46	1.0468e-05	6.7462e-06	526.69	185.51	101.08	32.669	7.6459e-06	64.984	0.0018173	0.0019047	0.0005474	936.68	2.0922e-05	2.1e-05	1222.2	293.65	2.019e-05	1.9962e-05	485.24	171.08	97.289	31.571	2.1106e-05	60.804	164.135	133.288	244.326	79.117	140.674	133.447	78.815	84.263	226.399	382.160	83.187	87.341	88.436	92.727	136.484	91.657	-8191	255	
28697.545	1	1	0	0	0.16145	0.10491	0.090597	0.22661	0.016755	0.25785	0.25307	0.32575	0.18011	0.40333	0.20143	0.28903	0.077877	0.25816	0.22041	0.35895	-0.94167	-1.9333	-2.0312	-1.4271	-2.2854	-1.7208	-1.925	-2.3292	-1.4042	-1.9354	-2.2583	-1.6208	-2.2104	-1.7729	-1.5333	-2.4229	352.687	149.731	257.010	363.626	419.992	396.420	356.499	373.526	226.146	198.776	380.260	389.280	370.802	324.736	396.879	402.444	0.00045628	0.0011077	0.00029448	1006.3	1.6198e-06	1.6398e-05	1339.1	315.16	6.6677e-06	7.7801e-06	522.93	184.88	101.22	33.204	1.3326e-05	65.705	0.0018007	0.0019796	0.0005614	940.04	2.1349e-05	2.1991e-05	1227.9	293.42	2.1649e-05	2.1494e-05	486.98	172.04	97.954	32.159	2.1323e-05	61.712	172.270	126.861	317.234	79.009	408.693	180.470	79.021	84.235	221.199	173.769	83.201	87.115	88.303	93.085	265.701	91.242	-8191	255	
28697.641	1	1	0	0	0.22316	0.21618	0.39791	0.41951	0.10661	0.30207	0.20424	0.40238	0.11234	0.11113	0.27844	0.34124	0.087823	0.19749	0.21343	0.094214	-0.9625	-1.7479	-2.15	-1.3729	-2.1229	-1.925	-1.6896	-2.2854	-1.4208	-1.7042	-2.2938	-1.3979	-2.2667	-1.7687	-1.3917	-2.4271	134.825	117.128	348.581	384.697	189.089	95.216	374.018	366.546	222.455	100.761	391.529	419.906	226.022	376.305	325.138	113.531	0.00061063	0.00076144	0.00036141	1011	4.0206e-06	1.5862e-05	1348.5	320.45	3.7236e-06	1.7105e-05	524.31	184.88	101.71	32.92	4.1059e-06	64.792	0.0018198	0.0019653	0.00055173	942.22	2.1001e-05	2.1908e-05	1233.4	296.23	2.1468e-05	2.1671e-05	491.24	172.27	98.06	32.047	2.2715e-05	61.158	173.881	114.190	168.311	78.922	321.846	165.458	79.054	84.426	313.932	314.050	83.038	87.127	88.242	93.071	223.317	91.720	-8191	255	
28697.736	1	1	0	0	0.12074	0.22293	0.20113	0.034523	0.21938	0.076652	0.15902	0.34168	0.071793	0.13702	0.14064	0.25125	0.14965	0.10159	0.16434	0.14384	-1.1375	-1.6229	-2.1354	-1.6562	-1.9792	-1.9875	-1.5667	-2.4208	-1.6792	-1.5729	-2.2521	-1.6	-2.0708	-1.9417	-1.3	-2.2583	133.693	211.473	313.429	197.126	251.298	189.934	420.894	77.195	146.174	140.356	113.656	132.796	359.706	410.112	79.379	325.288	0.00049828	0.00034166	0.00025087	1005.3	1.4696e-05	1.9125e-05	1332.7	316.9	9.1638e-07	1.1292e-05	509.33	182.31	100.1	32.169	2.1447e-05	63.704	0.0019597	0.0020778	0.00059275	941.08	2.2525e-05	2.36e-05	1222.7	293.85	2.3204e-05	2.3167e-05	484.16	170.22	97.405	31.855	2.3887e-05	60.767	170.954	187.085	168.684	78.419	264.468	189.674	78.773	84.132	147.889	161.568	83.103	87.281	89.034	92.969	245.409	91.590	-8191	255	
28697.811	1	1	0	0	0.173	0.051876	0.23546	0.010482	0.1893	0.1989	0.28456	0.2595	0.18477	0.19832	0.1346	0.16806	0.11684	0.22767	0.20521	0.26399	-1.2333	-1.4542	-2.1417	-1.3375	-1.9562	-1.9	-1.5312	-2.2625	-1.6729	-1.4438	-2.3896	-1.4604	-1.9688	-2.1333	-1.4062	-2.1896	85.879	278.085	358.041	355.009	367.640	355.017	355.166	396.418	282.960	331.989	87.638	395.418	102.166	89.951	393.575	364.798	0.00052772	0.00033199	0.00030258	1005.8	6.8272e-06	2.6955e-07	1324.9	313.04	1.178e-05	1.1916e-05	511.3	179.1	98.958	31.661	2.6823e-05	62.225	0.0020922	0.0022706	0.00063896	943.14	2.4662e-05	2.601e-05	1222	293.46	2.6567e-05	2.7097e-05	486.35	170.02	98.782	31.932	2.8269e-05	60.247	173.601	99.243	278.858	79.334	137.018	334.387	78.752	83.714	355.868	190.954	83.157	87.106	88.569	93.578	208.665	91.355	-8191	255	
28697.930	1	1	0	0	0.1073	0.2153	0.24696	0.21407	0.25449	0.16388	0.29663	0.30645	0.06779	0.15727	0.027503	0.04124	0.13271	0.10663	0.29599	0.40073	-1.3687	-1.4646	-2.4104	-1.5208	-1.5312	-2.2562	-1.5667	-2.1667	-1.6938	-1.4542	-2.2792	-1.5333	-1.4958	-2.2729	-1.3854	-2.0958	69.374	98.933	418.421	393.945	183.679	395.007	306.554	357.397	218.089	356.288	83.132	275.943	365.806	344.089	143.852	359.488	0.00040171	0.00099225	0.00020382	997.34	9.0257e-06	2.0292e-05	1315.8	311.18	8.352e-06	1.3341e-05	500.93	176.81	97.753	31.173	6.7002e-06	62.233	0.0024529	0.0026489	0.00074051	950.77	2.8963e-05	2.9973e-05	1223.9	293.93	3.0368e-05	3.0854e-05	487.09	169.28	99.236	32.057	3.2702e-05	60.845	177.573	181.065	374.425	79.005	269.719	296.379	79.086	84.281	88.422	282.313	83.198	87.308	89.162	93.705	80.822	91.531	-8191	255	
