BOXY.EXE: ISS Imagent and Oximeter Data Acquisition Program Version 0.80
Ascii Record File

#ACQ INFORMATION
2  Detector Channels 
16  External MUX Channels 
1  Auxiliary Channels 
5000  Waveform (CCF) Frequency (Hz)
1  Waveforms Skipped 
30  Waveforms Averaged 
1  Cycles Averaged 
16  Acquisitions per Waveform 
10.0806  Updata Rate (Hz) 

#FILE INFORMATION
TRUE -- External MUX Channel results are PARSED.
FALSE -- AC DC and Phase are NOT grouped.
TRUE -- Companion Program Settings File CREATED.
FALSE -- AC data not excluded
FALSE -- DC data not excluded
FALSE -- Phase data not excluded
FALSE -- Auxillary Chn. data not excluded
Tab delimiters

#CALIBRATION STATE
TRUE -- Waveform Calibration Values APPLIED.


#AUX CALIBRATION VALUES
Val Type	aux-1	

Term	1.0000e+00	
Factor	0.0000e+00	


#WF CALIBRATION VALUES
A = Detector Channel
Val Type	A-AC1	A-AC2	A-AC3	A-AC4	A-AC5	A-AC6	A-AC7	A-AC8	A-AC9	A-AC10	A-AC11	A-AC12	A-AC13	A-AC14	A-AC15	A-AC16	A-DC1	A-DC2	A-DC3	A-DC4	A-DC5	A-DC6	A-DC7	A-DC8	A-DC9	A-DC10	A-DC11	A-DC12	A-DC13	A-DC14	A-DC15	A-DC16	A-Ph1	A-Ph2	A-Ph3	A-Ph4	A-Ph5	A-Ph6	A-Ph7	A-Ph8	A-Ph9	A-Ph10	A-Ph11	A-Ph12	A-Ph13	A-Ph14	A-Ph15	A-Ph16	

Term	0.00000e+00	0.00000e+00	0.00000e+00	0.00000e+00	0.00000e+00	0.00000e+00	0.00000e+00	0.00000e+00	0.00000e+00	0.00000e+00	0.00000e+00	0.00000e+00	0.00000e+00	0.00000e+00	0.00000e+00	0.00000e+00	0.00000e+00	0.00000e+00	0.00000e+00	0.00000e+00	0.00000e+00	0.00000e+00	0.00000e+00	0.00000e+00	0.00000e+00	0.00000e+00	0.00000e+00	0.00000e+00	0.00000e+00	0.00000e+00	0.00000e+00	0.00000e+00	0.00000e+00	0.00000e+00	0.00000e+00	0.00000e+00	0.00000e+00	0.00000e+00	0.00000e+00	0.00000e+00	0.00000e+00	0.00000e+00	0.00000e+00	0.00000e+00	0.00000e+00	0.00000e+00	0.00000e+00	0.00000e+00	
Factor	1.00000e+00	1.00000e+00	1.00000e+00	1.00000e+00	1.00000e+00	1.00000e+00	1.00000e+00	1.00000e+00	1.00000e+00	1.00000e+00	1.00000e+00	1.00000e+00	1.00000e+00	1.00000e+00	1.00000e+00	1.00000e+00	1.00000e+00	1.00000e+00	1.00000e+00	1.00000e+00	1.00000e+00	1.00000e+00	1.00000e+00	1.00000e+00	1.00000e+00	1.00000e+00	1.00000e+00	1.00000e+00	1.00000e+00	1.00000e+00	1.00000e+00	1.00000e+00	X	X	X	X	X	X	X	X	X	X	X	X	X	X	X	X	

B = Detector Channel
Val Type	B-AC1	B-AC2	B-AC3	B-AC4	B-AC5	B-AC6	B-AC7	B-AC8	B-AC9	B-AC10	B-AC11	B-AC12	B-AC13	B-AC14	B-AC15	B-AC16	B-DC1	B-DC2	B-DC3	B-DC4	B-DC5	B-DC6	B-DC7	B-DC8	B-DC9	B-DC10	B-DC11	B-DC12	B-DC13	B-DC14	B-DC15	B-DC16	B-Ph1	B-Ph2	B-Ph3	B-Ph4	B-Ph5	B-Ph6	B-Ph7	B-Ph8	B-Ph9	B-Ph10	B-Ph11	B-Ph12	B-Ph13	B-Ph14	B-Ph15	B-Ph16	

Term	0.00000e+00	0.00000e+00	0.00000e+00	0.00000e+00	0.00000e+00	0.00000e+00	0.00000e+00	0.00000e+00	0.00000e+00	0.00000e+00	0.00000e+00	0.00000e+00	0.00000e+00	0.00000e+00	0.00000e+00	0.00000e+00	0.00000e+00	0.00000e+00	0.00000e+00	0.00000e+00	0.00000e+00	0.00000e+00	0.00000e+00	0.00000e+00	0.00000e+00	0.00000e+00	0.00000e+00	0.00000e+00	0.00000e+00	0.00000e+00	0.00000e+00	0.00000e+00	-3.43671e-01	-1.28886e+02	-1.25619e+02	-1.82862e+02	-5.71745e+01	-6.81809e+01	-1.60871e+02	-1.62015e+02	-3.19388e+01	-6.41406e+01	-1.72576e+02	-1.72478e+02	-1.82445e+02	-1.78185e+02	-5.29652e+01	-1.51172e+02	
Factor	3.74574e-05	1.65184e-04	5.15718e-05	1.65372e-01	2.41300e-06	1.69649e-06	1.91291e-01	5.90050e-02	2.23131e-06	1.72544e-06	9.08189e-02	3.18365e-02	2.88288e-02	9.23025e-03	2.06985e-06	1.33595e-02	8.31791e-06	1.05830e-05	2.94811e-06	8.55080e-02	1.10851e-07	1.17203e-07	9.29119e-02	3.05842e-02	1.10972e-07	1.16886e-07	4.57212e-02	1.59736e-02	1.50964e-02	4.83111e-03	1.13233e-07	6.77596e-03	X	X	X	X	X	X	X	X	X	X	X	X	X	X	X	X	



#DISTANCE SETTINGS
A = Detector Channel
A-1	A-2	A-3	A-4	A-5	A-6	A-7	A-8	A-9	A-10	A-11	A-12	A-13	A-14	A-15	A-16	

2.5000e+00	3.0000e+00	2.5000e+00	3.0000e+00	2.0000e+00	3.0000e+00	1.5000e+00	3.0000e+00	3.0000e+00	3.0000e+00	3.0000e+00	3.0000e+00	3.0000e+00	3.0000e+00	1.5000e+00	3.0000e+00	

B = Detector Channel
B-1	B-2	B-3	B-4	B-5	B-6	B-7	B-8	B-9	B-10	B-11	B-12	B-13	B-14	B-15	B-16	

1.0000e+01	1.0000e+01	1.0000e+01	1.4400e+00	1.0000e+01	1.0000e+01	1.5100e+00	1.9400e+00	1.0000e+01	1.0000e+01	1.9900e+00	2.4900e+00	2.4100e+00	2.9000e+00	1.0000e+01	2.9800e+00	




#DATA BEGINS
time	group	step	mark	flag	A-AC1	A-AC2	A-AC3	A-AC4	A-AC5	A-AC6	A-AC7	A-AC8	A-AC9	A-AC10	A-AC11	A-AC12	A-AC13	A-AC14	A-AC15	A-AC16	A-DC1	A-DC2	A-DC3	A-DC4	A-DC5	A-DC6	A-DC7	A-DC8	A-DC9	A-DC10	A-DC11	A-DC12	A-DC13	A-DC14	A-DC15	A-DC16	A-Ph1	A-Ph2	A-Ph3	A-Ph4	A-Ph5	A-Ph6	A-Ph7	A-Ph8	A-Ph9	A-Ph10	A-Ph11	A-Ph12	A-Ph13	A-Ph14	A-Ph15	A-Ph16	B-AC1	B-AC2	B-AC3	B-AC4	B-AC5	B-AC6	B-AC7	B-AC8	B-AC9	B-AC10	B-AC11	B-AC12	B-AC13	B-AC14	B-AC15	B-AC16	B-DC1	B-DC2	B-DC3	B-DC4	B-DC5	B-DC6	B-DC7	B-DC8	B-DC9	B-DC10	B-DC11	B-DC12	B-DC13	B-DC14	B-DC15	B-DC16	B-Ph1	B-Ph2	B-Ph3	B-Ph4	B-Ph5	B-Ph6	B-Ph7	B-Ph8	B-Ph9	B-Ph10	B-Ph11	B-Ph12	B-Ph13	B-Ph14	B-Ph15	B-Ph16	aux-1	digaux	

7605.796	1	1	0	768	0.098206	0.31827	0.24366	0.077981	0.18237	0.12382	0.15263	0.15182	0.11551	0.061307	0.041261	0.041678	0.2586	0.026317	0.17877	0.16935	-2.3521	-2.6667	-2.4521	-3.1208	-2.5479	-2.7208	-2.9229	-2.5104	-2.7979	-2.6917	-2.6958	-3.0146	-2.7229	-2.6875	-2.95	-2.4437	371.750	190.521	250.553	395.039	100.641	184.845	377.535	271.706	255.898	323.802	127.203	288.245	375.299	371.899	394.538	227.110	0.00061807	0.00098671	0.00026874	848.42	5.5798e-06	4.7381e-06	950.19	202.25	5.8873e-06	2.0896e-06	266.01	89.675	59.999	22.238	5.3245e-06	35.984	0.0014245	0.001703	0.00046777	780.37	1.7602e-05	1.8759e-05	874.34	187.62	1.7874e-05	1.8426e-05	247.89	83.637	56.663	21.199	1.78e-05	34.045	277.527	194.015	81.480	68.075	269.583	143.981	67.804	73.261	267.560	254.223	72.704	77.600	79.375	83.705	103.657	81.432	-8191	255	
7605.893	1	1	0	0	0.11271	0.073577	0.052675	0.099719	0.11084	0.25318	0.081474	0.13645	0.12795	0.11819	0.13401	0.070757	0.19126	0.23586	0.14012	0.17176	-2.4354	-2.7417	-2.4042	-3.1042	-2.4875	-2.6833	-3.1396	-2.575	-2.8396	-2.9062	-2.6583	-2.9167	-2.7854	-2.6312	-2.9417	-2.5938	345.812	260.143	349.628	339.325	305.634	284.399	273.812	324.986	197.401	369.688	265.226	143.015	80.914	392.413	375.149	350.445	0.00062244	0.00081106	0.00014326	846.09	4.4652e-06	5.4718e-06	964.73	202.81	6.067e-06	9.2581e-06	267.67	91.367	60.401	22.668	2.5415e-06	36.468	0.0014015	0.0016563	0.00047379	780.52	1.7681e-05	1.8724e-05	880.84	189.3	1.7999e-05	1.8716e-05	250.77	84.869	57.333	21.387	1.8419e-05	34.35	278.996	113.785	156.048	67.794	128.096	247.873	67.708	73.850	118.108	133.910	72.197	78.182	79.864	83.415	310.165	81.147	-8191	255	
7605.989	1	1	0	0	0.23025	0.14877	0.11056	0.076905	0.34374	0.22116	0.20483	0.39778	0.1975	0.22866	0.19549	0.19667	0.37903	0.2423	0.15398	0.16671	-2.2354	-2.8792	-2.4625	-2.7917	-2.8854	-2.5333	-3.1354	-2.5542	-2.7833	-2.8875	-2.6188	-2.8563	-2.7458	-2.7354	-2.9521	-2.55	383.870	244.299	117.886	233.874	131.782	323.514	396.286	192.360	226.800	135.498	321.236	373.719	225.333	408.070	308.141	307.991	0.00057622	0.00049337	0.0001685	851.32	8.4121e-06	2.6323e-06	946.19	202.85	1.2885e-05	4.6621e-06	267.36	90.601	60.301	22.528	5.9469e-06	36.618	0.001449	0.0016763	0.00047196	782.79	1.7503e-05	1.8337e-05	872.56	187.6	1.7212e-05	1.8174e-05	248.52	84.432	56.805	21.396	1.7002e-05	34.502	292.884	178.951	185.435	68.154	192.688	212.701	68.057	73.439	266.197	269.278	72.716	78.373	79.421	83.436	207.155	80.486	-8191	255	
7606.085	1	1	0	0	0.17817	0.17375	0.14604	0.232	0.26717	0.23233	0.33634	0.16818	0.35633	0.14569	0.34918	0.39589	0.22476	0.17631	0.057499	0.28592	-2.1729	-2.8167	-2.3792	-2.8271	-2.8146	-2.2583	-3.0438	-2.6958	-2.7729	-3.1562	-2.55	-2.7479	-2.9458	-2.4208	-2.9396	-2.7188	61.577	336.368	278.845	397.496	229.114	74.951	405.862	62.018	288.867	331.705	365.817	84.100	373.548	381.794	287.027	369.953	0.00064311	0.00074046	7.8558e-05	821.82	1.6132e-06	4.2775e-06	939.12	197.16	1.1005e-05	7.956e-06	261.69	90.301	59.514	22.577	5.0927e-06	36.835	0.0013272	0.0015819	0.0004322	760.51	1.6745e-05	1.6798e-05	860.01	183.55	1.6581e-05	1.6615e-05	244.23	83.767	56.044	21.422	1.6573e-05	34.563	278.620	92.552	131.093	68.162	230.337	197.653	67.924	73.570	285.131	139.469	72.307	78.238	79.513	83.799	241.213	80.624	-8191	255	
7606.181	1	1	0	0	0.14119	0.014681	0.23047	0.22298	0.019305	0.079433	0.18685	0.12701	0.025841	0.19646	0.064761	0.088625	0.24044	0.40978	0.059494	0.15498	-2.2125	-2.775	-2.375	-2.9646	-2.7333	-2.5833	-3.0458	-2.8312	-2.5479	-3.1167	-2.6042	-2.8708	-2.9062	-2.3625	-2.9458	-2.7083	272.837	117.404	297.625	369.569	105.412	100.820	272.362	67.623	248.104	188.398	342.822	322.430	345.149	410.087	285.013	271.882	0.00048055	0.00025654	5.4343e-05	821.5	8.3805e-06	7.0968e-06	937.42	198.68	7.8617e-06	4.6664e-06	260.62	89.018	59.34	22.557	7.6827e-06	36.32	0.001281	0.0015024	0.00042519	759.61	1.588e-05	1.6711e-05	858	183.77	1.5991e-05	1.6388e-05	244.37	83.199	55.978	21.415	1.6573e-05	34.116	290.750	244.159	362.973	68.476	352.104	179.844	68.203	74.038	303.225	353.135	72.804	78.052	79.384	83.892	210.999	80.905	-8191	255	
7606.277	1	1	0	0	0.058066	0.30365	0.13471	0.18699	0.20849	0.31573	0.16156	0.24131	0.052754	0.18127	0.19284	0.38178	0.056209	0.235	0.28459	0.28852	-2.1354	-3.0833	-2.6333	-2.7229	-2.8667	-2.4833	-2.9688	-2.8937	-2.4125	-3.1208	-2.6646	-2.7042	-2.9521	-2.4542	-2.7708	-2.8438	132.700	307.997	254.182	328.915	346.452	384.909	385.417	266.218	109.123	271.056	314.462	376.116	254.024	153.872	226.338	337.493	0.00061051	4.1948e-05	0.00025724	838.86	1.1033e-05	2.8002e-06	945.95	200.13	8.1595e-06	2.1742e-06	263.24	88.743	59.614	22.362	8.2074e-06	36.2	0.0013337	0.0015698	0.00044011	771.41	1.6262e-05	1.6992e-05	867.54	185.34	1.6835e-05	1.714e-05	245.64	83.08	56.091	21.218	1.6684e-05	34.08	297.295	69.326	217.203	68.191	248.661	94.894	67.871	73.741	283.684	87.631	72.710	77.914	79.536	83.707	224.393	80.764	-8191	255	
7606.398	1	1	0	0	0.39354	0.10367	0.45264	0.26007	0.1886	0.17454	0.17243	0.11907	0.17304	0.13522	0.24573	0.16324	0.11617	0.16337	0.33063	0.26753	-1.9771	-2.8292	-2.5187	-2.6021	-2.8708	-2.6167	-2.8729	-2.8	-2.6437	-2.8646	-2.5	-2.6833	-3.0146	-2.4188	-2.9	-3.0229	369.314	128.806	335.152	307.496	172.950	244.802	65.428	366.763	373.529	86.228	224.694	255.150	90.706	310.180	402.687	299.396	0.00063291	0.00029475	0.00028901	837.25	1.1198e-05	1.7672e-06	933.19	198.66	4.0317e-06	4.9232e-06	261.02	89.476	59.055	22.249	9.334e-06	36.496	0.0013321	0.0015497	0.00042913	768.11	1.6159e-05	1.6786e-05	858.46	183.52	1.6059e-05	1.642e-05	243.75	82.789	55.588	21.137	1.5967e-05	34.209	284.243	146.713	144.508	68.487	238.991	176.866	68.161	73.714	119.900	252.771	72.562	78.590	80.420	84.248	322.466	80.607	-8191	255	
7606.494	1	1	0	0	0.20644	0.080246	0.14636	0.13926	0.27392	0.29882	0.37955	0.27004	0.40784	0.05816	0.33694	0.20984	0.15089	0.1303	0.12133	0.1794	-1.8771	-2.9562	-2.5687	-2.7062	-3.0333	-2.5479	-2.6917	-2.9271	-2.6708	-3.0146	-2.75	-2.5479	-2.9271	-2.5667	-2.7583	-2.8167	156.324	156.966	151.036	397.848	399.799	283.580	376.612	73.777	184.094	204.928	415.078	107.097	374.965	231.242	415.031	63.903	0.0005891	0.0002304	0.00013157	834.04	4.9521e-06	1.7983e-06	934.5	196.99	5.466e-06	5.3465e-06	263.69	89.123	59.347	22.65	2.5571e-06	36.677	0.0012756	0.0014855	0.00042432	766.26	1.5591e-05	1.661e-05	858.97	183.21	1.5856e-05	1.5901e-05	244.13	83.235	55.654	21.389	1.546e-05	34.406	284.187	242.920	71.382	68.116	229.563	229.716	68.062	73.670	220.748	268.382	72.602	78.539	79.484	83.676	281.733	80.683	-8191	255	
7606.588	1	1	0	0	0.12892	0.087759	0.0035386	0.2692	0.084987	0.16655	0.057955	0.080244	0.13307	0.23442	0.18289	0.20165	0.1246	0.24477	0.058686	0.16684	-1.8813	-2.7021	-2.6583	-2.4875	-2.8812	-2.6792	-2.75	-3.0875	-2.3896	-2.6271	-2.7875	-2.6667	-2.8187	-2.5604	-2.5542	-3.0792	147.970	143.562	387.157	412.713	393.768	385.707	215.884	349.771	99.697	311.125	311.973	99.375	384.614	353.532	259.681	341.911	0.00050524	0.00063071	0.00012572	824.58	8.1508e-06	5.4022e-06	929.7	196.45	5.6289e-06	4.1641e-06	262.79	89.759	59.057	22.537	2.1858e-06	36.565	0.0011919	0.0013921	0.00038863	757.55	1.4746e-05	1.5702e-05	852.24	181.95	1.4298e-05	1.4975e-05	243.32	83.208	55.62	21.28	1.5079e-05	34.255	285.291	157.959	131.954	67.884	229.258	211.364	67.992	73.615	259.489	166.854	72.768	78.223	79.863	83.846	119.391	80.753	-8191	255	
7606.686	1	1	0	0	0.14539	0.17705	0.094785	0.22661	0.042704	0.10991	0.19194	0.18461	0.17927	0.18807	0.15837	0.079712	0.081439	0.23675	0.22075	0.14203	-2.15	-2.8771	-2.8083	-2.8021	-2.9146	-2.7479	-2.7104	-2.95	-2.3708	-2.8708	-2.8208	-2.525	-3.0042	-2.6458	-2.4458	-3.0125	235.591	90.006	249.412	345.772	337.148	197.670	344.952	406.878	122.971	196.482	93.740	384.568	167.459	299.978	270.384	84.876	0.00053112	0.00079581	1.8201e-05	827.51	2.4118e-06	8.7712e-06	932.7	197.71	6.2261e-06	5.4959e-06	262.6	89.426	59.106	22.499	5.1901e-06	36.275	0.0011954	0.0014013	0.00039292	759.59	1.483e-05	1.5619e-05	853.56	182.53	1.4851e-05	1.6336e-05	244.7	82.988	55.595	21.224	1.6159e-05	34.233	284.180	119.678	97.461	68.198	129.812	286.214	68.257	74.011	236.743	190.574	72.231	78.361	79.493	84.024	195.573	80.960	-8191	255	
7606.781	1	1	0	0	0.23812	0.057328	0.090484	0.08197	0.37569	0.28401	0.26376	0.039706	0.30346	0.13081	0.091243	0.12065	0.152	0.29531	0.16267	0.19185	-2.1375	-2.8167	-2.8854	-2.4708	-2.7458	-2.7896	-2.5938	-2.9	-2.6646	-2.6604	-2.9083	-2.3063	-2.8146	-2.7104	-2.4458	-2.9104	384.231	91.055	63.662	106.779	171.326	378.940	252.454	76.103	186.746	111.434	392.354	183.548	66.534	340.744	347.758	112.229	0.0004811	0.0013048	0.00011699	849.82	1.0361e-05	7.1483e-06	953.01	200.39	7.6135e-06	3.8895e-06	264.48	89.762	59.34	22.287	6.7159e-06	36.54	0.0013199	0.0015476	0.00042854	780.01	1.6449e-05	1.7354e-05	873.4	186.23	1.6322e-05	1.6726e-05	246.56	83.362	56.028	21.246	1.596e-05	34.175	268.723	168.771	117.804	67.959	302.858	217.861	68.053	73.970	200.035	220.418	72.541	78.068	79.200	84.409	160.105	80.527	-8191	255	
7606.877	1	1	0	0	0.16433	0.13753	0.15666	0.19886	0.11488	0.072853	0.11956	0.1539	0.040208	0.28829	0.26854	0.17381	0.010778	0.10755	0.16658	0.23902	-2.0104	-2.7188	-2.8479	-2.6146	-2.6312	-2.8125	-2.525	-2.9917	-2.6646	-2.5583	-3.0021	-2.5812	-2.9938	-3.0292	-2.5125	-2.8708	77.845	260.244	112.208	395.449	102.662	166.160	390.408	239.586	304.502	219.320	267.897	251.839	343.417	158.299	297.783	290.156	0.0005864	0.00033548	0.00011561	834.6	1.2771e-05	2.9021e-06	931.17	195.77	4.4964e-06	1.1069e-06	259.7	88.682	58.639	22.391	1.0394e-05	36.579	0.0012912	0.0014513	0.00041772	765.71	1.6128e-05	1.606e-05	855.66	181.93	1.5043e-05	1.5767e-05	242.63	82.995	55.226	21.258	1.5e-05	34.35	288.439	117.975	337.506	68.023	314.330	207.667	68.482	74.132	204.487	179.410	72.727	78.079	79.511	83.517	287.839	80.844	-8191	255	
7606.997	1	1	0	0	0.24259	0.32831	0.020829	0.19209	0.065323	0.20644	0.026313	0.14057	0.095687	0.12605	0.038804	0.13054	0.20883	0.14179	0.14097	0.12205	-2.1458	-2.5083	-2.9479	-2.725	-2.5875	-2.775	-2.4813	-2.8438	-2.7	-2.4708	-2.9667	-2.6104	-2.6813	-2.8812	-2.5438	-2.9437	340.892	391.437	111.340	364.182	111.007	285.295	355.912	344.678	107.209	211.935	367.363	331.821	286.127	354.711	127.467	275.683	0.00063416	0.00051824	0.0001311	833.41	8.3605e-06	4.3156e-06	942.38	199.16	1.0511e-05	7.359e-06	263.91	89.399	59.408	22.556	3.4444e-06	36.702	0.0012333	0.0013994	0.00040696	763.81	1.5324e-05	1.6068e-05	861.4	184.18	1.5682e-05	1.6968e-05	245.79	83.64	56.245	21.403	1.6637e-05	34.28	290.200	191.907	405.485	67.981	222.622	115.195	68.018	74.042	243.474	171.639	72.362	78.042	79.411	83.544	222.035	80.933	-8191	255	
7607.094	1	1	0	0	0.26367	0.065253	0.12897	0.23422	0.16326	0.25496	0.11532	0.16988	0.10677	0.14198	0.16445	0.14995	0.066506	0.14622	0.094774	0.13721	-2.1625	-2.5604	-2.7583	-2.7042	-2.4917	-2.8438	-2.5146	-2.8021	-2.6	-2.7458	-3.0875	-2.6479	-2.6021	-3.0521	-2.3208	-2.8917	293.519	224.608	215.473	408.711	392.457	392.643	371.907	321.170	104.383	87.160	152.900	266.922	164.227	270.021	83.746	338.873	0.00063483	0.00086362	0.00025954	852.82	4.8025e-06	1.6597e-06	957.95	205.82	7.9938e-06	6.0959e-06	268.62	90.167	60.394	22.633	6.4542e-06	35.956	0.001364	0.0016602	0.00044607	784.74	1.7415e-05	1.8204e-05	881.91	190.59	1.7647e-05	1.8629e-05	251.78	84.596	57.21	21.419	1.8276e-05	34.089	272.824	164.318	156.083	68.164	307.970	124.463	68.399	73.860	254.178	269.360	72.522	78.137	79.587	84.261	178.899	80.861	-8191	255	
7607.190	1	1	0	0	0.097592	0.2714	0.15951	0.057148	0.079484	0.087293	0.13512	0.11633	0.030627	0.17921	0.079418	0.1213	0.26338	0.094117	0.37203	0.083656	-2.2729	-2.3771	-2.7979	-2.6979	-2.5312	-3.0479	-2.6188	-2.8104	-3.0104	-2.5521	-2.9708	-2.6521	-2.5167	-3.0208	-2.4938	-2.7979	68.803	181.528	232.877	124.662	180.417	244.331	397.965	252.110	403.955	125.284	279.148	386.455	265.799	409.399	212.621	403.718	0.00042057	0.00067839	0.00022262	857.88	1.38e-05	5.4499e-06	959.35	204.92	5.6534e-06	9.3217e-06	268.43	90.361	60.27	22.45	1.4354e-05	35.907	0.0014348	0.0016893	0.00047177	792.04	1.8532e-05	1.8831e-05	882.87	190.27	1.7923e-05	1.8866e-05	251.02	84.647	57.083	21.423	1.8397e-05	34.104	280.476	150.001	75.303	67.988	193.485	235.002	67.650	73.621	411.236	244.298	72.286	78.286	79.618	83.802	175.542	81.031	-8191	255	
7607.286	1	1	0	0	0.20149	0.29117	0.24765	0.11086	0.11612	0.12329	0.15247	0.19696	0.19028	0.23511	0.16815	0.34388	0.33461	0.11493	0.10519	0.074642	-2.3771	-2.2875	-2.8396	-2.8063	-2.3646	-2.8625	-2.525	-2.7729	-2.875	-2.4021	-2.7604	-2.7271	-2.4708	-2.9021	-2.5875	-2.75	369.980	319.263	267.339	331.370	403.870	408.093	296.394	196.675	178.267	271.424	357.801	100.266	344.647	344.105	61.905	89.817	0.000502	0.0002424	5.9433e-05	854.14	1.1545e-05	6.3486e-06	954.52	203.91	4.9182e-06	6.4172e-06	270.34	90.014	60.392	22.682	4.7231e-06	36.64	0.0014274	0.0016686	0.0004612	786.56	1.7523e-05	1.843e-05	880.74	189.36	1.7079e-05	1.8266e-05	250.87	84.47	57.036	21.517	1.7476e-05	34.569	288.317	256.697	175.585	68.234	232.014	224.492	68.129	73.761	381.183	245.278	72.115	78.346	80.350	83.533	272.732	80.921	-8191	255	
7607.358	1	1	0	0	0.12517	0.058777	0.30839	0.18973	0.0043455	0.19251	0.22338	0.090635	0.12711	0.15848	0.24182	0.28809	0.165	0.2887	0.31501	0.026193	-2.5417	-2.3021	-2.7146	-2.6604	-2.5125	-3.0479	-2.5062	-2.575	-2.8771	-2.6125	-2.8354	-2.7208	-2.4062	-2.9146	-2.6562	-2.6042	314.248	291.833	236.849	102.121	237.804	306.891	65.234	361.491	91.611	88.518	286.839	373.828	386.269	56.790	69.612	69.586	0.00056296	0.00065475	0.00025722	849.62	7.946e-06	1.0932e-05	950.97	202.63	6.1834e-06	1.8185e-06	265.79	90.291	60.061	22.226	5.2325e-06	36.066	0.0013337	0.0015773	0.00044441	782.82	1.6808e-05	1.7666e-05	878.09	188.53	1.7078e-05	1.7945e-05	249.13	84.04	56.853	21.324	1.7524e-05	33.994	291.541	123.815	129.607	67.946	188.963	159.523	67.944	73.524	208.215	211.702	72.296	78.211	79.470	83.855	291.584	80.838	-8191	255	
7607.478	1	1	0	0	0.18843	0.094872	0.26232	0.28125	0.13039	0.12756	0.25386	0.065511	0.17893	0.067452	0.23508	0.13956	0.34948	0.1906	0.16934	0.085209	-2.5687	-2.4542	-2.6792	-2.8917	-2.4667	-2.8208	-2.7229	-2.3333	-2.8354	-2.4688	-2.675	-2.8375	-2.5042	-3.0104	-2.5812	-2.4125	272.027	114.890	77.666	317.593	133.271	258.190	384.287	117.169	146.655	138.978	297.718	343.067	131.541	187.305	266.565	134.061	0.00060726	0.00036529	0.00020299	860.08	8.0481e-06	5.0236e-06	961.27	205.01	2.3633e-06	5.9467e-06	264.25	89.654	60.042	22.299	1.2911e-05	35.846	0.0013966	0.0016334	0.00045223	790.74	1.7303e-05	1.8123e-05	882.17	189.91	1.6829e-05	1.7456e-05	248.9	83.394	56.607	21.208	1.7311e-05	33.98	292.819	111.041	163.994	68.088	320.218	277.141	67.751	73.627	345.552	215.639	72.848	78.192	79.667	84.097	221.464	80.968	-8191	255	
