BOXY.EXE: ISS Imagent and Oximeter Data Acquisition Program Version 0.80
Ascii Record File

#ACQ INFORMATION
2  Detector Channels 
16  External MUX Channels 
1  Auxiliary Channels 
5000  Waveform (CCF) Frequency (Hz)
1  Waveforms Skipped 
30  Waveforms Averaged 
1  Cycles Averaged 
16  Acquisitions per Waveform 
10.0806  Updata Rate (Hz) 

#FILE INFORMATION
TRUE -- External MUX Channel results are PARSED.
FALSE -- AC DC and Phase are NOT grouped.
TRUE -- Companion Program Settings File CREATED.
FALSE -- AC data not excluded
FALSE -- DC data not excluded
FALSE -- Phase data not excluded
FALSE -- Auxillary Chn. data not excluded
Tab delimiters

#CALIBRATION STATE
TRUE -- Waveform Calibration Values APPLIED.


#AUX CALIBRATION VALUES
Val Type	aux-1	

Term	1.0000e+00	
Factor	0.0000e+00	


#WF CALIBRATION VALUES
A = Detector Channel
Val Type	A-AC1	A-AC2	A-AC3	A-AC4	A-AC5	A-AC6	A-AC7	A-AC8	A-AC9	A-AC10	A-AC11	A-AC12	A-AC13	A-AC14	A-AC15	A-AC16	A-DC1	A-DC2	A-DC3	A-DC4	A-DC5	A-DC6	A-DC7	A-DC8	A-DC9	A-DC10	A-DC11	A-DC12	A-DC13	A-DC14	A-DC15	A-DC16	A-Ph1	A-Ph2	A-Ph3	A-Ph4	A-Ph5	A-Ph6	A-Ph7	A-Ph8	A-Ph9	A-Ph10	A-Ph11	A-Ph12	A-Ph13	A-Ph14	A-Ph15	A-Ph16	

Term	0.00000e+00	0.00000e+00	0.00000e+00	0.00000e+00	0.00000e+00	0.00000e+00	0.00000e+00	0.00000e+00	0.00000e+00	0.00000e+00	0.00000e+00	0.00000e+00	0.00000e+00	0.00000e+00	0.00000e+00	0.00000e+00	0.00000e+00	0.00000e+00	0.00000e+00	0.00000e+00	0.00000e+00	0.00000e+00	0.00000e+00	0.00000e+00	0.00000e+00	0.00000e+00	0.00000e+00	0.00000e+00	0.00000e+00	0.00000e+00	0.00000e+00	0.00000e+00	0.00000e+00	0.00000e+00	0.00000e+00	0.00000e+00	0.00000e+00	0.00000e+00	0.00000e+00	0.00000e+00	0.00000e+00	0.00000e+00	0.00000e+00	0.00000e+00	0.00000e+00	0.00000e+00	0.00000e+00	0.00000e+00	
Factor	1.00000e+00	1.00000e+00	1.00000e+00	1.00000e+00	1.00000e+00	1.00000e+00	1.00000e+00	1.00000e+00	1.00000e+00	1.00000e+00	1.00000e+00	1.00000e+00	1.00000e+00	1.00000e+00	1.00000e+00	1.00000e+00	1.00000e+00	1.00000e+00	1.00000e+00	1.00000e+00	1.00000e+00	1.00000e+00	1.00000e+00	1.00000e+00	1.00000e+00	1.00000e+00	1.00000e+00	1.00000e+00	1.00000e+00	1.00000e+00	1.00000e+00	1.00000e+00	X	X	X	X	X	X	X	X	X	X	X	X	X	X	X	X	

B = Detector Channel
Val Type	B-AC1	B-AC2	B-AC3	B-AC4	B-AC5	B-AC6	B-AC7	B-AC8	B-AC9	B-AC10	B-AC11	B-AC12	B-AC13	B-AC14	B-AC15	B-AC16	B-DC1	B-DC2	B-DC3	B-DC4	B-DC5	B-DC6	B-DC7	B-DC8	B-DC9	B-DC10	B-DC11	B-DC12	B-DC13	B-DC14	B-DC15	B-DC16	B-Ph1	B-Ph2	B-Ph3	B-Ph4	B-Ph5	B-Ph6	B-Ph7	B-Ph8	B-Ph9	B-Ph10	B-Ph11	B-Ph12	B-Ph13	B-Ph14	B-Ph15	B-Ph16	

Term	0.00000e+00	0.00000e+00	0.00000e+00	0.00000e+00	0.00000e+00	0.00000e+00	0.00000e+00	0.00000e+00	0.00000e+00	0.00000e+00	0.00000e+00	0.00000e+00	0.00000e+00	0.00000e+00	0.00000e+00	0.00000e+00	0.00000e+00	0.00000e+00	0.00000e+00	0.00000e+00	0.00000e+00	0.00000e+00	0.00000e+00	0.00000e+00	0.00000e+00	0.00000e+00	0.00000e+00	0.00000e+00	0.00000e+00	0.00000e+00	0.00000e+00	0.00000e+00	1.18084e+01	-1.38873e+02	-1.24998e+02	-1.83146e+02	-7.27340e+01	-6.37033e+01	-1.60638e+02	-1.62015e+02	-3.12208e+01	-6.27560e+01	-1.72582e+02	-1.72483e+02	-1.83079e+02	-1.78092e+02	-9.56933e+01	-1.50919e+02	
Factor	4.44032e-05	1.51227e-04	4.59897e-05	1.52212e-01	1.40126e-06	1.22182e-06	1.72356e-01	5.67285e-02	1.37058e-06	1.58077e-06	8.83220e-02	2.95593e-02	2.80079e-02	9.00119e-03	1.53101e-06	1.30876e-02	1.36817e-06	1.41543e-06	3.92752e-07	7.76740e-02	1.54102e-08	1.54915e-08	8.23777e-02	2.87967e-02	1.53811e-08	1.54814e-08	4.31705e-02	1.44196e-02	1.41529e-02	4.56543e-03	1.54541e-08	6.40635e-03	X	X	X	X	X	X	X	X	X	X	X	X	X	X	X	X	



#DISTANCE SETTINGS
A = Detector Channel
A-1	A-2	A-3	A-4	A-5	A-6	A-7	A-8	A-9	A-10	A-11	A-12	A-13	A-14	A-15	A-16	

2.5000e+00	3.0000e+00	2.5000e+00	3.0000e+00	2.0000e+00	3.0000e+00	1.5000e+00	3.0000e+00	3.0000e+00	3.0000e+00	3.0000e+00	3.0000e+00	3.0000e+00	3.0000e+00	1.5000e+00	3.0000e+00	

B = Detector Channel
B-1	B-2	B-3	B-4	B-5	B-6	B-7	B-8	B-9	B-10	B-11	B-12	B-13	B-14	B-15	B-16	

1.0000e+01	1.0000e+01	1.0000e+01	1.4400e+00	1.0000e+01	1.0000e+01	1.5100e+00	1.9400e+00	1.0000e+01	1.0000e+01	1.9900e+00	2.4900e+00	2.4100e+00	2.9000e+00	1.0000e+01	2.9800e+00	




#DATA BEGINS
time	group	step	mark	flag	A-AC1	A-AC2	A-AC3	A-AC4	A-AC5	A-AC6	A-AC7	A-AC8	A-AC9	A-AC10	A-AC11	A-AC12	A-AC13	A-AC14	A-AC15	A-AC16	A-DC1	A-DC2	A-DC3	A-DC4	A-DC5	A-DC6	A-DC7	A-DC8	A-DC9	A-DC10	A-DC11	A-DC12	A-DC13	A-DC14	A-DC15	A-DC16	A-Ph1	A-Ph2	A-Ph3	A-Ph4	A-Ph5	A-Ph6	A-Ph7	A-Ph8	A-Ph9	A-Ph10	A-Ph11	A-Ph12	A-Ph13	A-Ph14	A-Ph15	A-Ph16	B-AC1	B-AC2	B-AC3	B-AC4	B-AC5	B-AC6	B-AC7	B-AC8	B-AC9	B-AC10	B-AC11	B-AC12	B-AC13	B-AC14	B-AC15	B-AC16	B-DC1	B-DC2	B-DC3	B-DC4	B-DC5	B-DC6	B-DC7	B-DC8	B-DC9	B-DC10	B-DC11	B-DC12	B-DC13	B-DC14	B-DC15	B-DC16	B-Ph1	B-Ph2	B-Ph3	B-Ph4	B-Ph5	B-Ph6	B-Ph7	B-Ph8	B-Ph9	B-Ph10	B-Ph11	B-Ph12	B-Ph13	B-Ph14	B-Ph15	B-Ph16	aux-1	digaux	

20853.691	1	1	0	768	0.22836	0.10231	0.13482	0.40377	0.066014	0.074718	0.054488	0.21022	0.075952	0.14443	0.33008	0.20815	0.10097	0.30728	0.10779	0.15832	-2.525	-2.7313	-2.6042	-3.1813	-2.5375	-2.8271	-3.1125	-2.4771	-2.9562	-2.7667	-2.6167	-3.0312	-2.7583	-2.75	-2.725	-2.5479	368.834	95.244	362.628	417.654	89.804	380.643	395.873	324.950	384.795	280.619	380.027	78.103	339.966	334.879	141.275	311.497	0.0011865	0.00069671	0.00035548	1375.8	7.2593e-06	4.047e-06	1379	372.66	3.1701e-06	1.2036e-05	421.82	142.07	123.81	42.132	1.0127e-05	51.978	0.00062238	0.00062585	0.0001729	1405.6	6.8128e-06	6.864e-06	1406.4	381.88	6.8617e-06	6.9598e-06	434.79	145.94	127.18	43.852	6.977e-06	54.134	310.580	139.100	199.858	87.267	253.101	245.763	87.238	92.095	326.611	212.502	91.336	95.943	96.590	100.738	214.098	99.805	-8191	255	
20853.787	1	1	0	0	0.35751	0.062571	0.26056	0.20944	0.39292	0.13877	0.28078	0.14225	0.18589	0.22525	0.19568	0.23138	0.15023	0.19377	0.12188	0.13796	-2.3083	-2.575	-2.5187	-2.9938	-2.4417	-2.5958	-2.9104	-2.6333	-2.9021	-2.8583	-2.6813	-2.95	-2.725	-2.7479	-2.9042	-2.55	106.665	339.209	260.207	407.707	117.976	125.325	81.172	423.747	387.954	79.612	331.277	77.154	423.959	154.381	213.862	358.352	0.0012069	0.00060905	7.23e-05	1372.8	3.2835e-06	4.327e-06	1376.2	373.05	7.6338e-06	1.0405e-05	422.94	142.39	124.41	42.46	4.2196e-06	52.291	0.00063994	0.00063997	0.00017828	1408.4	7.0242e-06	7.0364e-06	1408	382.68	6.9585e-06	6.9699e-06	435.81	146.37	127.63	43.992	6.9149e-06	54.343	307.795	109.291	104.686	87.159	226.161	249.423	87.197	91.933	260.179	250.080	91.242	96.083	96.542	100.903	291.053	99.919	-8191	255	
20853.885	1	1	0	0	0.12609	0.27751	0.05632	0.2132	0.07491	0.27517	0.31407	0.16333	0.019693	0.035604	0.23998	0.13382	0.20753	0.20735	0.057246	0.20563	-2.1063	-2.5	-2.3042	-2.9208	-2.7042	-2.4271	-3.0333	-2.5062	-2.6542	-2.7354	-2.5167	-2.8417	-2.7438	-2.6396	-2.9542	-2.7188	408.130	384.403	200.115	364.767	376.316	351.768	399.657	183.329	180.912	225.038	348.903	174.537	104.490	423.155	111.022	368.158	0.0010907	0.00038187	0.00027305	1381	9.2849e-06	7.7365e-06	1383.1	371.66	4.0456e-06	5.7873e-06	423.63	142.84	124.07	42.349	6.7809e-06	51.981	0.00063682	0.00062815	0.00017299	1410.1	6.6957e-06	6.7299e-06	1409.6	381.49	6.5151e-06	6.4938e-06	434.42	145.82	126.87	43.778	6.4479e-06	54.014	315.251	98.484	163.753	87.319	235.621	235.407	86.913	91.928	313.186	310.852	91.176	96.274	96.594	100.777	249.625	99.863	-8191	255	
20853.980	1	1	0	0	0.16157	0.15173	0.14137	0.35873	0.065131	0.17283	0.36668	0.15049	0.13143	0.09304	0.097396	0.052326	0.14373	0.27685	0.1843	0.020271	-2.1937	-2.8771	-2.3646	-2.8333	-2.7146	-2.4396	-3.0646	-2.6937	-2.6063	-2.7687	-2.4125	-2.8375	-2.6229	-2.55	-2.7146	-2.6146	195.582	299.708	418.080	383.682	330.998	202.407	381.828	377.461	378.929	349.737	169.650	320.678	355.809	392.456	313.228	108.468	0.0011022	0.00073043	0.00025675	1380	4.1584e-06	8.5737e-06	1383.7	371.93	2.3761e-06	3.1936e-06	424.5	141.71	124	42.287	1.1985e-05	52.353	0.00059881	0.00058307	0.00016148	1408.1	6.3736e-06	6.3209e-06	1406.5	380.33	6.2201e-06	6.1758e-06	433.33	145.18	126.74	43.623	6.0361e-06	53.883	314.552	204.823	167.782	87.261	233.775	201.944	87.177	91.979	251.666	333.485	91.053	96.038	96.550	100.916	201.867	99.808	-8191	255	
20854.074	1	1	0	0	0.16827	0.19412	0.067741	0.28004	0.28826	0.38282	0.38898	0.14009	0.25654	0.12057	0.24699	0.022001	0.13184	0.092577	0.24253	0.10381	-2.1562	-2.6354	-2.3104	-2.9625	-2.4729	-2.5771	-2.8292	-2.7271	-2.5625	-2.7208	-2.6083	-2.7583	-2.7333	-2.5021	-2.7583	-2.6583	222.740	182.058	406.231	383.630	237.799	272.667	385.036	356.059	243.163	339.964	377.807	291.649	400.932	129.160	219.066	423.737	0.0012291	0.00091735	0.0001339	1376.3	4.5881e-06	4.1988e-06	1383.1	372.8	7.845e-06	8.9922e-06	419.87	142.68	123.86	42.234	5.5542e-06	52.175	0.00056108	0.00055293	0.0001513	1405.8	6.0528e-06	6.0097e-06	1404.8	380.3	5.994e-06	6.0182e-06	431.76	145.33	126.5	43.647	6.0222e-06	53.859	306.760	165.629	212.928	87.224	149.969	232.487	86.980	91.892	293.637	221.248	91.354	95.853	96.618	100.842	176.803	99.836	-8191	255	
20854.174	1	1	0	0	0.33718	0.14508	0.22935	0.30091	0.10093	0.27547	0.12384	0.25901	0.26463	0.093802	0.2513	0.39967	0.11933	0.33193	0.28392	0.33805	-1.9438	-2.7938	-2.4854	-2.9417	-2.6333	-2.4646	-2.8833	-2.6292	-2.6792	-2.725	-2.5396	-2.6562	-2.9583	-2.3396	-2.7917	-2.5479	304.697	227.275	388.915	372.522	146.774	322.025	131.623	74.129	253.426	300.142	304.134	350.827	403.099	400.272	174.532	110.354	0.0010235	0.00054239	0.00022301	1376.2	7.569e-06	2.3e-06	1387.3	372.35	8.4137e-06	4.8642e-06	423.39	142.22	124.02	42.237	1.3029e-05	52.401	0.00056675	0.00055558	0.00015477	1407.2	6.091e-06	6.1473e-06	1404.9	380.71	6.1351e-06	6.1539e-06	433.32	145.6	126.78	43.768	6.2731e-06	54.07	312.610	133.975	216.119	87.229	208.537	342.887	87.146	92.015	251.615	178.469	91.279	96.197	96.680	100.658	215.989	99.803	-8191	255	
20854.293	1	1	0	0	0.12204	0.22321	0.10599	0.25502	0.19847	0.20111	0.29213	0.16881	0.036562	0.32004	0.23766	0.17952	0.053658	0.25795	0.1377	0.076824	-1.9104	-2.8917	-2.1833	-2.8333	-2.7083	-2.375	-2.9042	-2.7833	-2.5563	-2.8542	-2.6521	-2.7396	-2.7979	-2.3896	-2.7125	-2.7208	428.143	372.221	290.649	395.222	427.985	219.065	330.623	105.937	213.397	386.189	332.520	78.896	396.368	74.589	354.378	402.765	0.0010351	0.00060556	9.2294e-05	1381.4	8.5522e-07	4.664e-06	1384.1	371.36	6.2271e-06	8.2165e-06	424.38	143.01	123.85	42.379	1.377e-05	52.425	0.00058117	0.00057651	0.00016056	1407.3	6.2979e-06	6.2873e-06	1406.9	380.41	6.2546e-06	6.2145e-06	433.7	145.95	126.84	43.736	6.2239e-06	54.028	308.658	108.494	193.201	87.297	189.022	289.287	87.018	92.031	215.020	254.723	91.407	96.115	96.695	100.793	188.431	99.860	-8191	255	
20854.389	1	1	0	0	0.032146	0.25296	0.23435	0.27925	0.16335	0.08844	0.27475	0.14805	0.21535	0.19728	0.16293	0.26921	0.15268	0.38161	0.23251	0.17281	-1.9729	-2.8271	-2.5062	-2.8604	-2.8521	-2.4771	-2.9396	-3.0708	-2.4417	-2.8542	-2.5542	-2.5208	-2.9313	-2.5271	-2.6271	-2.9375	81.226	285.953	421.057	393.174	430.825	207.553	382.008	346.600	151.573	391.884	370.190	382.911	391.926	413.588	332.257	423.248	0.0011269	0.00019567	0.00012596	1377.3	3.63e-06	3.141e-06	1387.4	372.77	6.7508e-06	7.9864e-06	423.52	142.82	123.98	42.396	1.0207e-05	52.123	0.00057451	0.00056257	0.00015719	1408.5	6.1161e-06	6.0707e-06	1409.7	380.87	6.0885e-06	6.0967e-06	433.38	145.83	126.52	43.771	6.1249e-06	54.062	309.220	198.917	92.053	87.301	253.819	134.112	87.026	91.888	308.110	239.778	91.325	96.120	96.569	101.039	229.211	99.705	-8191	255	
20854.484	1	1	0	0	0.28663	0.021924	0.28102	0.12434	0.16777	0.158	0.23878	0.20163	0.05174	0.14671	0.16163	0.078869	0.23721	0.077324	0.077469	0.44202	-1.8833	-2.7625	-2.7167	-2.7375	-2.9229	-2.4938	-2.7917	-2.9521	-2.2667	-2.7687	-2.8438	-2.3646	-2.7021	-2.5312	-2.5187	-2.8667	316.952	121.614	400.446	144.638	329.457	274.108	363.747	369.893	122.029	250.299	214.198	323.653	345.731	412.401	367.685	379.443	0.0010922	0.00068859	6.4529e-05	1379.6	8.8646e-06	2.8459e-06	1382.5	372.92	9.7469e-06	2.8942e-06	423.55	142.75	124.44	42.524	4.9484e-06	52.107	0.00056442	0.00055675	0.0001549	1409.3	6.1095e-06	6.1012e-06	1408.5	380.92	6.0542e-06	6.0417e-06	433.04	145.68	126.76	43.744	6.1009e-06	54.055	304.963	190.008	196.655	87.294	217.129	171.686	86.983	92.000	246.874	258.133	91.434	95.831	96.630	100.868	247.986	99.995	-8191	255	
20854.580	1	1	0	0	0.092917	0.17274	0.23027	0.045963	0.19409	0.086056	0.040971	0.14296	0.097415	0.13453	0.35615	0.17012	0.21319	0.1823	0.11735	0.23252	-1.8479	-2.75	-2.6	-2.5833	-2.8583	-2.5708	-2.7229	-2.8583	-2.4479	-2.6583	-2.8375	-2.3229	-2.9437	-2.6562	-2.4813	-2.8792	430.338	105.271	382.693	263.299	201.694	157.636	391.123	413.135	237.285	268.898	362.042	377.735	285.055	397.980	154.034	427.750	0.0011767	0.0008568	0.00027796	1382.9	7.9708e-06	5.3991e-06	1388.2	372.53	4.0511e-06	7.3443e-06	422.19	144	124.19	42.255	2.7879e-06	52.471	0.00056523	0.00056114	0.00015638	1411.5	6.1619e-06	6.1507e-06	1413.5	381.03	6.0588e-06	6.0658e-06	433.54	146.29	127.11	43.754	6.0921e-06	53.968	306.447	153.189	143.346	87.156	229.168	260.121	87.163	92.275	261.950	220.556	91.209	95.832	96.723	100.868	115.643	99.737	-8191	255	
20854.676	1	1	0	0	0.17033	0.090416	0.28524	0.33301	0.1074	0.15474	0.10905	0.25945	0.12666	0.098464	0.043633	0.29299	0.28004	0.10795	0.10384	0.12926	-1.9104	-2.4813	-2.65	-2.6479	-2.9062	-2.6625	-2.9437	-2.8021	-2.5187	-2.7458	-2.9208	-2.5375	-2.8146	-2.6667	-2.4479	-3.0333	143.128	394.761	94.641	405.398	271.816	433.684	319.236	320.327	288.784	272.699	138.771	407.641	400.640	171.806	323.860	92.210	0.0012102	0.00048427	0.0002555	1382.2	1.0286e-06	3.2602e-06	1385.2	372.46	7.455e-06	6.6167e-06	423.21	142.59	124.9	42.313	8.2474e-06	52.129	0.00056295	0.00055914	0.00015445	1409.6	6.0791e-06	6.099e-06	1409.1	380.38	5.9969e-06	6.0444e-06	433.11	145.58	127.07	43.68	6.1247e-06	53.955	308.512	100.708	171.892	87.313	205.260	231.205	86.948	91.971	242.743	221.358	91.062	96.107	96.683	100.960	208.117	99.686	-8191	255	
20854.773	1	1	0	0	0.13378	0.17211	0.24813	0.34208	0.068977	0.28575	0.23528	0.26389	0.10006	0.20081	0.25352	0.10844	0.22806	0.39035	0.092535	0.066611	-2.0187	-2.6229	-2.7104	-2.5042	-2.8271	-2.8125	-2.6375	-3.0187	-2.5521	-2.575	-3.0271	-2.525	-2.8708	-2.7625	-2.6562	-3.1396	394.850	394.137	111.378	428.832	287.908	168.978	335.380	354.681	99.446	140.051	317.868	352.415	321.693	400.032	350.850	246.870	0.0011947	0.00046694	0.00028685	1376.6	6.4888e-06	1.4979e-06	1384.2	372.19	3.3585e-06	1.3309e-06	423.48	143.11	123.89	42.223	8.4958e-06	52.217	0.00055988	0.00055623	0.00015319	1407.6	6.0681e-06	6.0944e-06	1406.5	380.17	5.9902e-06	6.0879e-06	433.13	145.78	126.56	43.693	6.0696e-06	54.002	305.806	159.994	170.632	87.198	179.321	259.310	86.977	91.789	291.114	209.199	91.263	96.118	96.522	100.784	232.764	99.793	-8191	255	
20854.893	1	1	0	0	0.28241	0.22526	0.21486	0.34711	0.23307	0.12578	0.10565	0.13467	0.10288	0.12324	0.1459	0.18737	0.25086	0.068065	0.24403	0.24708	-1.9583	-2.4729	-2.8979	-2.6104	-2.8625	-3.0167	-2.7521	-3.1083	-2.6125	-2.5062	-3.0062	-2.6583	-2.6708	-2.7854	-2.3625	-3.0583	246.214	377.008	153.250	338.919	311.265	131.467	236.928	414.165	240.735	350.283	375.611	334.338	334.551	136.783	106.106	394.257	0.0012395	0.00076303	0.00023248	1382.8	4.1529e-06	5.2858e-06	1380.9	371.98	1.1796e-05	5.5151e-06	423.38	142.87	124.3	42.31	8.0603e-06	52.245	0.00056021	0.00055714	0.00015311	1409	6.048e-06	6.011e-06	1406	379.88	5.9762e-06	6.0419e-06	432.26	145.62	126.88	43.648	5.9904e-06	53.951	317.187	183.499	171.780	87.363	185.997	233.058	87.125	91.949	278.361	158.398	91.525	96.161	96.383	100.714	213.564	99.979	-8191	255	
20854.988	1	1	0	0	0.29088	0.026233	0.18105	0.33493	0.20138	0.22507	0.2013	0.28604	0.17744	0.28427	0.060998	0.20285	0.41695	0.23315	0.12116	0.29708	-1.9583	-2.4208	-2.7208	-2.5479	-2.5354	-2.6708	-2.625	-3.0167	-2.6208	-2.4771	-2.9792	-2.6833	-2.7562	-2.7958	-2.45	-2.9833	321.556	378.080	433.471	421.632	397.332	406.126	346.698	355.224	247.921	236.333	246.263	395.075	400.142	429.832	116.726	332.830	0.00097128	0.0003908	0.00017183	1376.9	5.6823e-06	4.705e-06	1383.2	372.15	4.1888e-06	8.0217e-06	422.97	142.64	124.3	42.554	7.9888e-06	52.254	0.00055609	0.00055405	0.00015212	1408	6.0691e-06	6.0604e-06	1406	379.98	6.0739e-06	6.0472e-06	432.56	145.59	126.72	43.712	6.0798e-06	53.995	306.403	211.703	146.040	87.339	228.875	285.692	87.076	91.797	392.652	219.968	91.166	96.028	96.544	100.790	202.567	100.173	-8191	255	
20855.084	1	1	0	0	0.29827	0.34416	0.10591	0.16708	0.049773	0.18916	0.20008	0.10142	0.063781	0.21767	0.052454	0.19152	0.32256	0.34456	0.055851	0.18905	-2.2792	-2.2521	-2.9313	-2.5104	-2.5563	-2.7687	-2.6083	-2.9354	-2.5979	-2.3625	-2.9167	-2.6083	-2.6167	-2.9375	-2.3688	-2.8167	220.672	333.952	134.214	395.817	142.017	142.687	370.521	382.707	180.229	334.515	224.150	118.426	361.242	428.784	118.276	329.914	0.0011439	0.00021795	0.00013813	1383	5.0122e-06	3.1102e-06	1385.7	372.56	5.6904e-06	8.2959e-06	422.33	142.24	124.78	42.285	2.7659e-06	52.33	0.0005619	0.00056319	0.00015569	1411	6.1793e-06	6.1528e-06	1407.6	380.67	6.0842e-06	6.1087e-06	433.19	145.43	127.09	43.639	6.1033e-06	53.938	316.670	352.370	156.182	87.348	276.930	314.094	87.105	91.873	311.416	231.287	91.283	95.970	96.249	100.983	228.301	100.024	-8191	255	
20855.180	1	1	0	0	0.14336	0.30083	0.11181	0.18505	0.246	0.025453	0.11938	0.26136	0.068362	0.065162	0.06956	0.059625	0.15528	0.12844	0.14686	0.23402	-2.2167	-2.3042	-2.9625	-2.6146	-2.6375	-2.9542	-2.6771	-2.8854	-2.8729	-2.4292	-2.6646	-2.6958	-2.5542	-3.0833	-2.4146	-2.7542	347.824	309.988	251.271	113.610	345.932	329.662	333.728	367.134	331.314	421.314	388.590	164.712	133.815	391.556	365.757	307.893	0.00098528	0.00093159	0.00013922	1375.5	1.1352e-05	3.2642e-06	1386.3	372.32	5.2908e-06	4.9729e-06	424.54	142.37	124.05	42.025	5.458e-06	52.041	0.00057029	0.00056507	0.00015554	1407.4	6.1484e-06	6.1534e-06	1406	380.41	6.131e-06	6.1406e-06	432.51	145.56	126.61	43.541	6.0385e-06	53.775	308.490	133.028	121.220	87.060	223.646	251.362	87.088	91.918	255.866	317.327	91.030	96.048	96.546	100.758	222.938	99.811	-8191	255	
20855.254	1	1	0	0	0.11286	0.064441	0.15003	0.31519	0.096951	0.16616	0.14279	0.12584	0.33894	0.03311	0.26546	0.17193	0.18595	0.1482	0.094656	0.24671	-2.3042	-2.4417	-2.7438	-2.8667	-2.5604	-2.8646	-2.5375	-2.9021	-2.7958	-2.2458	-2.7771	-2.6354	-2.4958	-2.9604	-2.5833	-2.7542	117.256	404.344	153.593	383.954	358.972	307.918	247.418	380.321	139.979	241.521	421.518	386.255	386.503	389.706	294.913	112.682	0.0010272	0.00052612	0.00015476	1370.8	4.512e-06	5.7271e-06	1379.7	371.98	1.2151e-06	3.0658e-06	422.39	141.75	123.54	42.096	5.9182e-06	52.157	0.00055715	0.00055459	0.00015413	1404	6.0735e-06	6.0567e-06	1403.4	379.65	6.1218e-06	6.1361e-06	432.37	145.33	126.66	43.611	6.295e-06	53.905	315.346	84.595	181.073	87.270	252.474	135.933	86.985	92.089	229.513	214.342	91.379	95.792	96.628	100.909	317.718	99.812	-8191	255	
20855.371	1	1	0	0	0.12019	0.10668	0.044519	0.28205	0.083787	0.11769	0.17936	0.13727	0.087744	0.088368	0.16904	0.060862	0.26992	0.008512	0.12839	0.34968	-2.2646	-2.4146	-2.5792	-2.9458	-2.4938	-2.6896	-2.6688	-2.7354	-2.5979	-2.3063	-2.7354	-2.5542	-2.3542	-3.1063	-2.3958	-2.6396	367.963	147.384	411.330	353.772	245.799	217.464	359.146	368.513	384.143	407.555	420.765	229.825	267.595	348.129	187.171	405.763	0.0012183	0.00016072	0.00026351	1378.2	3.0187e-06	4.1334e-06	1382	371.31	5.2679e-06	5.8488e-06	421.93	141.93	123.68	42.173	8.3812e-06	52.159	0.00058584	0.00058157	0.0001642	1408.2	6.4573e-06	6.3834e-06	1407.3	380.85	6.5293e-06	6.537e-06	434	145.52	126.91	43.664	6.557e-06	53.968	310.085	257.110	146.979	87.364	238.183	174.636	87.163	92.008	267.460	196.595	91.417	96.068	96.453	100.864	190.164	99.971	-8191	255	
