BOXY.EXE: ISS Imagent and Oximeter Data Acquisition Program Version 0.80
Ascii Record File

#ACQ INFORMATION
2  Detector Channels 
16  External MUX Channels 
1  Auxiliary Channels 
5000  Waveform (CCF) Frequency (Hz)
1  Waveforms Skipped 
30  Waveforms Averaged 
1  Cycles Averaged 
16  Acquisitions per Waveform 
10.0806  Updata Rate (Hz) 

#FILE INFORMATION
TRUE -- External MUX Channel results are PARSED.
FALSE -- AC DC and Phase are NOT grouped.
TRUE -- Companion Program Settings File CREATED.
FALSE -- AC data not excluded
FALSE -- DC data not excluded
FALSE -- Phase data not excluded
FALSE -- Auxillary Chn. data not excluded
Tab delimiters

#CALIBRATION STATE
TRUE -- Waveform Calibration Values APPLIED.


#AUX CALIBRATION VALUES
Val Type	aux-1	

Term	1.0000e+00	
Factor	0.0000e+00	


#WF CALIBRATION VALUES
A = Detector Channel
Val Type	A-AC1	A-AC2	A-AC3	A-AC4	A-AC5	A-AC6	A-AC7	A-AC8	A-AC9	A-AC10	A-AC11	A-AC12	A-AC13	A-AC14	A-AC15	A-AC16	A-DC1	A-DC2	A-DC3	A-DC4	A-DC5	A-DC6	A-DC7	A-DC8	A-DC9	A-DC10	A-DC11	A-DC12	A-DC13	A-DC14	A-DC15	A-DC16	A-Ph1	A-Ph2	A-Ph3	A-Ph4	A-Ph5	A-Ph6	A-Ph7	A-Ph8	A-Ph9	A-Ph10	A-Ph11	A-Ph12	A-Ph13	A-Ph14	A-Ph15	A-Ph16	

Term	0.00000e+00	0.00000e+00	0.00000e+00	0.00000e+00	0.00000e+00	0.00000e+00	0.00000e+00	0.00000e+00	0.00000e+00	0.00000e+00	0.00000e+00	0.00000e+00	0.00000e+00	0.00000e+00	0.00000e+00	0.00000e+00	0.00000e+00	0.00000e+00	0.00000e+00	0.00000e+00	0.00000e+00	0.00000e+00	0.00000e+00	0.00000e+00	0.00000e+00	0.00000e+00	0.00000e+00	0.00000e+00	0.00000e+00	0.00000e+00	0.00000e+00	0.00000e+00	0.00000e+00	0.00000e+00	0.00000e+00	0.00000e+00	0.00000e+00	0.00000e+00	0.00000e+00	0.00000e+00	0.00000e+00	0.00000e+00	0.00000e+00	0.00000e+00	0.00000e+00	0.00000e+00	0.00000e+00	0.00000e+00	
Factor	1.00000e+00	1.00000e+00	1.00000e+00	1.00000e+00	1.00000e+00	1.00000e+00	1.00000e+00	1.00000e+00	1.00000e+00	1.00000e+00	1.00000e+00	1.00000e+00	1.00000e+00	1.00000e+00	1.00000e+00	1.00000e+00	1.00000e+00	1.00000e+00	1.00000e+00	1.00000e+00	1.00000e+00	1.00000e+00	1.00000e+00	1.00000e+00	1.00000e+00	1.00000e+00	1.00000e+00	1.00000e+00	1.00000e+00	1.00000e+00	1.00000e+00	1.00000e+00	X	X	X	X	X	X	X	X	X	X	X	X	X	X	X	X	

B = Detector Channel
Val Type	B-AC1	B-AC2	B-AC3	B-AC4	B-AC5	B-AC6	B-AC7	B-AC8	B-AC9	B-AC10	B-AC11	B-AC12	B-AC13	B-AC14	B-AC15	B-AC16	B-DC1	B-DC2	B-DC3	B-DC4	B-DC5	B-DC6	B-DC7	B-DC8	B-DC9	B-DC10	B-DC11	B-DC12	B-DC13	B-DC14	B-DC15	B-DC16	B-Ph1	B-Ph2	B-Ph3	B-Ph4	B-Ph5	B-Ph6	B-Ph7	B-Ph8	B-Ph9	B-Ph10	B-Ph11	B-Ph12	B-Ph13	B-Ph14	B-Ph15	B-Ph16	

Term	0.00000e+00	0.00000e+00	0.00000e+00	0.00000e+00	0.00000e+00	0.00000e+00	0.00000e+00	0.00000e+00	0.00000e+00	0.00000e+00	0.00000e+00	0.00000e+00	0.00000e+00	0.00000e+00	0.00000e+00	0.00000e+00	0.00000e+00	0.00000e+00	0.00000e+00	0.00000e+00	0.00000e+00	0.00000e+00	0.00000e+00	0.00000e+00	0.00000e+00	0.00000e+00	0.00000e+00	0.00000e+00	0.00000e+00	0.00000e+00	0.00000e+00	0.00000e+00	6.26660e+01	-1.60708e+02	-1.38034e+02	-1.81640e+02	-8.09839e+01	-1.13405e+02	-1.57973e+02	-1.62015e+02	-1.03025e+02	-8.37485e+01	-1.80409e+02	-1.70637e+02	-1.81506e+02	-1.76090e+02	-1.06331e+02	-1.49360e+02	
Factor	4.46417e-05	7.40306e-05	1.66068e-05	1.80300e-01	6.95920e-07	6.52801e-07	1.65304e-01	5.16653e-02	1.08927e-06	6.59530e-07	1.02996e-01	2.98071e-02	2.44284e-02	9.16901e-03	8.66652e-07	1.32262e-02	3.52392e-07	3.56068e-07	9.93150e-08	8.43590e-02	3.89487e-09	3.90538e-09	7.38614e-02	2.41382e-02	3.89876e-09	3.90770e-09	4.36374e-02	1.29438e-02	1.10597e-02	4.10157e-03	3.91558e-09	5.63340e-03	X	X	X	X	X	X	X	X	X	X	X	X	X	X	X	X	



#DISTANCE SETTINGS
A = Detector Channel
A-1	A-2	A-3	A-4	A-5	A-6	A-7	A-8	A-9	A-10	A-11	A-12	A-13	A-14	A-15	A-16	

2.5000e+00	3.0000e+00	2.5000e+00	3.0000e+00	2.0000e+00	3.0000e+00	1.5000e+00	3.0000e+00	3.0000e+00	3.0000e+00	3.0000e+00	3.0000e+00	3.0000e+00	3.0000e+00	1.5000e+00	3.0000e+00	

B = Detector Channel
B-1	B-2	B-3	B-4	B-5	B-6	B-7	B-8	B-9	B-10	B-11	B-12	B-13	B-14	B-15	B-16	

1.0000e+01	1.0000e+01	1.0000e+01	1.4400e+00	1.0000e+01	1.0000e+01	1.5100e+00	1.9400e+00	1.0000e+01	1.0000e+01	1.9900e+00	2.4900e+00	2.4100e+00	2.9000e+00	1.0000e+01	2.9800e+00	




#DATA BEGINS
time	group	step	mark	flag	A-AC1	A-AC2	A-AC3	A-AC4	A-AC5	A-AC6	A-AC7	A-AC8	A-AC9	A-AC10	A-AC11	A-AC12	A-AC13	A-AC14	A-AC15	A-AC16	A-DC1	A-DC2	A-DC3	A-DC4	A-DC5	A-DC6	A-DC7	A-DC8	A-DC9	A-DC10	A-DC11	A-DC12	A-DC13	A-DC14	A-DC15	A-DC16	A-Ph1	A-Ph2	A-Ph3	A-Ph4	A-Ph5	A-Ph6	A-Ph7	A-Ph8	A-Ph9	A-Ph10	A-Ph11	A-Ph12	A-Ph13	A-Ph14	A-Ph15	A-Ph16	B-AC1	B-AC2	B-AC3	B-AC4	B-AC5	B-AC6	B-AC7	B-AC8	B-AC9	B-AC10	B-AC11	B-AC12	B-AC13	B-AC14	B-AC15	B-AC16	B-DC1	B-DC2	B-DC3	B-DC4	B-DC5	B-DC6	B-DC7	B-DC8	B-DC9	B-DC10	B-DC11	B-DC12	B-DC13	B-DC14	B-DC15	B-DC16	B-Ph1	B-Ph2	B-Ph3	B-Ph4	B-Ph5	B-Ph6	B-Ph7	B-Ph8	B-Ph9	B-Ph10	B-Ph11	B-Ph12	B-Ph13	B-Ph14	B-Ph15	B-Ph16	aux-1	digaux	

7000.721	1	1	0	256	0.046631	0.23314	0.091424	0.071845	0.29489	0.32372	0.19434	0.036015	0.053269	0.2425	0.10781	0.33544	0.11707	0.11763	0.12709	0.21069	-1.9375	-2.2062	-2.6312	-2.5917	-2.3896	-2.75	-2.5292	-2.6188	-2.7979	-2.1354	-2.9646	-2.6042	-2.3917	-2.9625	-2.1604	-2.6271	100.878	261.349	235.313	409.228	104.120	294.642	324.882	393.626	201.244	378.204	297.563	423.163	421.136	84.173	306.892	370.702	0.00097067	0.00047375	0.00020724	1334.5	2.2193e-06	1.1246e-06	1338.7	359.46	6.9892e-06	7.6558e-06	416.51	139.36	118.99	40.763	2.067e-06	51.157	0.00054512	0.00050694	0.00013389	1362.9	5.9442e-06	5.4911e-06	1352.4	369.29	5.8971e-06	5.5546e-06	418.58	142.46	122.17	41.634	5.5617e-06	53.192	341.707	299.144	150.524	78.264	265.099	376.501	78.225	83.565	131.258	369.497	82.708	87.381	88.181	92.522	205.768	91.246	-8191	255	
7000.842	1	1	0	0	0.16731	0.12484	0.054213	0.2677	0.12591	0.10602	0.065187	0.3404	0.24595	0.15088	0.062974	0.26465	0.1703	0.15708	0.16818	0.16413	-2.1208	-2.0833	-2.725	-2.7521	-2.2292	-2.7313	-2.4938	-2.5521	-2.7458	-2.1146	-2.7938	-2.85	-2.2562	-3.0521	-2.2062	-2.4292	76.467	211.668	110.762	373.370	414.995	229.706	301.733	298.926	249.336	197.562	358.392	425.129	397.800	423.553	403.852	378.726	0.00091164	0.00053932	0.00010813	1335.8	4.1171e-06	2.7469e-06	1338	359.56	4.1713e-06	3.2143e-06	416.52	137.83	119.55	40.596	4.6408e-06	50.955	0.00053162	0.0005027	0.00014233	1369.8	5.7895e-06	5.3808e-06	1357.9	370.43	5.7215e-06	5.4586e-06	423.15	142.27	121.58	41.398	5.9384e-06	52.988	361.517	243.801	181.955	78.445	132.114	335.438	78.384	83.467	97.128	88.078	83.101	87.710	87.930	92.476	167.137	91.493	-8191	255	
7000.938	1	1	0	0	0.016777	0.24252	0.12051	0.17628	0.18206	0.22473	0.32921	0.32596	0.11601	0.24302	0.27028	0.27994	0.031494	0.22048	0.14901	0.097343	-2.2417	-2.0812	-2.5417	-2.6771	-2.2521	-2.6729	-2.6604	-2.5542	-2.7792	-2.0417	-2.8333	-2.8667	-2.1458	-2.9396	-2.2583	-2.3729	83.121	230.919	402.272	415.165	66.324	243.755	386.201	344.320	66.983	424.733	304.630	83.529	225.630	377.857	236.478	423.035	0.0013296	0.00028358	0.00027227	1331.5	2.9987e-06	1.5749e-06	1346.5	360.2	2.5191e-06	4.6806e-06	417.83	137.93	119.13	40.826	1.0554e-05	51.212	0.00051747	0.00049234	0.0001528	1366.1	5.6642e-06	5.32e-06	1371	369.5	5.5998e-06	5.4191e-06	428.17	141.78	121.37	41.666	6.3208e-06	52.878	359.864	68.012	162.992	78.604	122.623	240.658	78.323	83.408	208.752	178.788	82.969	87.386	87.780	92.310	176.117	91.338	-8191	255	
7001.034	1	1	0	0	0.13245	0.18052	0.15594	0.26641	0.15601	0.20129	0.2076	0.13827	0.079867	0.22954	0.28054	0.24681	0.077902	0.081727	0.15035	0.13801	-2.375	-2.1333	-2.5458	-2.4667	-2.225	-2.6792	-2.6542	-2.5625	-2.6542	-2.2875	-2.5771	-2.8583	-2.2812	-2.7167	-2.5	-2.2042	342.296	227.911	213.978	332.566	345.312	333.707	295.629	173.112	290.132	116.840	348.297	157.847	379.494	132.144	336.034	318.219	0.0011261	0.00087945	9.0634e-05	1336.8	8.4154e-06	7.1156e-06	1339.7	360.4	9.1333e-06	6.7582e-06	416.08	138.82	119.86	40.815	5.2336e-06	51.081	0.00050577	0.00050375	0.0001611	1363.3	5.5997e-06	5.5697e-06	1374.4	368.16	5.4833e-06	5.7404e-06	430.58	141.26	121.37	42.061	6.3843e-06	52.529	358.206	109.276	179.552	78.549	157.581	153.201	78.215	83.565	250.715	147.336	82.807	87.588	87.937	92.488	207.179	91.511	-8191	255	
7001.153	1	1	0	0	0.25365	0.21756	0.067547	0.12063	0.15824	0.11798	0.13998	0.16864	0.14369	0.066825	0.11659	0.3344	0.25488	0.17754	0.1017	0.16256	-2.3479	-2.0625	-2.4542	-3.0271	-2.1771	-2.7521	-2.5938	-2.3042	-2.7562	-2.3604	-2.4313	-2.7792	-2.2792	-2.6375	-2.7062	-2.2	160.405	327.171	72.600	417.962	95.050	309.054	357.653	98.092	244.256	170.286	65.605	330.835	69.038	419.306	238.419	394.494	0.0013509	0.00063683	6.7825e-05	1334	2.1773e-06	2.7239e-06	1343.4	361.16	6.5469e-06	1.1556e-05	415.85	138.1	119.65	41.103	6.4604e-06	51.048	0.0004932	0.00053374	0.00016009	1356.7	5.3651e-06	5.8964e-06	1372.4	367.64	5.299e-06	6.0418e-06	428.52	140.57	120.76	42.447	6.1317e-06	52.269	336.116	97.413	176.441	78.544	282.852	121.289	78.166	83.380	264.288	208.119	83.005	87.439	88.041	92.403	314.506	91.288	-8191	255	
7001.249	1	1	0	0	0.16102	0.24231	0.081289	0.48936	0.3101	0.05881	0.3014	0.35237	0.18556	0.21087	0.086922	0.17849	0.24403	0.23196	0.11459	0.10248	-2.2812	-2.5812	-2.1521	-2.8542	-2.1958	-2.2417	-2.7417	-2.2521	-2.7042	-2.5125	-2.3688	-2.9437	-2.3479	-2.6646	-2.8854	-2.2438	323.533	180.392	226.493	365.612	421.701	232.071	391.472	404.913	228.403	101.969	277.516	356.641	209.487	110.186	119.898	326.936	0.0015126	0.0009725	0.00023507	1334.2	5.2198e-06	9.6457e-06	1343.8	361.36	1.0611e-05	2.8219e-06	416.82	138.12	119.73	40.948	4.3492e-06	51.112	0.00049005	0.00056608	0.00015367	1352.4	5.4049e-06	6.2106e-06	1367.8	366.36	5.4077e-06	6.3266e-06	425.46	140.06	121.29	42.672	5.9023e-06	52.087	351.854	164.577	336.032	78.546	154.191	144.711	78.185	83.642	169.121	132.783	82.800	87.412	87.791	92.481	327.522	91.316	-8191	255	
7001.345	1	1	0	0	0.0843	0.20731	0.24034	0.12016	0.38446	0.19155	0.25556	0.20587	0.10276	0.17731	0.22148	0.070022	0.40019	0.0091878	0.1425	0.26336	-2.1604	-2.5292	-2.1167	-2.8937	-2.15	-2.4333	-3.1333	-2.1167	-2.5896	-2.7354	-2.1417	-2.8542	-2.5	-2.1583	-2.8167	-2.0687	214.002	379.333	170.303	372.875	171.048	232.506	328.322	278.432	175.044	147.651	278.403	93.158	351.373	239.259	244.935	404.248	0.0014898	0.00028411	6.3407e-05	1339.1	5.9842e-06	6.0668e-06	1348.1	359.95	1.6873e-05	3.1679e-06	415.6	138.04	120.09	40.903	1.9752e-06	51.259	0.00051659	0.0005828	0.00014909	1351.1	5.7288e-06	6.3015e-06	1363.7	365.16	5.7513e-06	6.2529e-06	422.41	139.07	122.46	42.56	5.6433e-06	51.86	362.754	101.827	208.757	78.422	210.425	84.239	78.372	83.340	184.650	92.697	82.913	87.446	87.722	92.664	166.029	91.338	-8191	255	
7001.417	1	1	0	0	0.044946	0.069836	0.054181	0.086793	0.12199	0.2768	0.43566	0.23575	0.14558	0.095449	0.15278	0.038957	0.11556	0.17896	0.19029	0.26059	-2.1979	-2.6583	-2.025	-3.025	-2.2667	-2.2812	-3.0104	-2.3604	-2.3896	-2.7812	-2.1542	-2.8812	-2.3021	-2.2646	-2.8854	-2.3417	266.905	240.021	373.317	144.645	419.144	382.498	349.801	374.484	193.839	356.974	364.934	277.235	337.630	89.891	204.871	274.305	0.0015288	0.00084588	3.9983e-05	1336.9	6.7314e-06	4.5294e-06	1340.6	361.35	1.7465e-05	2.0209e-06	412.86	138.87	120.18	40.811	1.7346e-06	51.181	0.00054323	0.00055562	0.00014296	1346.5	5.9949e-06	5.9855e-06	1356.6	364.49	5.9959e-06	5.8883e-06	418.66	139.03	122.99	42.16	5.3864e-06	51.728	351.023	275.588	257.046	78.664	232.853	314.507	78.489	83.327	178.146	395.811	83.107	87.480	87.838	92.628	188.427	91.495	-8191	255	
7001.538	1	1	0	0	0.29455	0.21627	0.15365	0.026738	0.28519	0.17925	0.15587	0.2999	0.20177	0.25915	0.075339	0.046134	0.23441	0.30149	0.085252	0.26352	-2.1292	-2.5812	-2.1542	-2.9542	-2.3958	-2.3104	-2.9625	-2.3563	-2.4562	-2.7979	-2.2729	-2.9104	-2.5521	-1.9708	-2.7792	-2.4375	335.015	65.998	370.173	294.320	132.661	263.166	311.261	361.789	281.429	85.770	285.756	346.996	175.653	382.714	291.182	343.804	0.0014426	0.00040194	0.00010156	1334.9	1.0155e-05	2.1379e-06	1340.2	361.1	1.5664e-06	2.1392e-06	414.95	138.73	120.13	40.878	4.7918e-07	51.235	0.00055731	0.00052365	0.00013725	1349.6	6.1166e-06	5.7411e-06	1352.1	366	6.1412e-06	5.6639e-06	418.22	140.38	123.08	41.912	5.2608e-06	52.284	348.448	353.434	130.685	78.479	231.203	412.556	78.353	83.628	209.795	285.127	82.879	87.562	87.729	92.669	113.481	91.496	-8191	255	
7001.634	1	1	0	0	0.11556	0.10663	0.19768	0.23038	0.29658	0.20594	0.17365	0.23492	0.084882	0.36317	0.36779	0.12642	0.18412	0.21813	0.12124	0.15431	-1.9875	-2.5771	-2.2042	-2.7417	-2.5854	-2.0146	-3.0708	-2.2875	-2.2646	-2.7875	-2.3458	-2.6208	-2.7021	-2.275	-2.8146	-2.4	363.772	357.453	224.205	362.775	346.488	66.151	387.063	116.995	134.208	391.551	76.236	357.842	414.554	308.689	282.435	386.901	0.0010665	0.00049611	6.7e-05	1340	3.8305e-06	2.3034e-06	1341.7	362.37	1.1805e-05	5.0034e-06	416.45	138.82	119.78	40.942	6.7704e-06	51.047	0.00056034	0.00050661	0.00013484	1358.8	6.0822e-06	5.5895e-06	1352.7	368.81	6.0229e-06	5.5376e-06	418.24	141.84	122.82	41.949	5.3654e-06	53.151	349.801	411.729	213.617	78.607	305.216	225.658	78.336	83.484	173.585	347.313	82.979	87.395	87.860	92.520	172.615	91.522	-8191	255	
7001.730	1	1	0	0	0.23708	0.10502	0.29746	0.14957	0.18165	0.1375	0.21507	0.14823	0.39542	0.12534	0.17402	0.069243	0.28192	0.21769	0.1469	0.27757	-1.6437	-2.7792	-2.1063	-2.4688	-2.6583	-2.1083	-3.1354	-2.5687	-2.1479	-2.9979	-2.1833	-2.4229	-2.8375	-2.0375	-2.6854	-2.8083	380.422	117.492	131.000	324.924	406.029	406.193	396.249	405.473	270.161	215.747	286.038	364.628	381.870	396.167	328.143	406.654	0.00069406	0.00044025	0.00011732	1343.2	1.0481e-06	2.365e-06	1348.5	361.87	6.737e-06	1.9815e-06	418.57	139.92	120.86	41.241	9.8719e-06	51.82	0.00056104	0.00051939	0.00014223	1377.7	6.2461e-06	5.9374e-06	1366.1	375.52	6.5164e-06	6.099e-06	430.64	146.54	125.7	43.127	6.5566e-06	55.588	355.187	215.492	70.272	78.625	72.220	273.040	78.230	83.385	374.387	71.439	82.975	87.720	87.878	92.324	174.947	91.076	-8191	255	
7001.826	1	1	0	0	0.17775	0.068063	0.13234	0.22474	0.081427	0.065428	0.2645	0.27729	0.41433	0.11634	0.21282	0.089454	0.22766	0.073321	0.30221	0.12638	-1.6812	-2.875	-2.1229	-2.4792	-2.9729	-2.0771	-2.8417	-2.6813	-2.3	-2.8083	-2.4229	-2.6292	-2.8833	-2.0917	-2.5771	-2.7562	277.913	181.093	217.430	371.889	412.898	111.657	395.173	413.302	274.594	410.910	169.201	75.793	105.891	373.301	391.815	357.907	0.00097799	8.3248e-05	0.00022355	1347.3	5.5487e-06	5.6302e-06	1361.4	366.23	4.5489e-06	1.8768e-06	424.26	141.79	122.6	42.141	1.4988e-05	52.341	0.00063491	0.00059348	0.00017693	1414.1	7.0392e-06	6.7362e-06	1404.6	386.47	7.1704e-06	6.6847e-06	448.61	150.76	128.27	44.202	7.4604e-06	56.395	344.440	307.574	148.602	78.576	404.433	213.291	78.515	83.351	420.164	249.356	82.755	87.444	87.747	92.229	185.917	90.946	-8191	255	
7001.945	1	1	0	0	0.099045	0.15908	0.044204	0.11982	0.11715	0.26013	0.20227	0.1738	0.28733	0.34222	0.1292	0.11217	0.24139	0.18465	0.20724	0.16075	-1.6	-2.8646	-2.4667	-2.4333	-2.7812	-2.0312	-2.7083	-2.9292	-2.0104	-2.9625	-2.4979	-2.2812	-2.9021	-2.3271	-2.7521	-2.7792	340.365	186.442	131.368	190.640	387.185	292.222	311.255	371.154	80.955	158.281	252.229	358.163	423.788	307.178	329.373	99.812	0.00095967	0.00041289	0.0003028	1353.7	1.4655e-06	4.4936e-06	1369.7	366.53	1.2622e-05	5.1662e-06	423.97	142.32	122.93	42.272	7.0162e-06	52.469	0.00063977	0.00059965	0.00019047	1414	6.718e-06	6.4535e-06	1411	382.28	6.5664e-06	6.2691e-06	447.64	148.34	126.48	43.823	7.2259e-06	55.226	351.086	203.290	141.821	78.453	177.839	223.296	78.338	83.355	336.590	208.548	82.827	87.418	87.684	92.303	234.735	91.414	-8191	255	
7002.018	1	1	0	0	0.24685	0.1732	0.15772	0.33215	0.075665	0.13878	0.24017	0.15229	0.1119	0.090255	0.24794	0.22473	0.076069	0.089568	0.019564	0.24286	-1.7938	-2.6396	-2.5375	-2.4875	-2.8271	-2.3688	-2.6604	-2.95	-2.2354	-2.7417	-2.7021	-2.3271	-2.9208	-2.4313	-2.3646	-2.9208	104.851	377.141	165.478	415.171	366.630	354.471	300.251	369.986	228.121	277.409	340.541	319.079	403.377	97.949	278.413	69.591	0.00098582	0.0011062	0.00015246	1355.8	3.1332e-06	3.7608e-06	1365.5	368.62	6.3063e-06	8.3316e-06	422.78	142.55	123.25	42.171	2.1781e-06	52.601	0.00058421	0.00057543	0.00018545	1400.2	6.2484e-06	6.4925e-06	1414.3	380.6	6.297e-06	6.5579e-06	447.89	147.5	126.37	44.417	7.3253e-06	55.186	351.450	117.212	408.977	78.599	253.802	190.849	78.377	83.326	85.498	179.569	82.848	87.094	87.702	91.977	388.321	91.382	-8191	255	
7002.115	1	1	0	0	0.3939	0.11441	0.023373	0.12365	0.25401	0.080341	0.33121	0.27186	0.12568	0.23489	0.090113	0.17045	0.11314	0.41302	0.21578	0.15437	-1.6792	-2.6896	-2.7521	-2.3937	-2.6562	-2.5604	-2.5812	-2.9375	-2.3438	-2.6875	-2.5521	-2.4521	-3.0417	-2.4333	-2.6125	-2.9271	192.063	178.545	202.601	387.541	275.184	335.348	368.757	388.723	337.033	289.351	342.079	401.161	297.777	353.067	155.962	234.890	0.0010431	0.0013236	5.1084e-05	1355.4	1.2313e-06	6.2138e-06	1365.5	371.29	1.662e-05	7.9104e-06	427.45	143.63	124.26	42.773	3.401e-06	52.82	0.00057897	0.00062439	0.00018711	1401.6	6.2607e-06	7.0627e-06	1416.5	381.97	6.3433e-06	7.1076e-06	449.12	148.25	127.17	45.22	7.0109e-06	55.014	359.107	117.865	419.428	78.445	82.156	165.272	78.331	83.556	203.908	153.700	82.860	87.150	88.033	91.986	377.862	91.321	-8191	255	
7002.235	1	1	0	0	0.10722	0.23739	0.16567	0.10376	0.18365	0.030239	0.25638	0.39861	0.19342	0.24488	0.13866	0.46713	0.20866	0.099551	0.18527	0.27747	-1.6458	-2.5146	-2.7396	-2.4917	-2.7583	-2.6896	-2.5396	-3.15	-2.3688	-2.3792	-2.8042	-2.0417	-2.8604	-2.7167	-1.9667	-3.0625	345.731	363.548	248.031	131.499	287.347	204.365	368.178	361.045	363.297	393.115	66.145	102.856	411.572	180.685	301.765	419.599	0.0015362	0.0007016	9.7569e-05	1362.3	4.2663e-06	3.24e-06	1371.8	370.5	1.8881e-05	7.2889e-06	424.82	143.31	124.47	42.514	1.4244e-06	52.662	0.00056991	0.00064862	0.00017379	1396.6	6.1243e-06	7.1515e-06	1407.8	380.03	6.2629e-06	7.1256e-06	442.01	146.79	127.42	45.177	6.6047e-06	54.514	352.592	154.425	354.333	78.520	219.393	203.530	78.256	83.234	216.584	209.336	83.156	87.227	87.788	92.055	273.920	91.358	-8191	255	
7002.330	1	1	0	0	0.2825	0.1223	0.31727	0.11387	0.24536	0.086887	0.2507	0.25095	0.19058	0.17908	0.24156	0.40797	0.30144	0.18861	0.1271	0.15945	-1.8333	-2.4542	-2.7896	-2.2604	-2.8438	-2.4875	-2.3375	-2.8875	-2.3292	-2.2875	-2.9354	-2.0979	-2.7854	-2.5375	-2.1354	-2.9417	95.026	167.217	232.279	337.057	332.817	121.246	404.294	413.681	192.499	270.786	114.655	390.091	308.104	94.319	146.531	319.840	0.0015015	0.00028076	6.7256e-05	1357.6	4.9037e-06	3.0398e-06	1365.7	370.58	8.3684e-06	2.9499e-06	426.03	143.73	123.59	42.548	3.2607e-06	52.842	0.00059	0.00065212	0.0001654	1388.1	6.483e-06	7.111e-06	1401.2	378.1	6.684e-06	7.0615e-06	438.78	146.31	128.28	44.886	6.3673e-06	54.262	352.643	202.564	350.471	78.352	216.803	287.915	78.355	83.111	189.082	91.547	82.785	87.356	87.954	92.081	205.712	91.169	-8191	255	
7002.426	1	1	0	0	0.18842	0.27819	0.22675	0.2329	0.13359	0.076627	0.006152	0.25076	0.24429	0.11704	0.15187	0.17618	0.21998	0.31472	0.074484	0.27089	-1.9312	-2.2604	-2.9125	-2.3875	-2.7542	-2.5417	-2.4625	-2.9854	-2.5938	-2.4042	-2.9833	-2.2729	-2.975	-2.7854	-2.1125	-2.5771	121.560	73.488	73.881	111.846	89.859	136.658	188.147	347.034	330.874	303.015	177.803	75.422	375.175	371.962	402.247	418.013	0.0015995	0.00024001	3.1756e-05	1359.2	5.8371e-06	7.8658e-06	1362.2	370.43	8.8203e-06	3.0803e-06	423.46	143.57	123.91	42.341	7.9884e-06	52.702	0.00062287	0.00062316	0.00015843	1385.1	6.7714e-06	6.7008e-06	1395	377.5	6.8657e-06	6.6187e-06	434.84	146.03	128.57	44.194	6.0797e-06	54.14	349.900	151.086	231.384	78.483	204.744	328.844	78.438	83.360	168.542	353.786	82.973	87.115	87.926	92.200	153.519	91.464	-8191	255	
