BOXY.EXE: ISS Imagent and Oximeter Data Acquisition Program Version 0.80
Ascii Record File

#ACQ INFORMATION
2  Detector Channels 
16  External MUX Channels 
1  Auxiliary Channels 
5000  Waveform (CCF) Frequency (Hz)
1  Waveforms Skipped 
30  Waveforms Averaged 
1  Cycles Averaged 
16  Acquisitions per Waveform 
10.0806  Updata Rate (Hz) 

#FILE INFORMATION
TRUE -- External MUX Channel results are PARSED.
FALSE -- AC DC and Phase are NOT grouped.
TRUE -- Companion Program Settings File CREATED.
FALSE -- AC data not excluded
FALSE -- DC data not excluded
FALSE -- Phase data not excluded
FALSE -- Auxillary Chn. data not excluded
Tab delimiters

#CALIBRATION STATE
TRUE -- Waveform Calibration Values APPLIED.


#AUX CALIBRATION VALUES
Val Type	aux-1	

Term	1.0000e+00	
Factor	0.0000e+00	


#WF CALIBRATION VALUES
A = Detector Channel
Val Type	A-AC1	A-AC2	A-AC3	A-AC4	A-AC5	A-AC6	A-AC7	A-AC8	A-AC9	A-AC10	A-AC11	A-AC12	A-AC13	A-AC14	A-AC15	A-AC16	A-DC1	A-DC2	A-DC3	A-DC4	A-DC5	A-DC6	A-DC7	A-DC8	A-DC9	A-DC10	A-DC11	A-DC12	A-DC13	A-DC14	A-DC15	A-DC16	A-Ph1	A-Ph2	A-Ph3	A-Ph4	A-Ph5	A-Ph6	A-Ph7	A-Ph8	A-Ph9	A-Ph10	A-Ph11	A-Ph12	A-Ph13	A-Ph14	A-Ph15	A-Ph16	

Term	0.00000e+00	0.00000e+00	0.00000e+00	0.00000e+00	0.00000e+00	0.00000e+00	0.00000e+00	0.00000e+00	0.00000e+00	0.00000e+00	0.00000e+00	0.00000e+00	0.00000e+00	0.00000e+00	0.00000e+00	0.00000e+00	0.00000e+00	0.00000e+00	0.00000e+00	0.00000e+00	0.00000e+00	0.00000e+00	0.00000e+00	0.00000e+00	0.00000e+00	0.00000e+00	0.00000e+00	0.00000e+00	0.00000e+00	0.00000e+00	0.00000e+00	0.00000e+00	0.00000e+00	0.00000e+00	0.00000e+00	0.00000e+00	0.00000e+00	0.00000e+00	0.00000e+00	0.00000e+00	0.00000e+00	0.00000e+00	0.00000e+00	0.00000e+00	0.00000e+00	0.00000e+00	0.00000e+00	0.00000e+00	
Factor	1.00000e+00	1.00000e+00	1.00000e+00	1.00000e+00	1.00000e+00	1.00000e+00	1.00000e+00	1.00000e+00	1.00000e+00	1.00000e+00	1.00000e+00	1.00000e+00	1.00000e+00	1.00000e+00	1.00000e+00	1.00000e+00	1.00000e+00	1.00000e+00	1.00000e+00	1.00000e+00	1.00000e+00	1.00000e+00	1.00000e+00	1.00000e+00	1.00000e+00	1.00000e+00	1.00000e+00	1.00000e+00	1.00000e+00	1.00000e+00	1.00000e+00	1.00000e+00	X	X	X	X	X	X	X	X	X	X	X	X	X	X	X	X	

B = Detector Channel
Val Type	B-AC1	B-AC2	B-AC3	B-AC4	B-AC5	B-AC6	B-AC7	B-AC8	B-AC9	B-AC10	B-AC11	B-AC12	B-AC13	B-AC14	B-AC15	B-AC16	B-DC1	B-DC2	B-DC3	B-DC4	B-DC5	B-DC6	B-DC7	B-DC8	B-DC9	B-DC10	B-DC11	B-DC12	B-DC13	B-DC14	B-DC15	B-DC16	B-Ph1	B-Ph2	B-Ph3	B-Ph4	B-Ph5	B-Ph6	B-Ph7	B-Ph8	B-Ph9	B-Ph10	B-Ph11	B-Ph12	B-Ph13	B-Ph14	B-Ph15	B-Ph16	

Term	0.00000e+00	0.00000e+00	0.00000e+00	0.00000e+00	0.00000e+00	0.00000e+00	0.00000e+00	0.00000e+00	0.00000e+00	0.00000e+00	0.00000e+00	0.00000e+00	0.00000e+00	0.00000e+00	0.00000e+00	0.00000e+00	0.00000e+00	0.00000e+00	0.00000e+00	0.00000e+00	0.00000e+00	0.00000e+00	0.00000e+00	0.00000e+00	0.00000e+00	0.00000e+00	0.00000e+00	0.00000e+00	0.00000e+00	0.00000e+00	0.00000e+00	0.00000e+00	-3.43671e-01	-1.28886e+02	-1.25619e+02	-1.82862e+02	-5.71745e+01	-6.81809e+01	-1.60871e+02	-1.62015e+02	-3.19388e+01	-6.41406e+01	-1.72576e+02	-1.72478e+02	-1.82445e+02	-1.78185e+02	-5.29652e+01	-1.51172e+02	
Factor	3.74574e-05	1.65184e-04	5.15718e-05	1.65372e-01	2.41300e-06	1.69649e-06	1.91291e-01	5.90050e-02	2.23131e-06	1.72544e-06	9.08189e-02	3.18365e-02	2.88288e-02	9.23025e-03	2.06985e-06	1.33595e-02	8.31791e-06	1.05830e-05	2.94811e-06	8.55080e-02	1.10851e-07	1.17203e-07	9.29119e-02	3.05842e-02	1.10972e-07	1.16886e-07	4.57212e-02	1.59736e-02	1.50964e-02	4.83111e-03	1.13233e-07	6.77596e-03	X	X	X	X	X	X	X	X	X	X	X	X	X	X	X	X	



#DISTANCE SETTINGS
A = Detector Channel
A-1	A-2	A-3	A-4	A-5	A-6	A-7	A-8	A-9	A-10	A-11	A-12	A-13	A-14	A-15	A-16	

2.5000e+00	3.0000e+00	2.5000e+00	3.0000e+00	2.0000e+00	3.0000e+00	1.5000e+00	3.0000e+00	3.0000e+00	3.0000e+00	3.0000e+00	3.0000e+00	3.0000e+00	3.0000e+00	1.5000e+00	3.0000e+00	

B = Detector Channel
B-1	B-2	B-3	B-4	B-5	B-6	B-7	B-8	B-9	B-10	B-11	B-12	B-13	B-14	B-15	B-16	

1.0000e+01	1.0000e+01	1.0000e+01	1.4400e+00	1.0000e+01	1.0000e+01	1.5100e+00	1.9400e+00	1.0000e+01	1.0000e+01	1.9900e+00	2.4900e+00	2.4100e+00	2.9000e+00	1.0000e+01	2.9800e+00	




#DATA BEGINS
time	group	step	mark	flag	A-AC1	A-AC2	A-AC3	A-AC4	A-AC5	A-AC6	A-AC7	A-AC8	A-AC9	A-AC10	A-AC11	A-AC12	A-AC13	A-AC14	A-AC15	A-AC16	A-DC1	A-DC2	A-DC3	A-DC4	A-DC5	A-DC6	A-DC7	A-DC8	A-DC9	A-DC10	A-DC11	A-DC12	A-DC13	A-DC14	A-DC15	A-DC16	A-Ph1	A-Ph2	A-Ph3	A-Ph4	A-Ph5	A-Ph6	A-Ph7	A-Ph8	A-Ph9	A-Ph10	A-Ph11	A-Ph12	A-Ph13	A-Ph14	A-Ph15	A-Ph16	B-AC1	B-AC2	B-AC3	B-AC4	B-AC5	B-AC6	B-AC7	B-AC8	B-AC9	B-AC10	B-AC11	B-AC12	B-AC13	B-AC14	B-AC15	B-AC16	B-DC1	B-DC2	B-DC3	B-DC4	B-DC5	B-DC6	B-DC7	B-DC8	B-DC9	B-DC10	B-DC11	B-DC12	B-DC13	B-DC14	B-DC15	B-DC16	B-Ph1	B-Ph2	B-Ph3	B-Ph4	B-Ph5	B-Ph6	B-Ph7	B-Ph8	B-Ph9	B-Ph10	B-Ph11	B-Ph12	B-Ph13	B-Ph14	B-Ph15	B-Ph16	aux-1	digaux	

7623.948	1	1	0	256	0.20862	0.092923	0.16995	0.25045	0.16451	0.16564	0.33845	0.37645	0.11711	0.011339	0.3069	0.2765	0.092075	0.048813	0.25454	0.31396	-2.5271	-2.7062	-2.5583	-3.0958	-2.7771	-2.3833	-3.1625	-2.5875	-2.725	-2.95	-2.5062	-2.8167	-2.6583	-2.3854	-2.9708	-2.6188	318.941	360.191	154.234	326.180	215.471	329.483	64.243	374.253	80.294	354.744	377.541	407.321	332.661	324.384	271.403	70.550	0.00046381	0.00019015	0.00020336	1242.6	5.5564e-06	7.2058e-06	1338.4	295.89	2.6359e-06	3.77e-06	340.83	96.394	78.641	19.67	8.4176e-06	25.997	0.00065342	0.00074134	0.00020997	1134.6	7.894e-06	7.9825e-06	1219.8	270.31	7.5274e-06	7.771e-06	313.14	88.361	71.873	18.206	7.1459e-06	24.214	287.024	153.637	115.351	66.490	264.629	219.962	65.894	71.551	279.060	177.790	70.467	75.802	76.930	81.968	219.447	80.220	-8191	255	
7624.044	1	1	0	0	0.23377	0.1461	0.085213	0.048449	0.27177	0.25231	0.21961	0.10649	0.24039	0.38479	0.17542	0.14705	0.083483	0.092821	0.20703	0.22493	-2.1562	-2.9021	-2.3187	-2.9083	-2.675	-2.5125	-3.1375	-2.7646	-2.6063	-2.8312	-2.5479	-2.7667	-2.7562	-2.5646	-2.9188	-2.7604	86.457	225.033	203.649	304.191	386.883	327.617	314.837	209.346	286.977	56.227	332.641	254.593	53.619	182.443	260.864	354.803	0.0004282	0.00014989	0.00011416	1258.4	1.646e-05	2.6789e-06	1359.5	297.99	3.9344e-06	6.9837e-06	347.51	98.688	79.275	19.847	2.6631e-06	26.402	0.0005897	0.00064618	0.00017863	1140.9	6.7758e-06	6.8793e-06	1233.7	271.68	6.7839e-06	6.6632e-06	317.43	89.768	72.598	18.387	6.5489e-06	24.465	292.448	156.308	103.145	66.494	218.458	255.624	65.840	71.311	224.551	187.954	69.775	75.863	76.911	82.137	261.851	80.605	-8191	255	
7624.163	1	1	0	0	0.056349	0.11829	0.1577	0.34738	0.20695	0.18402	0.2215	0.34877	0.062864	0.27037	0.072868	0.055138	0.21724	0.12029	0.060837	0.31912	-2.2562	-2.8354	-2.4062	-2.8958	-2.7333	-2.7208	-3.0563	-2.6417	-2.475	-2.9667	-2.5187	-2.8354	-2.8583	-2.1854	-2.8187	-2.7562	182.477	274.456	148.288	56.285	120.389	161.755	59.982	321.433	222.670	196.902	207.445	390.064	369.897	234.772	308.226	261.399	0.00044629	0.00029852	0.00011853	1264.5	9.7801e-06	2.4079e-06	1367.8	300.68	8.9104e-06	8.2724e-06	350.4	98.929	80.141	19.857	4.6718e-06	26.432	0.00056518	0.00064863	0.00017912	1150.9	7.022e-06	7.1599e-06	1240.5	273.51	6.9487e-06	7.168e-06	319.1	90.248	72.926	18.393	6.9152e-06	24.457	272.566	58.192	137.729	66.440	220.035	209.058	65.482	71.381	235.956	209.536	70.093	75.669	77.247	82.035	189.382	79.804	-8191	255	
7624.259	1	1	0	0	0.21631	0.19718	0.17808	0.081083	0.098701	0.1298	0.12781	0.31612	0.25325	0.14704	0.049143	0.27881	0.15134	0.24377	0.10513	0.18781	-1.9667	-2.8708	-2.425	-2.6896	-2.7396	-2.5917	-2.9	-2.6375	-2.4167	-2.8563	-2.5687	-2.5187	-2.8812	-2.4375	-2.7271	-2.9333	312.208	285.162	317.808	81.567	141.523	174.286	372.957	385.580	232.960	92.005	319.335	242.937	118.716	213.813	270.898	96.112	0.00038744	0.00048423	0.00024853	1268.4	7.9248e-06	4.6853e-06	1377.8	302.55	5.2037e-06	4.0847e-06	350.11	98.217	79.373	19.64	4.0384e-06	25.904	0.00055396	0.00061015	0.0001806	1155.6	7.1767e-06	7.1494e-06	1250.7	275.68	7.4555e-06	7.6093e-06	319.51	89.902	72.798	18.36	8.0858e-06	24.185	276.715	135.282	171.869	66.439	227.364	224.268	65.900	71.437	306.399	213.759	70.141	76.037	77.098	81.916	226.617	79.785	-8191	255	
7624.355	1	1	0	0	0.28651	0.28683	0.21636	0.16012	0.35611	0.074756	0.25203	0.052686	0.095095	0.058553	0.097997	0.17913	0.068775	0.11077	0.12749	0.051883	-1.9542	-2.8771	-2.6229	-2.9167	-2.7333	-2.4354	-2.9021	-3.0292	-2.45	-2.9062	-2.8458	-2.6063	-2.9042	-2.575	-2.7021	-2.7979	291.034	380.477	126.727	56.163	261.259	287.273	375.729	173.814	191.211	301.147	364.492	82.160	261.771	357.185	316.972	349.123	0.00049642	0.00042643	0.00016993	1273.6	9.9838e-06	9.964e-07	1366.2	300.74	4.018e-06	5.2815e-06	347.27	97.368	78.609	19.486	4.8702e-06	25.645	0.00065328	0.00072328	0.00019946	1155.5	8.0155e-06	7.9962e-06	1243.3	274.32	7.6245e-06	8.137e-06	317.35	88.941	72.316	18.132	7.8848e-06	23.963	279.155	67.587	105.514	66.403	254.939	369.138	65.876	71.572	291.775	229.910	70.012	75.945	76.740	82.519	200.087	79.637	-8191	255	
7624.451	1	1	0	0	0.28569	0.13989	0.17813	0.46153	0.26279	0.084028	0.32616	0.16868	0.1159	0.29659	0.064224	0.10917	0.18121	0.05207	0.1163	0.13658	-2.1083	-2.8417	-2.7271	-2.5729	-3.0187	-2.5667	-2.8375	-2.8875	-2.3604	-2.7708	-2.7708	-2.6042	-2.9188	-2.6771	-2.5146	-2.9729	254.422	220.677	296.240	370.345	104.819	277.772	346.822	358.207	250.381	184.517	311.281	343.893	128.562	315.889	311.290	121.844	0.00045003	0.00035303	0.0002312	1263.7	1.0887e-05	3.0083e-06	1359.4	300.8	9.8061e-06	6.1496e-06	348.19	97.821	78.947	19.422	9.1988e-06	26.084	0.00064528	0.00069973	0.00019899	1150.3	7.2788e-06	7.6675e-06	1236.4	274.37	7.3891e-06	7.6899e-06	318.22	89.372	72.492	18.19	7.5446e-06	24.104	281.535	207.476	166.413	66.425	226.785	311.407	65.961	71.615	282.436	199.466	70.102	75.491	77.080	82.313	167.837	79.899	-8191	255	
7624.548	1	1	0	0	0.027849	0.030147	0.11666	0.31578	0.10318	0.24303	0.23381	0.19319	0.13772	0.2599	0.14905	0.063829	0.12175	0.23432	0.11103	0.28747	-2.0229	-2.9437	-2.7604	-2.6375	-3.0458	-2.6104	-2.8417	-2.8563	-2.3958	-2.8104	-2.8583	-2.5438	-2.9292	-2.6229	-2.7062	-3.1063	283.550	84.391	184.945	363.795	378.974	92.429	314.346	356.123	217.371	99.859	299.930	403.098	374.957	87.592	64.609	353.215	0.00047157	0.00078195	6.5791e-05	1265.2	2.7631e-06	4.6117e-06	1357.7	301.43	9.3887e-06	5.2221e-06	350.56	97.53	78.843	19.606	6.7143e-06	25.945	0.00061837	0.00069426	0.0001904	1151.8	7.5975e-06	8.0089e-06	1237.6	274.77	7.4983e-06	7.7668e-06	318.54	88.904	72.511	18.301	7.5725e-06	24.085	279.769	166.115	162.447	66.686	325.635	226.484	65.677	71.445	291.608	233.220	69.858	75.874	76.961	81.889	177.827	80.586	-8191	255	
7624.644	1	1	0	0	0.13425	0.1902	0.12331	0.13329	0.062302	0.17831	0.2672	0.096358	0.067349	0.1163	0.19458	0.27541	0.11729	0.051806	0.13728	0.14398	-1.9479	-2.5833	-2.6854	-2.5917	-2.9292	-2.5271	-2.6375	-2.8854	-2.3667	-2.7562	-2.8875	-2.5208	-3.0083	-2.5708	-2.5062	-2.8979	366.606	284.939	246.410	354.910	216.024	412.283	307.112	101.159	389.077	352.748	263.169	373.767	383.974	57.361	242.639	306.665	0.00042288	0.00076523	0.00011507	1264.9	6.2594e-06	4.8167e-06	1370.4	302.74	1.3641e-05	2.7391e-06	348.98	98.269	79.88	19.467	3.4064e-06	25.978	0.00063731	0.00070897	0.00019986	1152.8	8.0395e-06	8.235e-06	1242.9	275.51	7.8224e-06	7.7254e-06	319.49	89.864	72.882	18.283	7.3965e-06	24.189	278.637	155.890	153.586	66.440	267.203	246.330	65.695	71.541	243.437	237.053	70.083	75.771	77.054	82.200	193.028	79.989	-8191	255	
7624.740	1	1	0	0	0.25015	0.097426	0.24896	0.28139	0.12428	0.10748	0.31692	0.091345	0.11141	0.04737	0.056972	0.10058	0.30467	0.20064	0.18532	0.038614	-2.175	-2.6521	-2.7104	-2.6271	-2.7979	-2.7667	-2.7313	-3.0563	-2.6375	-2.6292	-2.9562	-2.5167	-2.8833	-2.6312	-2.4708	-2.9	179.257	271.434	391.766	336.746	221.817	126.207	362.997	336.556	360.688	233.508	62.359	140.806	330.763	379.406	286.763	289.357	0.00054509	0.00046304	0.00014453	1265.4	8.7484e-06	7.5451e-06	1371.8	302.56	1.019e-05	3.0388e-06	353.5	98.131	80.099	19.897	9.0305e-06	26.182	0.00060502	0.00068379	0.00018232	1153.3	7.3016e-06	7.2671e-06	1246.2	275.96	7.1804e-06	7.4529e-06	321.54	89.907	73.203	18.294	7.5397e-06	24.18	272.577	198.906	187.804	66.409	254.300	244.310	65.568	70.947	264.462	245.937	70.358	75.768	76.876	81.871	214.448	79.818	-8191	255	
7624.836	1	1	0	0	0.081534	0.26427	0.058056	0.10528	0.21234	0.15145	0.17309	0.21832	0.21768	0.11536	0.17506	0.16195	0.097372	0.083027	0.04662	0.37309	-1.9229	-2.5875	-2.8792	-2.4542	-2.5333	-2.6625	-2.5792	-2.9042	-2.4896	-2.6396	-2.8833	-2.525	-2.9667	-2.75	-2.3292	-2.9542	412.608	315.997	152.502	387.691	105.953	174.478	351.288	322.217	181.434	76.173	317.480	357.261	245.674	280.427	333.023	349.772	0.00046705	0.00062091	0.00011221	1276	6.6985e-06	4.6657e-06	1383.2	304.75	1.1633e-06	3.8137e-06	350.99	97.362	79.571	19.612	5.4086e-06	25.948	0.00062902	0.00069409	0.00019124	1158.4	7.6337e-06	7.9359e-06	1250.6	277.77	7.6384e-06	7.9797e-06	320.59	89.514	73.208	18.277	7.8494e-06	24.019	287.596	99.288	364.420	66.525	237.076	216.967	65.690	71.544	79.849	196.137	69.892	75.824	77.005	82.621	227.055	80.303	-8191	255	
7624.955	1	1	0	0	0.15192	0.24207	0.068941	0.39271	0.16841	0.11986	0.12102	0.10905	0.24132	0.078905	0.13219	0.066773	0.40079	0.069317	0.22489	0.16498	-2.1729	-2.4958	-2.8646	-2.6958	-2.6208	-2.7938	-2.3438	-2.8667	-2.5167	-2.5792	-3.0333	-2.5333	-2.6437	-2.8104	-2.5958	-2.9	111.668	141.589	249.813	381.308	305.114	371.058	319.979	413.127	400.395	182.449	355.247	344.032	393.227	58.740	233.187	305.457	0.00057449	0.00053179	0.00017668	1271.1	8.6406e-06	4.7128e-07	1371.4	304.5	4.0985e-06	2.7843e-06	347.55	97.915	79.807	19.439	3.9575e-06	25.754	0.00064984	0.00073161	0.00019992	1156.3	8.0582e-06	7.8314e-06	1245.8	276.67	7.7368e-06	7.9193e-06	319.19	89.342	72.819	18.241	7.8421e-06	23.994	277.416	144.437	118.668	66.325	236.936	322.673	65.791	71.397	223.149	169.262	70.081	76.196	77.483	82.187	248.179	80.311	-8191	255	
7625.051	1	1	0	0	0.11077	0.2559	0.085105	0.42062	0.26108	0.11336	0.17326	0.24694	0.22816	0.14383	0.18	0.24462	0.23897	0.209	0.15624	0.20473	-2.2104	-2.4583	-3.0083	-2.5646	-2.6646	-2.7313	-2.3937	-2.7729	-2.5583	-2.4437	-2.825	-2.6333	-2.5729	-2.9917	-2.4	-2.7479	113.396	233.441	313.575	380.700	183.383	335.310	345.167	265.044	288.230	281.623	398.305	105.031	59.848	165.439	217.629	330.020	0.00047229	0.00088475	3.0902e-05	1276.6	1.0322e-05	4.5152e-06	1369.5	301.27	2.2211e-06	1.9522e-06	351.23	97.565	78.962	19.609	8.4753e-06	26.118	0.0006632	0.0007493	0.00021342	1155.3	8.3448e-06	8.3492e-06	1241	276.26	7.7625e-06	8.3659e-06	318.96	89.422	72.66	18.269	8.0393e-06	24.179	281.032	153.009	226.635	66.466	249.160	95.877	65.513	71.522	168.453	292.731	69.740	75.761	76.985	82.360	195.827	79.928	-8191	255	
7625.124	1	1	0	0	0.23023	0.25428	0.13185	0.27566	0.23027	0.093511	0.15234	0.18908	0.12795	0.069108	0.053873	0.20101	0.3541	0.18484	0.060669	0.19826	-2.4062	-2.4417	-2.6667	-2.7271	-2.4208	-2.8833	-2.4521	-2.8042	-2.8396	-2.3563	-2.8917	-2.675	-2.4083	-2.8896	-2.4938	-2.5812	343.570	358.056	244.306	295.282	249.415	134.166	320.146	321.547	69.752	168.543	295.870	399.762	110.491	369.965	93.543	348.150	0.00041821	0.00063979	5.797e-05	1269	3.3953e-06	8.2788e-06	1361.7	302.58	6.8857e-06	3.2056e-06	346.44	96.923	78.878	19.607	5.676e-06	25.642	0.00066942	0.0007612	0.00020793	1151.9	8.3335e-06	8.3502e-06	1235.5	275.47	8.0039e-06	8.1944e-06	316.66	88.746	72.354	18.169	8.7623e-06	23.894	301.903	82.978	144.686	66.504	194.601	127.859	65.753	71.495	305.102	181.070	70.265	76.106	77.294	81.900	180.909	79.916	-8191	255	
7625.243	1	1	0	0	0.1983	0.11499	0.084782	0.16102	0.088387	0.21739	0.44525	0.03169	0.11506	0.11319	0.029374	0.16574	0.20253	0.13455	0.065385	0.26345	-2.4083	-2.35	-2.7729	-2.7812	-2.6208	-2.8354	-2.5417	-2.6333	-2.9042	-2.4104	-3.0146	-2.575	-2.5438	-3.0021	-2.55	-2.6875	310.064	267.789	355.065	384.581	276.241	385.258	346.185	299.605	140.107	159.415	83.586	311.317	238.513	60.458	65.601	410.494	0.00039102	0.0008366	0.00013317	1259	1.2916e-05	3.6359e-06	1348.9	298.98	1.118e-05	5.9172e-06	343.64	96.374	78.54	19.691	4.8999e-06	25.494	0.00069139	0.00079326	0.00022409	1143.5	8.6628e-06	8.9548e-06	1224.3	273.48	8.7682e-06	8.6978e-06	314.21	88.451	72.238	18.269	9.0367e-06	23.825	276.812	127.971	67.139	66.412	240.117	181.771	65.819	71.710	248.298	291.661	69.552	75.703	76.806	81.846	249.816	79.760	-8191	255	
7625.339	1	1	0	0	0.18365	0.28323	0.13745	0.18934	0.26312	0.22102	0.11937	0.08271	0.14478	0.13246	0.19705	0.056929	0.23301	0.14168	0.12058	0.10974	-2.3354	-2.3917	-2.6125	-2.6708	-2.3438	-2.8479	-2.5708	-2.5917	-2.9313	-2.55	-2.7812	-2.5458	-2.2646	-2.6437	-2.5979	-2.5938	405.403	325.242	265.004	65.220	66.506	162.821	324.198	319.497	228.631	138.329	385.672	392.180	211.774	91.000	85.565	266.867	0.00050195	0.0010944	0.00010071	1251.9	1.1173e-05	2.5485e-06	1333.9	298.88	6.7477e-06	5.6901e-06	341.9	96.226	78.429	19.397	6.4882e-06	25.704	0.00073031	0.00081639	0.00023206	1142.2	9.2007e-06	9.164e-06	1215.2	273.34	8.974e-06	9.3502e-06	312.42	88.051	72.112	18.176	8.8593e-06	23.822	296.037	168.091	90.707	66.560	220.682	326.792	65.780	71.665	191.800	190.782	70.091	75.942	76.921	82.682	266.346	79.610	-8191	255	
7625.436	1	1	0	0	0.11462	0.079845	0.262	0.086023	0.23026	0.072927	0.28608	0.10843	0.094185	0.17483	0.094305	0.26388	0.12098	0.36584	0.23765	0.13879	-2.4833	-2.4771	-2.6833	-3.075	-2.3917	-3.1083	-2.8917	-2.6167	-2.7687	-2.5729	-2.85	-2.8833	-2.4562	-2.8833	-2.7771	-2.5646	411.548	147.635	321.458	79.158	65.619	353.670	334.970	195.868	93.670	87.515	273.432	395.310	59.863	374.267	136.072	63.999	0.00048408	0.00029009	0.00010693	1254.2	3.6943e-06	4.1243e-06	1338.4	299.3	4.2773e-06	6.199e-06	342.27	96.222	78.196	19.697	3.8417e-06	25.835	0.00069964	0.00082953	0.00023632	1141.4	8.7496e-06	9.2922e-06	1216.6	273.55	8.9728e-06	9.2632e-06	313.07	88.26	72.099	18.273	9.2483e-06	24.073	293.621	172.262	107.663	66.548	212.995	275.210	65.765	71.673	263.321	278.679	70.005	75.835	76.712	82.028	237.972	80.123	-8191	255	
7625.556	1	1	0	0	0.32245	0.1043	0.19836	0.24093	0.36419	0.23466	0.35497	0.20353	0.10735	0.13135	0.096149	0.11568	0.15279	0.23585	0.10566	0.23973	-2.5521	-2.5521	-2.7854	-2.9208	-2.2687	-2.7188	-2.7562	-2.5521	-2.9667	-2.4771	-2.5583	-2.7812	-2.1625	-2.8083	-2.6729	-2.6229	329.423	142.190	319.846	365.224	287.255	349.521	336.152	380.384	288.826	217.727	60.982	208.179	79.382	211.348	382.582	379.686	0.00042293	0.00010963	5.1258e-05	1245.9	7.4123e-06	1.9931e-06	1338.1	299	2.2139e-06	3.1629e-06	341.06	95.523	78.05	19.54	3.6127e-06	25.651	0.00073411	0.00088659	0.00023877	1137.9	8.9319e-06	9.2148e-06	1210.9	272.6	8.4737e-06	9.1597e-06	311.89	87.406	71.712	18.262	8.8897e-06	23.814	279.394	109.065	79.875	66.347	288.156	248.381	65.906	71.571	233.307	146.556	70.299	75.970	77.202	81.577	193.748	79.963	-8191	255	
7625.652	1	1	0	0	0.36962	0.23617	0.14342	0.2539	0.13231	0.14535	0.13926	0.27471	0.16327	0.0996	0.1377	0.31235	0.076042	0.056301	0.074601	0.24583	-2.575	-2.6792	-2.4833	-3.1146	-2.4104	-2.625	-2.8167	-2.6188	-2.7542	-2.6021	-2.5542	-2.9646	-2.55	-2.7292	-2.825	-2.5	292.481	306.068	332.532	259.786	412.930	127.968	384.334	322.974	105.638	233.082	73.976	59.817	267.565	276.699	276.808	351.435	0.00039664	0.00051063	0.00010034	1249.1	8.1668e-06	6.3081e-06	1333.1	297.41	5.1178e-06	5.7142e-06	342.69	94.912	77.515	19.315	1.2372e-05	25.583	0.00070997	0.00080788	0.000232	1137.3	8.9157e-06	8.8884e-06	1210.9	271.92	9.0828e-06	9.5204e-06	312.15	87.321	71.79	18.167	9.2285e-06	23.836	290.177	109.045	83.728	66.594	244.957	202.881	65.515	71.656	263.371	212.185	69.952	76.160	77.322	81.915	211.299	80.374	-8191	255	
