BOXY.EXE: ISS Imagent and Oximeter Data Acquisition Program Version 0.80
Ascii Record File

#ACQ INFORMATION
2  Detector Channels 
16  External MUX Channels 
1  Auxiliary Channels 
5000  Waveform (CCF) Frequency (Hz)
1  Waveforms Skipped 
30  Waveforms Averaged 
1  Cycles Averaged 
16  Acquisitions per Waveform 
10.0806  Updata Rate (Hz) 

#FILE INFORMATION
TRUE -- External MUX Channel results are PARSED.
FALSE -- AC DC and Phase are NOT grouped.
TRUE -- Companion Program Settings File CREATED.
FALSE -- AC data not excluded
FALSE -- DC data not excluded
FALSE -- Phase data not excluded
FALSE -- Auxillary Chn. data not excluded
Tab delimiters

#CALIBRATION STATE
TRUE -- Waveform Calibration Values APPLIED.


#AUX CALIBRATION VALUES
Val Type	aux-1	

Term	1.0000e+00	
Factor	0.0000e+00	


#WF CALIBRATION VALUES
A = Detector Channel
Val Type	A-AC1	A-AC2	A-AC3	A-AC4	A-AC5	A-AC6	A-AC7	A-AC8	A-AC9	A-AC10	A-AC11	A-AC12	A-AC13	A-AC14	A-AC15	A-AC16	A-DC1	A-DC2	A-DC3	A-DC4	A-DC5	A-DC6	A-DC7	A-DC8	A-DC9	A-DC10	A-DC11	A-DC12	A-DC13	A-DC14	A-DC15	A-DC16	A-Ph1	A-Ph2	A-Ph3	A-Ph4	A-Ph5	A-Ph6	A-Ph7	A-Ph8	A-Ph9	A-Ph10	A-Ph11	A-Ph12	A-Ph13	A-Ph14	A-Ph15	A-Ph16	

Term	0.00000e+00	0.00000e+00	0.00000e+00	0.00000e+00	0.00000e+00	0.00000e+00	0.00000e+00	0.00000e+00	0.00000e+00	0.00000e+00	0.00000e+00	0.00000e+00	0.00000e+00	0.00000e+00	0.00000e+00	0.00000e+00	0.00000e+00	0.00000e+00	0.00000e+00	0.00000e+00	0.00000e+00	0.00000e+00	0.00000e+00	0.00000e+00	0.00000e+00	0.00000e+00	0.00000e+00	0.00000e+00	0.00000e+00	0.00000e+00	0.00000e+00	0.00000e+00	0.00000e+00	0.00000e+00	0.00000e+00	0.00000e+00	0.00000e+00	0.00000e+00	0.00000e+00	0.00000e+00	0.00000e+00	0.00000e+00	0.00000e+00	0.00000e+00	0.00000e+00	0.00000e+00	0.00000e+00	0.00000e+00	
Factor	1.00000e+00	1.00000e+00	1.00000e+00	1.00000e+00	1.00000e+00	1.00000e+00	1.00000e+00	1.00000e+00	1.00000e+00	1.00000e+00	1.00000e+00	1.00000e+00	1.00000e+00	1.00000e+00	1.00000e+00	1.00000e+00	1.00000e+00	1.00000e+00	1.00000e+00	1.00000e+00	1.00000e+00	1.00000e+00	1.00000e+00	1.00000e+00	1.00000e+00	1.00000e+00	1.00000e+00	1.00000e+00	1.00000e+00	1.00000e+00	1.00000e+00	1.00000e+00	X	X	X	X	X	X	X	X	X	X	X	X	X	X	X	X	

B = Detector Channel
Val Type	B-AC1	B-AC2	B-AC3	B-AC4	B-AC5	B-AC6	B-AC7	B-AC8	B-AC9	B-AC10	B-AC11	B-AC12	B-AC13	B-AC14	B-AC15	B-AC16	B-DC1	B-DC2	B-DC3	B-DC4	B-DC5	B-DC6	B-DC7	B-DC8	B-DC9	B-DC10	B-DC11	B-DC12	B-DC13	B-DC14	B-DC15	B-DC16	B-Ph1	B-Ph2	B-Ph3	B-Ph4	B-Ph5	B-Ph6	B-Ph7	B-Ph8	B-Ph9	B-Ph10	B-Ph11	B-Ph12	B-Ph13	B-Ph14	B-Ph15	B-Ph16	

Term	0.00000e+00	0.00000e+00	0.00000e+00	0.00000e+00	0.00000e+00	0.00000e+00	0.00000e+00	0.00000e+00	0.00000e+00	0.00000e+00	0.00000e+00	0.00000e+00	0.00000e+00	0.00000e+00	0.00000e+00	0.00000e+00	0.00000e+00	0.00000e+00	0.00000e+00	0.00000e+00	0.00000e+00	0.00000e+00	0.00000e+00	0.00000e+00	0.00000e+00	0.00000e+00	0.00000e+00	0.00000e+00	0.00000e+00	0.00000e+00	0.00000e+00	0.00000e+00	-1.98888e+02	-1.41666e+02	-1.28181e+02	-1.83212e+02	-8.92266e+01	-7.95993e+01	-1.60609e+02	-1.62015e+02	-7.67401e+01	-7.98675e+01	-1.72562e+02	-1.72621e+02	-1.82837e+02	-1.77955e+02	-8.59113e+01	-1.50807e+02	
Factor	3.77429e-05	1.24987e-04	3.22763e-05	1.53048e-01	1.12836e-06	1.18453e-06	1.66555e-01	5.17580e-02	1.34229e-06	1.30404e-06	7.96663e-02	2.59757e-02	2.43854e-02	7.97063e-03	1.19627e-06	1.14541e-02	1.84811e-06	1.93964e-06	5.39761e-07	8.01032e-02	2.10885e-08	2.12456e-08	8.19187e-02	2.70715e-02	2.11425e-08	2.13452e-08	4.02592e-02	1.31275e-02	1.28064e-02	4.18483e-03	2.12242e-08	5.82685e-03	X	X	X	X	X	X	X	X	X	X	X	X	X	X	X	X	



#DISTANCE SETTINGS
A = Detector Channel
A-1	A-2	A-3	A-4	A-5	A-6	A-7	A-8	A-9	A-10	A-11	A-12	A-13	A-14	A-15	A-16	

2.5000e+00	3.0000e+00	2.5000e+00	3.0000e+00	2.0000e+00	3.0000e+00	1.5000e+00	3.0000e+00	3.0000e+00	3.0000e+00	3.0000e+00	3.0000e+00	3.0000e+00	3.0000e+00	1.5000e+00	3.0000e+00	

B = Detector Channel
B-1	B-2	B-3	B-4	B-5	B-6	B-7	B-8	B-9	B-10	B-11	B-12	B-13	B-14	B-15	B-16	

1.0000e+01	1.0000e+01	1.0000e+01	1.4400e+00	1.0000e+01	1.0000e+01	1.5100e+00	1.9400e+00	1.0000e+01	1.0000e+01	1.9900e+00	2.4900e+00	2.4100e+00	2.9000e+00	1.0000e+01	2.9800e+00	




#DATA BEGINS
time	group	step	mark	flag	A-AC1	A-AC2	A-AC3	A-AC4	A-AC5	A-AC6	A-AC7	A-AC8	A-AC9	A-AC10	A-AC11	A-AC12	A-AC13	A-AC14	A-AC15	A-AC16	A-DC1	A-DC2	A-DC3	A-DC4	A-DC5	A-DC6	A-DC7	A-DC8	A-DC9	A-DC10	A-DC11	A-DC12	A-DC13	A-DC14	A-DC15	A-DC16	A-Ph1	A-Ph2	A-Ph3	A-Ph4	A-Ph5	A-Ph6	A-Ph7	A-Ph8	A-Ph9	A-Ph10	A-Ph11	A-Ph12	A-Ph13	A-Ph14	A-Ph15	A-Ph16	B-AC1	B-AC2	B-AC3	B-AC4	B-AC5	B-AC6	B-AC7	B-AC8	B-AC9	B-AC10	B-AC11	B-AC12	B-AC13	B-AC14	B-AC15	B-AC16	B-DC1	B-DC2	B-DC3	B-DC4	B-DC5	B-DC6	B-DC7	B-DC8	B-DC9	B-DC10	B-DC11	B-DC12	B-DC13	B-DC14	B-DC15	B-DC16	B-Ph1	B-Ph2	B-Ph3	B-Ph4	B-Ph5	B-Ph6	B-Ph7	B-Ph8	B-Ph9	B-Ph10	B-Ph11	B-Ph12	B-Ph13	B-Ph14	B-Ph15	B-Ph16	aux-1	digaux	

8544.142	1	1	0	256	0.46362	0.15334	0.066515	0.4066	0.18469	0.14965	0.19256	0.141	0.1451	0.077218	0.043528	0.013065	0.11093	0.12586	0.29486	0.32491	-2.1229	-2.3125	-2.6958	-2.6208	-2.3104	-2.8417	-2.5646	-2.6667	-2.6146	-2.3542	-2.675	-2.5563	-2.3917	-2.9	-2.3563	-2.5875	416.613	363.255	181.520	355.055	405.565	350.822	401.978	405.261	156.889	73.112	95.600	247.399	206.328	359.312	148.438	364.598	0.0010605	0.00059598	0.00013149	1288.7	6.4519e-06	6.4263e-06	1281	341.31	8.0067e-06	5.0633e-06	389.24	127.46	111.58	37.734	1.6506e-06	47.192	0.00050793	0.00049043	0.00013762	1309.3	5.4301e-06	5.4121e-06	1300.7	348.11	5.4836e-06	5.4732e-06	397.62	130.2	113.67	38.949	5.5101e-06	48.648	97.222	144.064	104.144	81.602	204.392	191.662	81.782	86.645	226.907	170.470	85.846	90.475	91.044	95.410	243.701	94.859	-8191	255	
8544.239	1	1	0	0	0.21017	0.167	0.31455	0.023869	0.10795	0.15062	0.19881	0.42891	0.15428	0.20178	0.31488	0.10727	0.36781	0.31094	0.1623	0.082888	-2.2438	-2.4208	-2.5979	-2.6437	-2.2917	-2.9042	-2.4979	-2.6375	-2.7229	-2.4417	-2.8396	-2.8958	-2.4333	-2.8979	-2.4979	-2.4479	76.075	197.261	373.090	74.000	390.663	275.922	391.634	380.025	320.930	117.276	311.793	71.663	421.064	390.038	390.275	99.259	0.0010206	0.00072206	0.00011545	1287.3	3.3097e-06	5.0745e-06	1282	342.29	2.5035e-06	4.0703e-06	388.44	127.64	110.81	37.888	6.2285e-06	47.14	0.00050337	0.00049196	0.00013797	1310.7	5.4744e-06	5.4616e-06	1301.4	348.93	5.3554e-06	5.3763e-06	397.89	130.11	113.39	39.029	5.4382e-06	48.652	95.049	145.326	182.714	81.834	200.609	171.336	81.587	87.002	178.767	210.832	86.065	90.718	91.116	95.705	262.297	94.669	-8191	255	
8544.310	1	1	0	0	0.058045	0.13609	0.2713	0.17255	0.096673	0.23941	0.26641	0.077013	0.093179	0.10958	0.04709	0.17732	0.18638	0.11112	0.18834	0.40344	-2.3583	-2.2458	-2.5312	-2.6896	-2.3292	-2.5979	-2.6458	-2.5417	-2.6896	-2.375	-2.7083	-2.6	-2.0187	-2.7646	-2.5875	-2.5396	208.433	136.650	86.304	75.492	73.037	381.530	368.561	181.323	269.501	110.945	394.130	294.977	86.266	372.033	149.635	335.299	0.0010113	0.00037239	6.9396e-05	1287.8	9.1846e-06	1.8816e-06	1282.3	341.91	2.3531e-06	6.4888e-06	390.06	127.92	111.11	37.82	2.9166e-06	47.258	0.00050795	0.00048933	0.00013837	1311.2	5.3489e-06	5.3649e-06	1301.5	349.18	5.3958e-06	5.3946e-06	398.3	130.3	113.57	39.007	5.4109e-06	48.681	93.053	185.781	112.381	82.043	199.502	301.019	81.580	86.760	207.072	266.484	86.113	90.423	91.112	95.923	203.503	94.432	-8191	255	
8544.431	1	1	0	0	0.19056	0.19147	0.12781	0.31206	0.10881	0.017065	0.20529	0.14482	0.27484	0.26376	0.35087	0.2939	0.25748	0.079055	0.22922	0.18406	-2.3937	-2.2062	-2.5854	-2.7958	-2.2979	-2.6688	-2.5792	-2.4938	-2.7854	-2.5396	-2.7	-2.8	-2.2104	-2.7417	-2.5938	-2.4604	392.015	119.354	170.953	406.110	395.152	203.761	415.082	383.578	390.858	139.645	399.848	406.387	408.804	331.106	290.944	121.808	0.0010212	0.00016072	0.00012793	1286.5	3.0557e-06	2.2181e-06	1281.7	341.74	1.324e-06	4.1546e-06	391.32	127.56	111.38	37.846	2.4009e-06	47.052	0.00050537	0.00049283	0.00013729	1311	5.3929e-06	5.3475e-06	1302.5	348.54	5.3494e-06	5.3658e-06	399.18	130.27	113.65	39.039	5.4045e-06	48.618	95.990	424.982	213.244	81.633	183.199	300.249	81.627	86.598	402.445	160.889	86.014	90.559	90.864	95.741	260.471	94.833	-8191	255	
8544.525	1	1	0	0	0.11952	0.021837	0.093039	0.22472	0.068435	0.087111	0.24376	0.050308	0.17936	0.17511	0.097934	0.16071	0.1346	0.30696	0.1893	0.051574	-2.3854	-2.375	-2.4896	-2.8396	-2.4354	-2.6458	-2.7167	-2.3917	-2.6875	-2.3792	-2.4854	-2.8542	-2.4667	-2.6312	-2.625	-2.4313	364.912	368.731	247.095	88.143	199.646	295.115	368.308	137.573	107.640	218.144	152.806	328.918	287.707	385.025	317.156	81.660	0.0009376	0.00047947	0.0001833	1288.7	3.2144e-06	1.6625e-06	1285.3	341.93	2.1308e-06	3.3565e-06	391.1	127.97	110.96	38.082	2.7271e-06	47.091	0.00050235	0.00049115	0.00013565	1310	5.3477e-06	5.352e-06	1305.6	349.1	5.359e-06	5.4593e-06	399.02	130.62	113.64	39.125	5.4001e-06	48.756	98.214	113.051	169.631	81.925	121.326	206.874	81.772	86.821	167.724	215.538	85.838	90.668	91.177	95.670	231.828	94.912	-8191	255	
8544.621	1	1	0	0	0.28228	0.14533	0.24408	0.34349	0.23561	0.14712	0.30964	0.25405	0.094974	0.13537	0.13678	0.032524	0.093761	0.15165	0.22127	0.45847	-2.2667	-2.3354	-2.4021	-2.8125	-2.2333	-2.5104	-2.7854	-2.5125	-2.7896	-2.3458	-2.4292	-2.8375	-2.4042	-2.6167	-2.7604	-2.4958	278.380	398.971	388.843	74.170	381.771	162.385	342.166	343.479	205.587	148.056	364.046	216.192	115.798	381.581	365.454	326.642	0.00077586	0.00039443	8.2794e-05	1293.1	4.0869e-06	5.4752e-06	1288.1	343.43	3.6263e-06	3.149e-06	391.23	128.22	111.61	37.855	2.9744e-06	47.059	0.00049882	0.00049214	0.0001387	1313.4	5.3801e-06	5.3893e-06	1306.2	350.18	5.4008e-06	5.369e-06	399.39	130.67	113.99	39.063	5.4155e-06	48.69	92.207	134.497	228.467	81.717	176.288	212.836	81.601	86.737	236.010	210.527	85.987	90.587	90.845	95.595	187.215	94.777	-8191	255	
8544.742	1	1	0	0	0.30461	0.14236	0.17228	0.45834	0.13373	0.20424	0.2428	0.20545	0.26505	0.1649	0.21871	0.090149	0.18918	0.3759	0.072097	0.19228	-2.3271	-2.4813	-2.4042	-2.8917	-2.475	-2.3646	-2.8625	-2.3625	-2.625	-2.5604	-2.5542	-2.9688	-2.4354	-2.6854	-2.7521	-2.3375	101.478	154.654	289.028	410.859	257.542	198.750	343.972	122.106	275.783	202.600	359.144	379.873	259.877	420.133	268.268	368.961	0.0010622	0.00052743	0.00011383	1294.1	9.179e-06	4.0243e-06	1289.2	342.63	3.0843e-06	3.5969e-06	391.4	128.29	111.72	38.149	5.7767e-06	47.4	0.00050295	0.00049553	0.00013538	1318	5.4695e-06	5.3997e-06	1308.6	350.31	5.3967e-06	5.4277e-06	400.29	131.06	114.24	39.265	5.3852e-06	48.971	93.214	108.628	211.341	81.707	223.463	213.976	81.486	86.625	230.235	224.347	85.616	90.554	90.856	95.839	175.238	94.684	-8191	255	
8544.838	1	1	0	0	0.0476	0.12586	0.073725	0.093976	0.18591	0.23341	0.21678	0.16018	0.14038	0.064754	0.15735	0.20358	0.3322	0.20461	0.082527	0.24793	-2.3187	-2.6479	-2.1688	-2.8542	-2.4271	-2.25	-2.8708	-2.5687	-2.575	-2.6729	-2.5438	-2.8396	-2.6479	-2.5042	-2.8583	-2.325	233.670	335.839	95.254	387.423	321.527	254.752	312.122	387.276	217.146	414.237	405.980	427.115	89.859	368.417	187.416	323.955	0.0010804	0.0008275	0.00014307	1307.1	8.5385e-06	3.5799e-06	1300.9	346.48	3.6313e-06	1.5987e-06	395.8	129.71	113.87	38.825	7.2221e-06	48.355	0.00050783	0.00049377	0.00013658	1327.5	5.3379e-06	5.356e-06	1323	353.34	5.3428e-06	5.3359e-06	404.58	132.58	115.96	39.962	5.1741e-06	49.827	95.813	228.121	195.238	81.903	220.832	201.604	81.758	86.744	209.178	234.926	85.693	90.325	91.016	95.631	182.005	94.661	-8191	255	
8544.910	1	1	0	0	0.36421	0.11971	0.38156	0.23728	0.12447	0.19023	0.1754	0.014405	0.11126	0.1983	0.086845	0.085133	0.28925	0.07777	0.21697	0.12452	-1.9292	-2.7146	-2.2396	-2.8667	-2.4667	-2.4813	-3.0458	-2.5104	-2.6458	-2.6583	-2.2812	-2.7438	-2.5396	-2.3667	-2.7542	-2.3667	405.832	373.482	332.313	390.849	78.525	107.843	340.345	207.407	380.920	352.353	196.866	72.814	373.193	98.633	303.359	352.522	0.0011021	0.00036928	0.00011296	1341.4	8.8035e-06	3.5601e-06	1331.1	352.94	3.3854e-06	5.523e-06	407.15	133.3	116.92	39.871	6.1824e-06	49.661	0.00049052	0.00047205	0.0001335	1357.9	5.1818e-06	5.1202e-06	1351.7	360.07	5.2469e-06	5.1786e-06	414.05	135.7	118.85	40.945	5.0503e-06	50.98	101.150	418.129	204.744	81.810	202.389	132.881	81.569	86.600	111.105	153.769	85.901	90.716	90.993	95.317	187.263	94.621	-8191	255	
8545.030	1	1	0	0	0.29136	0.032642	0.17217	0.42405	0.08801	0.048271	0.25052	0.36052	0.20247	0.27202	0.13452	0.13447	0.21832	0.10377	0.057833	0.22981	-2.1958	-2.8667	-2.3792	-2.8771	-2.6312	-2.4333	-2.9146	-2.6688	-2.6146	-2.7958	-2.4729	-2.6917	-2.4229	-2.3667	-2.6542	-2.6208	177.880	329.430	102.469	409.113	194.491	78.980	405.524	357.597	305.016	258.813	371.339	401.707	110.382	167.815	107.887	347.066	0.001014	0.00032897	0.00016915	1378.1	2.1073e-06	1.4923e-06	1379.6	368.38	4.2052e-06	4.7373e-06	417.84	137.39	119.15	40.431	8.0444e-06	50.319	0.00047479	0.00045044	0.00012585	1397.6	4.8878e-06	4.8694e-06	1395.4	374.73	4.8915e-06	4.9503e-06	426.34	139.96	121.51	41.648	5.03e-06	51.645	89.867	123.419	140.006	81.824	184.419	246.022	81.543	86.272	221.233	191.957	85.735	90.210	90.781	95.458	228.619	94.439	-8191	255	
8545.127	1	1	0	0	0.26129	0.10626	0.21919	0.30101	0.16338	0.13705	0.23454	0.11185	0.1424	0.11157	0.13383	0.15675	0.13157	0.20017	0.05933	0.44991	-1.8646	-2.6667	-2.2646	-2.7229	-2.7396	-2.3479	-2.7771	-2.7271	-2.3208	-2.8458	-2.4771	-2.8146	-2.8229	-2.3229	-2.4979	-2.7333	85.674	83.354	426.509	337.136	349.496	153.004	374.448	257.125	345.976	119.057	104.451	94.923	385.998	103.472	206.771	366.714	0.00089203	0.00027439	6.2186e-05	1395.4	2.7206e-06	4.9297e-06	1388.1	370.65	3.8887e-06	2.8038e-06	422.4	139.32	121.33	41.154	5.1088e-06	50.75	0.00047697	0.00045444	0.00012618	1415.4	4.998e-06	5.014e-06	1410	377.62	5.0416e-06	5.0255e-06	430.5	141.52	123.31	42.261	5.0563e-06	52.184	94.410	419.459	216.276	81.641	222.475	207.283	81.467	86.359	189.900	200.327	85.642	90.347	90.493	95.509	224.790	94.629	-8191	255	
8545.223	1	1	0	0	0.21855	0.15382	0.30574	0.077601	0.071095	0.16124	0.37577	0.091143	0.04671	0.17235	0.19461	0.19539	0.17268	0.48477	0.30059	0.308	-1.8604	-2.7	-2.4125	-2.8083	-2.7625	-2.225	-2.8271	-2.6021	-2.25	-2.8271	-2.5312	-2.4562	-2.7646	-2.4146	-2.5146	-2.6875	409.145	390.202	347.833	87.205	319.057	262.503	372.477	205.496	279.835	173.477	92.710	368.273	173.969	377.526	293.077	402.786	0.0010724	0.00018783	0.00020723	1417.8	3.6412e-06	1.6359e-06	1408.2	375.12	2.3309e-06	5.2602e-06	426.78	140.33	122.7	41.474	7.0311e-06	51.391	0.00047724	0.00045888	0.00012549	1437.7	5.0459e-06	4.9866e-06	1430.8	382.11	5.0824e-06	5.0389e-06	434.46	143.07	124.83	42.665	5.1627e-06	52.659	93.485	188.120	165.814	81.662	211.325	203.515	81.356	86.073	195.977	214.218	85.764	90.585	90.836	95.429	233.919	94.301	-8191	255	
8545.319	1	1	0	0	0.1299	0.027278	0.11207	0.37849	0.10904	0.074499	0.067876	0.36059	0.17076	0.022606	0.35867	0.4353	0.20631	0.11865	0.020994	0.078516	-1.7437	-2.7792	-2.3375	-2.6417	-2.7458	-2.3958	-2.9562	-2.75	-2.3333	-2.8	-2.6396	-2.5146	-2.925	-2.5146	-2.7271	-2.8542	94.378	327.232	94.412	349.214	148.863	191.154	224.019	85.125	112.933	146.796	372.722	382.505	87.570	334.936	118.897	122.314	0.00123	0.0005261	0.00010664	1425.2	3.5076e-06	6.3518e-06	1425	377.19	6.5506e-06	5.2934e-06	429.31	141.66	123.29	42.043	6.6821e-06	51.297	0.00048007	0.00046314	0.00012958	1448.8	5.0954e-06	5.0988e-06	1441.8	383.89	5.0862e-06	5.1213e-06	436.74	143.89	125.36	42.959	5.0856e-06	52.964	101.985	118.231	168.108	81.762	181.149	246.679	81.495	86.228	231.315	236.953	85.665	90.393	90.585	95.122	203.743	94.373	-8191	255	
8545.440	1	1	0	0	0.13517	0.19975	0.044495	0.16491	0.13681	0.076918	0.2204	0.073516	0.075947	0.09979	0.29281	0.34458	0.26324	0.091772	0.20906	0.043303	-1.8438	-2.7083	-2.4917	-2.775	-2.8396	-2.3125	-2.8104	-2.8125	-2.2375	-2.5938	-2.6063	-2.4104	-3.0312	-2.6312	-2.5729	-2.7812	126.274	223.980	158.511	370.996	393.106	295.257	346.462	265.992	211.106	206.542	419.131	387.588	393.186	159.785	257.336	106.067	0.0011119	0.00054758	0.00014752	1435.9	9.2401e-06	3.2796e-06	1430	379.16	6.9663e-06	5.7185e-06	432.7	142.09	124.17	41.837	4.5152e-06	51.884	0.00047674	0.00045984	0.00012777	1456.5	5.0309e-06	5.0014e-06	1449.5	385.01	5.072e-06	5.0147e-06	438.28	144.43	125.97	43.055	4.9587e-06	53.158	99.217	145.030	146.117	81.562	206.983	147.546	81.488	86.330	246.365	210.836	85.675	90.359	90.408	95.013	161.191	94.461	-8191	255	
8545.534	1	1	0	0	0.22241	0.1166	0.11003	0.23901	0.17194	0.17702	0.14961	0.18331	0.064407	0.099937	0.075183	0.061256	0.14626	0.10396	0.23095	0.13981	-1.7667	-2.6229	-2.4396	-2.5187	-2.7438	-2.3438	-2.6292	-2.9146	-2.2292	-2.5417	-2.6146	-2.4292	-2.8312	-2.675	-2.3458	-2.9667	267.169	419.560	330.096	363.815	87.981	322.932	289.206	191.247	160.786	249.758	388.055	400.254	383.953	409.632	316.358	316.414	0.0010721	0.00065542	6.3428e-05	1436.1	8.3321e-06	4.8277e-06	1437.3	378.02	6.3319e-06	3.5896e-06	432.05	142.59	124.52	42.403	3.1873e-06	52.369	0.00046639	0.00044962	0.00012649	1459.6	4.9552e-06	4.931e-06	1451.1	385.45	4.9326e-06	4.9728e-06	438.88	144.92	126.45	43.414	4.9059e-06	53.644	94.440	139.097	197.914	81.532	221.200	194.861	81.542	86.172	197.561	190.718	85.863	90.087	90.585	94.910	223.348	94.187	-8191	255	
8545.606	1	1	0	0	0.053338	0.19788	0.1428	0.18571	0.10052	0.19982	0.28881	0.23422	0.1265	0.17083	0.16157	0.18913	0.15466	0.45465	0.16467	0.24108	-1.8417	-2.7146	-2.5687	-2.4125	-2.7458	-2.375	-2.6271	-2.8375	-2.4271	-2.5542	-2.8063	-2.4146	-2.8688	-2.5958	-2.2958	-2.8854	368.191	119.999	113.336	402.762	253.157	335.999	422.319	375.852	149.867	224.701	353.836	271.242	407.430	415.161	202.235	415.321	0.0011097	0.00076172	6.2338e-05	1440	5.1139e-06	8.3006e-06	1437.4	381.42	6.5712e-06	3.6457e-06	435.7	143.84	126.25	42.885	5.8412e-06	53.123	0.00046174	0.00044175	0.00012206	1466.3	4.7445e-06	4.7305e-06	1459.9	388.67	4.7917e-06	4.7686e-06	442.36	146.79	128.27	44.027	4.7385e-06	54.378	93.579	169.597	117.146	81.725	265.061	190.525	81.413	86.252	232.324	242.419	85.837	90.133	90.602	94.962	223.919	94.208	-8191	255	
8545.703	1	1	0	0	0.39241	0.33513	0.19253	0.19748	0.15885	0.14898	0.24487	0.38861	0.14452	0.094969	0.067149	0.24251	0.28566	0.18702	0.23046	0.26566	-1.7812	-2.7479	-2.6937	-2.5375	-2.6813	-2.7812	-2.5812	-2.8354	-2.5042	-2.6083	-2.9042	-2.2854	-2.7833	-2.6813	-2.2771	-3.0042	272.305	378.635	116.807	72.279	199.370	349.300	375.627	400.746	75.307	222.942	216.984	352.472	395.244	384.104	200.006	398.382	0.001201	0.00043804	0.00012947	1453.7	5.1931e-06	4.2535e-06	1447	385.35	5.2572e-06	4.392e-06	437.01	144.09	126.2	42.827	2.1585e-06	52.588	0.00044765	0.00042517	0.00011792	1473.6	4.6534e-06	4.7163e-06	1465.5	390.89	4.7138e-06	4.7175e-06	442.97	146.75	127.98	43.899	4.6525e-06	53.976	91.899	157.246	167.952	81.580	237.203	182.947	81.398	86.204	245.947	206.851	85.526	89.817	90.661	95.049	220.900	94.373	-8191	255	
8545.822	1	1	0	0	0.02873	0.30084	0.053605	0.15575	0.052941	0.097934	0.11597	0.30717	0.10197	0.18414	0.26222	0.14337	0.15478	0.15071	0.21413	0.10863	-1.9583	-2.5958	-2.7896	-2.5625	-2.5229	-2.625	-2.525	-2.9854	-2.425	-2.4542	-2.95	-2.3417	-2.7729	-2.7042	-2.3021	-2.8917	315.740	304.324	259.354	375.602	373.028	265.019	83.111	393.615	219.296	326.723	228.695	83.669	375.498	353.922	355.667	265.869	0.0010993	0.00046954	0.00019584	1447.1	4.223e-06	5.0416e-06	1439.4	382.45	7.5439e-06	2.1041e-06	433.09	143.41	125.33	42.36	7.3788e-06	52.375	0.00045089	0.00043326	0.00012071	1470.7	4.7273e-06	4.7048e-06	1457.6	388.08	4.7437e-06	4.7296e-06	440.19	145.76	127.21	43.469	4.7204e-06	53.606	93.706	142.760	180.117	81.687	183.017	200.371	81.616	86.170	239.929	208.263	85.620	90.060	90.623	95.130	206.773	94.377	-8191	255	
