BOXY.EXE: ISS Imagent and Oximeter Data Acquisition Program Version 0.80
Ascii Record File

#ACQ INFORMATION
2  Detector Channels 
16  External MUX Channels 
1  Auxiliary Channels 
5000  Waveform (CCF) Frequency (Hz)
1  Waveforms Skipped 
30  Waveforms Averaged 
1  Cycles Averaged 
16  Acquisitions per Waveform 
10.0806  Updata Rate (Hz) 

#FILE INFORMATION
TRUE -- External MUX Channel results are PARSED.
FALSE -- AC DC and Phase are NOT grouped.
TRUE -- Companion Program Settings File CREATED.
FALSE -- AC data not excluded
FALSE -- DC data not excluded
FALSE -- Phase data not excluded
FALSE -- Auxillary Chn. data not excluded
Tab delimiters

#CALIBRATION STATE
TRUE -- Waveform Calibration Values APPLIED.


#AUX CALIBRATION VALUES
Val Type	aux-1	

Term	1.0000e+00	
Factor	0.0000e+00	


#WF CALIBRATION VALUES
A = Detector Channel
Val Type	A-AC1	A-AC2	A-AC3	A-AC4	A-AC5	A-AC6	A-AC7	A-AC8	A-AC9	A-AC10	A-AC11	A-AC12	A-AC13	A-AC14	A-AC15	A-AC16	A-DC1	A-DC2	A-DC3	A-DC4	A-DC5	A-DC6	A-DC7	A-DC8	A-DC9	A-DC10	A-DC11	A-DC12	A-DC13	A-DC14	A-DC15	A-DC16	A-Ph1	A-Ph2	A-Ph3	A-Ph4	A-Ph5	A-Ph6	A-Ph7	A-Ph8	A-Ph9	A-Ph10	A-Ph11	A-Ph12	A-Ph13	A-Ph14	A-Ph15	A-Ph16	

Term	0.00000e+00	0.00000e+00	0.00000e+00	0.00000e+00	0.00000e+00	0.00000e+00	0.00000e+00	0.00000e+00	0.00000e+00	0.00000e+00	0.00000e+00	0.00000e+00	0.00000e+00	0.00000e+00	0.00000e+00	0.00000e+00	0.00000e+00	0.00000e+00	0.00000e+00	0.00000e+00	0.00000e+00	0.00000e+00	0.00000e+00	0.00000e+00	0.00000e+00	0.00000e+00	0.00000e+00	0.00000e+00	0.00000e+00	0.00000e+00	0.00000e+00	0.00000e+00	0.00000e+00	0.00000e+00	0.00000e+00	0.00000e+00	0.00000e+00	0.00000e+00	0.00000e+00	0.00000e+00	0.00000e+00	0.00000e+00	0.00000e+00	0.00000e+00	0.00000e+00	0.00000e+00	0.00000e+00	0.00000e+00	
Factor	1.00000e+00	1.00000e+00	1.00000e+00	1.00000e+00	1.00000e+00	1.00000e+00	1.00000e+00	1.00000e+00	1.00000e+00	1.00000e+00	1.00000e+00	1.00000e+00	1.00000e+00	1.00000e+00	1.00000e+00	1.00000e+00	1.00000e+00	1.00000e+00	1.00000e+00	1.00000e+00	1.00000e+00	1.00000e+00	1.00000e+00	1.00000e+00	1.00000e+00	1.00000e+00	1.00000e+00	1.00000e+00	1.00000e+00	1.00000e+00	1.00000e+00	1.00000e+00	X	X	X	X	X	X	X	X	X	X	X	X	X	X	X	X	

B = Detector Channel
Val Type	B-AC1	B-AC2	B-AC3	B-AC4	B-AC5	B-AC6	B-AC7	B-AC8	B-AC9	B-AC10	B-AC11	B-AC12	B-AC13	B-AC14	B-AC15	B-AC16	B-DC1	B-DC2	B-DC3	B-DC4	B-DC5	B-DC6	B-DC7	B-DC8	B-DC9	B-DC10	B-DC11	B-DC12	B-DC13	B-DC14	B-DC15	B-DC16	B-Ph1	B-Ph2	B-Ph3	B-Ph4	B-Ph5	B-Ph6	B-Ph7	B-Ph8	B-Ph9	B-Ph10	B-Ph11	B-Ph12	B-Ph13	B-Ph14	B-Ph15	B-Ph16	

Term	0.00000e+00	0.00000e+00	0.00000e+00	0.00000e+00	0.00000e+00	0.00000e+00	0.00000e+00	0.00000e+00	0.00000e+00	0.00000e+00	0.00000e+00	0.00000e+00	0.00000e+00	0.00000e+00	0.00000e+00	0.00000e+00	0.00000e+00	0.00000e+00	0.00000e+00	0.00000e+00	0.00000e+00	0.00000e+00	0.00000e+00	0.00000e+00	0.00000e+00	0.00000e+00	0.00000e+00	0.00000e+00	0.00000e+00	0.00000e+00	0.00000e+00	0.00000e+00	-6.21754e+01	-1.29907e+02	-1.24308e+02	-1.80762e+02	-5.26411e+01	-6.17388e+01	-1.54848e+02	-1.62015e+02	-4.22166e+01	-7.04166e+01	-1.70366e+02	-1.69164e+02	-1.78724e+02	-1.75805e+02	-5.78430e+01	-1.48156e+02	
Factor	1.71954e-05	1.67617e-04	4.33893e-05	1.54313e-01	1.43465e-06	1.59009e-06	1.64624e-01	6.03797e-02	1.16268e-06	1.56915e-06	8.76266e-02	2.82588e-02	2.37562e-02	8.66378e-03	1.59200e-06	1.25101e-02	5.98073e-06	7.73180e-06	2.16888e-06	7.96205e-02	8.16941e-08	8.55453e-08	7.98241e-02	3.12165e-02	8.23015e-08	8.55736e-08	4.39271e-02	1.42219e-02	1.24740e-02	4.52282e-03	8.38410e-08	6.30525e-03	X	X	X	X	X	X	X	X	X	X	X	X	X	X	X	X	



#DISTANCE SETTINGS
A = Detector Channel
A-1	A-2	A-3	A-4	A-5	A-6	A-7	A-8	A-9	A-10	A-11	A-12	A-13	A-14	A-15	A-16	

2.5000e+00	3.0000e+00	2.5000e+00	3.0000e+00	2.0000e+00	3.0000e+00	1.5000e+00	3.0000e+00	3.0000e+00	3.0000e+00	3.0000e+00	3.0000e+00	3.0000e+00	3.0000e+00	1.5000e+00	3.0000e+00	

B = Detector Channel
B-1	B-2	B-3	B-4	B-5	B-6	B-7	B-8	B-9	B-10	B-11	B-12	B-13	B-14	B-15	B-16	

1.0000e+01	1.0000e+01	1.0000e+01	1.4400e+00	1.0000e+01	1.0000e+01	1.5100e+00	1.9400e+00	1.0000e+01	1.0000e+01	1.9900e+00	2.4900e+00	2.4100e+00	2.9000e+00	1.0000e+01	2.9800e+00	




#DATA BEGINS
time	group	step	mark	flag	A-AC1	A-AC2	A-AC3	A-AC4	A-AC5	A-AC6	A-AC7	A-AC8	A-AC9	A-AC10	A-AC11	A-AC12	A-AC13	A-AC14	A-AC15	A-AC16	A-DC1	A-DC2	A-DC3	A-DC4	A-DC5	A-DC6	A-DC7	A-DC8	A-DC9	A-DC10	A-DC11	A-DC12	A-DC13	A-DC14	A-DC15	A-DC16	A-Ph1	A-Ph2	A-Ph3	A-Ph4	A-Ph5	A-Ph6	A-Ph7	A-Ph8	A-Ph9	A-Ph10	A-Ph11	A-Ph12	A-Ph13	A-Ph14	A-Ph15	A-Ph16	B-AC1	B-AC2	B-AC3	B-AC4	B-AC5	B-AC6	B-AC7	B-AC8	B-AC9	B-AC10	B-AC11	B-AC12	B-AC13	B-AC14	B-AC15	B-AC16	B-DC1	B-DC2	B-DC3	B-DC4	B-DC5	B-DC6	B-DC7	B-DC8	B-DC9	B-DC10	B-DC11	B-DC12	B-DC13	B-DC14	B-DC15	B-DC16	B-Ph1	B-Ph2	B-Ph3	B-Ph4	B-Ph5	B-Ph6	B-Ph7	B-Ph8	B-Ph9	B-Ph10	B-Ph11	B-Ph12	B-Ph13	B-Ph14	B-Ph15	B-Ph16	aux-1	digaux	

1581.474	1	1	0	768	0.2561	0.10348	0.050635	0.037285	0.17722	0.11196	0.18723	0.14343	0.018136	0.10942	0.18707	0.09872	0.24542	0.057454	0.18176	0.22279	-1.6708	-2.625	-2.5167	-2.3917	-2.7167	-2.3729	-2.7104	-2.3792	-2.2354	-2.4396	-2.4708	-2.5438	-2.6396	-2.3125	-2.4292	-2.6437	188.551	75.167	150.375	90.566	138.892	421.262	316.188	191.444	349.347	208.099	99.506	303.128	93.974	103.245	193.211	110.314	0.00022281	1.7886e-05	3.3407e-05	308.33	3.7493e-06	2.9183e-06	442.28	115.79	1.5844e-06	1.5202e-06	178.01	75.051	40.02	13.932	3.7743e-06	29.842	0.00028354	0.00028772	7.4347e-05	294.26	3.1251e-06	2.9146e-06	415.93	110.19	3.0647e-06	3.0363e-06	170.01	71.376	38.444	13.627	3.0186e-06	28.627	234.542	362.877	138.136	84.152	300.966	241.750	82.968	89.831	271.518	181.241	86.490	91.825	95.241	101.306	276.496	96.132	-8191	255	
1581.570	1	1	0	0	0.27164	0.17897	0.061905	0.046396	0.20857	0.087223	0.18426	0.17843	0.25036	0.23442	0.34828	0.023805	0.067978	0.29604	0.2399	0.031333	-1.7729	-2.4979	-2.3542	-2.1792	-2.4542	-2.4083	-2.3979	-2.4583	-2.1063	-2.4479	-2.5938	-2.3292	-2.5333	-2.4042	-2.1896	-2.7833	155.304	219.001	218.783	390.878	383.235	362.637	313.052	391.266	268.643	92.097	350.001	372.691	431.188	135.716	92.344	321.081	0.00026217	0.00034749	0.00010405	308.83	3.5667e-06	1.2833e-06	443.74	115.69	1.8827e-06	3.2142e-06	178.63	74.934	39.689	14.142	1.5702e-06	29.896	0.00027866	0.00028579	7.6453e-05	294.77	2.9556e-06	2.9854e-06	416.77	110.62	3.0824e-06	2.9926e-06	170.99	71.377	38.447	13.614	3.1196e-06	28.727	236.481	115.101	155.883	84.681	232.454	171.434	82.307	89.685	209.669	242.254	86.996	91.670	95.861	101.979	236.695	96.119	-8191	255	
1581.666	1	1	0	0	0.15863	0.065434	0.047882	0.17795	0.20916	0.15176	0.11512	0.1776	0.10759	0.046013	0.20563	0.48162	0.32286	0.1354	0.084627	0.30516	-1.6792	-2.3417	-2.4396	-2.0646	-2.5417	-2.2604	-2.2687	-2.5938	-2.3542	-2.5417	-2.7208	-2.3417	-2.6167	-2.2833	-2.0979	-2.6354	240.048	229.939	312.839	180.866	348.640	313.612	401.015	188.025	131.839	109.456	423.562	403.882	353.747	145.922	88.285	373.651	0.00024277	0.00041312	7.7672e-05	312.23	2.0342e-06	4.9247e-06	443.46	115.07	3.8164e-06	5.4507e-06	178.59	75.165	39.832	13.765	2.0264e-06	29.298	0.00027903	0.00028432	7.4058e-05	295.22	2.8993e-06	2.7751e-06	416.88	109.78	3.0007e-06	2.9598e-06	170.43	71.202	38.281	13.496	2.9971e-06	28.318	229.057	150.827	119.953	84.422	290.064	210.212	82.405	89.635	245.982	198.599	86.346	91.444	95.779	102.256	269.100	96.238	-8191	255	
1581.762	1	1	0	0	0.18764	0.080028	0.083402	0.18178	0.11977	0.054238	0.16187	0.11604	0.19796	0.21117	0.20426	0.12153	0.19465	0.039228	0.061666	0.39496	-1.6708	-2.4667	-2.5708	-2.1271	-2.6875	-2.3979	-2.4458	-2.7333	-2.2417	-2.2562	-2.6437	-2.2604	-2.5521	-2.3708	-2.2208	-2.5917	396.806	296.346	406.456	169.481	355.450	162.740	309.631	358.860	124.433	378.976	114.806	160.190	111.139	171.510	315.687	242.858	0.00025137	0.00044378	7.3274e-05	307.31	1.0708e-06	1.2786e-06	439.21	115.4	1.0693e-06	1.022e-06	179.47	74.265	39.947	13.85	2.5368e-06	29.396	0.00027331	0.0002747	7.4908e-05	292.8	2.8816e-06	2.9355e-06	415.72	109.74	2.8379e-06	2.9954e-06	169.23	70.862	38.24	13.477	3.0668e-06	28.316	232.385	158.235	173.874	84.094	231.835	287.423	82.366	89.893	301.915	205.149	86.805	91.887	95.818	101.768	148.527	96.675	-8191	255	
1581.858	1	1	0	0	0.58757	0.18071	0.33209	0.24797	0.044479	0.14959	0.24651	0.24476	0.10898	0.2901	0.11756	0.18096	0.077712	0.29137	0.18415	0.25987	-1.9521	-2.5	-2.775	-2.1875	-2.4396	-2.5271	-2.5021	-2.7771	-2.5	-2.525	-2.5938	-2.3375	-2.5729	-2.4938	-2.2125	-2.6896	372.013	117.907	106.578	178.578	115.727	161.604	272.904	384.863	410.528	277.901	410.569	361.204	405.197	138.339	190.911	395.604	0.00025059	0.00067756	5.3985e-05	306.11	2.02e-06	1.8749e-06	440.53	115.37	1.2702e-06	1.4278e-06	177.35	74.563	39.722	13.86	1.7329e-06	29.502	0.00026814	0.00026694	7.5789e-05	292.47	2.9943e-06	2.8554e-06	415.72	109.83	2.8144e-06	2.8626e-06	169.66	71.071	38.273	13.481	2.8686e-06	28.417	228.411	184.829	98.064	84.439	264.234	243.985	82.405	89.777	230.537	223.476	86.467	91.432	95.622	101.823	236.342	96.521	-8191	255	
1581.955	1	1	0	0	0.19526	0.46284	0.090219	0.32809	0.26524	0.40403	0.10554	0.22706	0.36757	0.17163	0.29348	0.17806	0.19364	0.19948	0.09421	0.083427	-1.8208	-2.2938	-2.7396	-2.2583	-2.5146	-2.75	-2.1542	-2.5896	-2.3646	-2.3771	-2.6583	-2.3729	-2.5125	-2.4458	-2.1937	-2.5083	106.708	112.745	228.895	274.009	143.531	74.202	94.620	73.233	89.613	262.381	101.482	377.321	109.297	129.456	324.178	262.773	0.00025006	0.00043505	7.1026e-05	309.61	4.5792e-06	3.2299e-06	441.15	115.13	1.6129e-06	1.7246e-06	179.18	74.868	39.637	13.912	7.9268e-07	29.714	0.00026763	0.0002738	7.5319e-05	292.91	2.8787e-06	2.875e-06	415.97	110.09	2.8601e-06	3.0273e-06	170.34	71.263	38.212	13.514	2.9929e-06	28.469	223.667	140.634	175.675	84.394	189.181	214.361	82.432	90.055	237.820	93.774	86.411	91.856	95.800	101.488	260.372	96.383	-8191	255	
1582.075	1	1	0	0	0.25466	0.15869	0.24003	0.12128	0.29915	0.047375	0.13474	0.13605	0.034207	0.11429	0.087452	0.076359	0.35814	0.098827	0.28766	0.20843	-1.9188	-2.2833	-2.625	-2.1792	-2.3958	-2.6292	-2.0896	-2.7229	-2.5854	-2.3312	-2.7833	-2.3521	-2.4125	-2.8979	-2.175	-2.3812	275.032	88.938	384.698	329.546	311.303	415.443	348.080	412.798	285.901	233.119	126.838	356.417	128.212	356.914	230.681	368.993	0.00026347	0.00029078	5.7537e-05	307.87	3.2921e-06	4.332e-06	442.12	114.69	1.2686e-06	5.1322e-06	180.82	74.72	39.583	13.875	1.9824e-06	29.613	0.00027035	0.00027686	7.5929e-05	294.03	2.9621e-06	2.8914e-06	417.51	110	2.8852e-06	3.0507e-06	170.98	71.453	38.226	13.498	2.9942e-06	28.52	236.618	183.382	91.727	84.150	262.100	266.618	82.422	89.515	277.098	188.681	86.269	91.497	95.652	101.710	241.096	96.952	-8191	255	
1582.170	1	1	0	0	0.15082	0.13227	0.19158	0.24901	0.071872	0.15179	0.21842	0.42577	0.063373	0.14085	0.085531	0.090059	0.15001	0.19839	0.037398	0.091437	-2.0563	-2.0729	-2.4375	-2.4	-2.4021	-2.675	-2.1292	-2.5062	-2.4	-2.4062	-2.6479	-2.0917	-2.2521	-2.5979	-2.1521	-2.5187	295.842	339.853	369.004	396.795	149.738	91.481	160.506	205.161	393.156	158.333	210.286	89.994	145.210	296.815	305.535	386.998	0.00024217	0.00058041	6.4613e-05	308.7	2.3896e-06	3.1854e-07	441.47	114.23	3.5499e-06	2.8918e-06	179.6	74.424	39.443	13.654	3.8866e-06	29.419	0.00027095	0.00027416	7.5965e-05	293.16	2.8741e-06	2.9928e-06	415.94	109.4	2.962e-06	2.9803e-06	170.51	70.779	37.961	13.352	2.9879e-06	28.34	231.853	172.768	232.660	84.380	236.517	164.603	82.495	90.049	299.878	239.729	86.003	91.616	96.044	101.659	230.525	95.830	-8191	255	
1582.267	1	1	0	0	0.10117	0.2076	0.090476	0.17802	0.21676	0.038342	0.057391	0.18958	0.16172	0.13805	0.15245	0.24848	0.069868	0.072505	0.060395	0.012014	-2.0021	-2.2667	-2.5833	-2.5812	-2.3563	-2.8396	-2.3896	-2.5292	-2.4083	-2.2687	-2.6437	-2.5438	-2.2188	-2.4896	-2.1229	-2.4521	239.086	283.475	183.355	396.815	239.820	109.753	131.971	332.578	420.157	363.332	426.432	410.467	384.735	244.260	262.859	331.322	0.00023931	0.00057676	0.00010289	307.24	4.7101e-06	2.3401e-06	439.62	116.31	2.9999e-06	2.5771e-06	180.17	74.855	39.657	13.528	1.9983e-07	29.131	0.00027675	0.00027147	7.7836e-05	291.19	2.9834e-06	2.993e-06	414.02	110.35	2.8543e-06	2.9068e-06	171.76	71.179	38.192	13.286	2.9647e-06	28.218	232.575	121.141	143.827	84.572	227.715	184.986	82.443	90.339	219.491	216.690	86.020	91.318	95.749	101.526	279.488	96.042	-8191	255	
1582.362	1	1	0	0	0.086723	0.087968	0.027194	0.064487	0.3346	0.18551	0.16029	0.3799	0.069935	0.21431	0.16604	0.14616	0.15647	0.024598	0.30884	0.082847	-2.225	-2.0896	-2.5021	-2.5187	-2.3271	-2.7104	-2.2042	-2.2208	-2.5979	-2.2062	-2.4167	-2.4417	-2.1479	-2.6708	-2.2854	-2.4208	306.042	429.530	278.852	143.896	355.991	333.916	416.971	316.391	184.397	202.209	324.354	82.307	201.822	429.091	241.078	308.266	0.0002554	9.468e-05	0.00011141	303.67	3.1935e-06	1.0417e-06	438.54	115.7	8.7497e-07	3.6503e-06	181.15	74.598	39.675	13.684	2.8935e-06	29.493	0.00027354	0.00028543	7.418e-05	289.63	2.9672e-06	2.9349e-06	414.88	110.66	3.0578e-06	2.9632e-06	171.62	71.062	38.201	13.354	2.9105e-06	28.374	236.931	141.460	184.816	84.398	207.459	306.141	82.484	89.571	426.059	211.164	86.342	91.723	96.291	101.644	260.317	96.346	-8191	255	
1582.458	1	1	0	0	0.088455	0.18786	0.20716	0.41937	0.27007	0.12735	0.19868	0.064696	0.063265	0.16564	0.10729	0.24797	0.20334	0.2153	0.15505	0.26365	-2.1917	-2.2354	-2.5646	-2.3667	-2.2583	-2.7854	-2.6771	-2.5271	-2.5854	-2.4188	-2.4854	-2.7125	-2.05	-2.6292	-2.4646	-2.4062	232.107	344.482	401.326	127.362	414.816	408.704	299.464	189.446	219.252	143.652	349.903	84.773	107.946	394.308	81.436	356.513	0.00025142	0.00024607	0.00010701	305.5	3.5663e-06	1.5565e-06	437.96	117.11	2.1067e-06	1.1788e-06	182.07	75.38	39.452	13.682	6.6173e-07	29.452	0.00027626	0.00027437	7.5219e-05	290.79	2.8569e-06	3.0397e-06	415.44	111.66	3.0649e-06	2.9723e-06	172.97	71.355	38.258	13.363	2.9226e-06	28.526	231.405	175.762	199.013	84.328	207.182	243.888	82.539	89.967	259.149	227.723	86.309	91.326	96.235	102.115	153.423	96.499	-8191	255	
1582.554	1	1	0	0	0.16824	0.011671	0.21311	0.097366	0.026725	0.12575	0.20003	0.29311	0.12122	0.15359	0.3327	0.25229	0.34238	0.23488	0.053814	0.24987	-2.15	-2.2062	-2.2167	-2.7083	-2.1688	-2.7271	-2.4792	-2.1792	-2.7854	-2.25	-2.4146	-2.5979	-2.1667	-2.3958	-2.5104	-2.4437	290.796	188.750	331.722	423.074	121.651	78.634	79.176	415.864	138.525	79.696	336.048	366.546	400.971	87.236	417.034	145.600	0.00023502	3.5664e-05	0.00013156	303.46	2.4077e-06	4.8378e-06	440.5	116.84	1.0917e-06	3.0697e-06	182.39	74.481	39.646	13.58	2.8577e-06	29.394	0.00027361	0.00026615	7.5531e-05	290.23	2.9583e-06	3.0017e-06	415.27	111.48	2.999e-06	2.9555e-06	173.25	71.146	38.237	13.265	2.9695e-06	28.272	228.040	113.491	137.213	84.934	211.149	236.379	82.303	89.845	187.057	218.651	86.311	91.426	95.569	101.407	175.364	96.024	-8191	255	
1582.650	1	1	0	0	0.34372	0.1843	0.11961	0.1681	0.28978	0.18676	0.18256	0.25458	0.17807	0.23018	0.11875	0.24036	0.096539	0.070555	0.05369	0.16382	-2.1396	-2.1521	-2.4083	-2.6271	-2.3875	-2.5083	-2.5875	-2.2167	-2.4833	-2.2812	-2.3292	-2.6063	-2.2188	-2.4167	-2.5062	-2.2938	280.205	428.231	408.238	356.007	330.217	276.850	112.763	92.579	336.092	250.059	153.527	389.222	202.060	85.046	176.183	171.766	0.00025804	0.00020308	4.8751e-05	303.68	4.8531e-06	3.535e-06	441.11	115.75	2.3409e-06	1.2142e-06	182.25	74.185	40.038	13.581	3.4105e-06	29.441	0.00028167	0.00026217	7.7424e-05	289.72	2.9328e-06	3.1511e-06	415.94	111.06	3.0541e-06	3.0168e-06	172.26	71.086	38.193	13.358	2.9498e-06	28.265	236.934	156.261	180.657	84.665	249.625	207.896	82.578	90.168	188.611	129.276	86.458	91.029	95.961	101.491	207.525	96.404	-8191	255	
1582.771	1	1	0	0	0.26565	0.24441	0.12234	0.17952	0.19848	0.0744	0.08291	0.21359	0.056633	0.081222	0.11926	0.15542	0.1543	0.14868	0.15156	0.043201	-2.3229	-2.2708	-2.4208	-2.6667	-2.075	-2.3354	-2.525	-2.1729	-2.5521	-2.3521	-2.3792	-2.6167	-2.2708	-2.5062	-2.3729	-2.1937	226.615	317.441	407.697	406.908	349.478	172.728	86.013	294.863	385.618	272.048	178.443	409.213	315.307	123.632	155.683	413.947	0.00025855	0.00045285	0.00011415	305.06	2.3716e-06	2.8302e-06	438.05	116.58	3.0495e-06	3.9525e-06	180.72	74.866	39.789	13.76	2.9026e-06	29.485	0.00027329	0.00026372	7.8175e-05	291.06	2.8479e-06	2.8485e-06	414.56	110.54	2.9641e-06	2.882e-06	171.29	70.98	38.177	13.397	3.0469e-06	28.394	235.557	185.208	176.560	84.431	198.612	249.442	82.571	89.822	259.828	251.832	86.104	91.221	95.888	101.518	261.927	96.435	-8191	255	
1582.867	1	1	0	0	0.091268	0.084007	0.29228	0.27142	0.29632	0.25835	0.26408	0.023048	0.15735	0.10158	0.26285	0.27217	0.18252	0.078357	0.30418	0.2028	-2.1437	-2.2229	-2.2896	-2.5958	-2.225	-2.4104	-2.6542	-2.1312	-2.65	-2.5062	-2.3667	-2.5771	-2.3875	-2.3604	-2.5354	-2.3417	243.461	191.147	104.509	133.168	342.912	89.624	168.273	140.907	364.980	111.283	289.173	362.372	77.942	89.209	312.251	370.907	0.00022733	0.00019861	8.3626e-05	307.27	3.3834e-06	2.1981e-06	441.52	115.87	3.1908e-06	2.1733e-06	179.81	74.618	39.942	13.96	3.4558e-06	29.709	0.00027737	0.00026454	7.7768e-05	292.28	2.9127e-06	3.014e-06	417.25	110.56	2.8471e-06	2.9025e-06	170.48	71.081	38.255	13.551	3.0667e-06	28.523	225.946	194.442	202.740	84.122	249.953	203.386	82.307	89.826	254.864	253.309	86.814	91.741	96.247	102.437	224.911	96.244	-8191	255	
1582.963	1	1	0	0	0.041521	0.11475	0.15019	0.35576	0.19082	0.18708	0.046918	0.20086	0.065694	0.29377	0.10401	0.15126	0.2466	0.28459	0.014588	0.12393	-2.0812	-2.2917	-2.2146	-2.5604	-2.3396	-2.1312	-2.8229	-2.1854	-2.3271	-2.5833	-2.4958	-2.4854	-2.6312	-2.3354	-2.6458	-2.2792	413.565	193.589	147.269	378.491	182.270	300.117	84.323	139.061	310.429	104.590	95.787	275.518	209.861	370.721	177.794	102.597	0.00023944	0.00037635	7.8508e-05	308.14	3.2216e-06	3.3827e-06	444.71	117.01	4.3301e-06	1.3469e-06	181.36	74.386	40.034	13.903	3.4276e-06	29.969	0.00028275	0.00027084	7.3317e-05	292.92	2.819e-06	2.9554e-06	418.11	110.75	2.9488e-06	3.004e-06	172.52	71.379	38.362	13.596	2.954e-06	28.773	235.976	164.809	131.397	84.787	258.155	209.049	82.551	89.965	272.550	191.693	86.425	91.691	95.913	101.953	232.883	96.202	-8191	255	
1583.035	1	1	0	0	0.047858	0.21891	0.1484	0.22398	0.29666	0.22577	0.20445	0.07517	0.22609	0.21689	0.12002	0.10959	0.064265	0.1532	0.17861	0.22506	-2	-2.4292	-2.1562	-2.5833	-2.4667	-2.3604	-2.6896	-2.2	-2.4	-2.625	-2.2854	-2.7708	-2.4	-2.2271	-2.7604	-2.4437	354.169	133.791	316.960	312.919	292.597	180.623	375.242	291.027	136.015	257.458	242.166	96.442	370.950	333.907	378.053	420.162	0.00025678	0.00041084	6.4508e-06	309.42	4.1345e-06	1.223e-06	442.97	116.16	1.7905e-06	2.3633e-06	179.53	74.311	39.883	13.664	2.3667e-06	29.532	0.00027661	0.00028612	7.5653e-05	292.71	2.868e-06	3.0185e-06	417.29	110.15	2.9359e-06	3.0118e-06	170.77	70.989	38.175	13.395	3.0635e-06	28.33	226.793	130.691	210.575	84.621	244.173	204.501	82.407	90.482	238.896	173.838	86.673	91.823	96.298	101.551	206.993	96.342	-8191	255	
1583.154	1	1	0	0	0.17524	0.14575	0.39138	0.33616	0.041321	0.29934	0.18058	0.23774	0.15398	0.022631	0.23593	0.3294	0.3257	0.1737	0.062466	0.35481	-1.9271	-2.4125	-2.15	-2.5896	-2.3875	-2.2833	-2.6125	-2.3042	-2.2771	-2.675	-2.2083	-2.7604	-2.3708	-2.2313	-2.625	-2.3479	385.128	250.428	258.619	134.974	355.471	127.311	405.224	121.140	230.712	125.257	412.815	352.241	406.883	81.033	405.118	115.276	0.00023373	0.00041895	9.7413e-05	307.55	3.7169e-06	1.8944e-06	437.22	115.2	1.8313e-06	3.0279e-06	180.54	74.071	39.681	13.757	5.065e-06	29.57	0.00027858	0.00027578	7.6146e-05	292.34	2.9325e-06	2.9556e-06	414.74	110.34	2.8202e-06	3.1981e-06	171.12	70.848	38.174	13.475	2.9973e-06	28.297	226.891	130.209	242.238	84.261	260.573	166.530	82.734	90.106	256.172	199.631	86.026	91.686	95.929	101.588	243.094	96.017	-8191	255	
