BOXY.EXE: ISS Imagent and Oximeter Data Acquisition Program Version 0.80
Ascii Record File

#ACQ INFORMATION
2  Detector Channels 
16  External MUX Channels 
1  Auxiliary Channels 
5000  Waveform (CCF) Frequency (Hz)
1  Waveforms Skipped 
30  Waveforms Averaged 
1  Cycles Averaged 
16  Acquisitions per Waveform 
10.0806  Updata Rate (Hz) 

#FILE INFORMATION
TRUE -- External MUX Channel results are PARSED.
FALSE -- AC DC and Phase are NOT grouped.
TRUE -- Companion Program Settings File CREATED.
FALSE -- AC data not excluded
FALSE -- DC data not excluded
FALSE -- Phase data not excluded
FALSE -- Auxillary Chn. data not excluded
Tab delimiters

#CALIBRATION STATE
TRUE -- Waveform Calibration Values APPLIED.


#AUX CALIBRATION VALUES
Val Type	aux-1	

Term	1.0000e+00	
Factor	0.0000e+00	


#WF CALIBRATION VALUES
A = Detector Channel
Val Type	A-AC1	A-AC2	A-AC3	A-AC4	A-AC5	A-AC6	A-AC7	A-AC8	A-AC9	A-AC10	A-AC11	A-AC12	A-AC13	A-AC14	A-AC15	A-AC16	A-DC1	A-DC2	A-DC3	A-DC4	A-DC5	A-DC6	A-DC7	A-DC8	A-DC9	A-DC10	A-DC11	A-DC12	A-DC13	A-DC14	A-DC15	A-DC16	A-Ph1	A-Ph2	A-Ph3	A-Ph4	A-Ph5	A-Ph6	A-Ph7	A-Ph8	A-Ph9	A-Ph10	A-Ph11	A-Ph12	A-Ph13	A-Ph14	A-Ph15	A-Ph16	

Term	0.00000e+00	0.00000e+00	0.00000e+00	0.00000e+00	0.00000e+00	0.00000e+00	0.00000e+00	0.00000e+00	0.00000e+00	0.00000e+00	0.00000e+00	0.00000e+00	0.00000e+00	0.00000e+00	0.00000e+00	0.00000e+00	0.00000e+00	0.00000e+00	0.00000e+00	0.00000e+00	0.00000e+00	0.00000e+00	0.00000e+00	0.00000e+00	0.00000e+00	0.00000e+00	0.00000e+00	0.00000e+00	0.00000e+00	0.00000e+00	0.00000e+00	0.00000e+00	0.00000e+00	0.00000e+00	0.00000e+00	0.00000e+00	0.00000e+00	0.00000e+00	0.00000e+00	0.00000e+00	0.00000e+00	0.00000e+00	0.00000e+00	0.00000e+00	0.00000e+00	0.00000e+00	0.00000e+00	0.00000e+00	
Factor	1.00000e+00	1.00000e+00	1.00000e+00	1.00000e+00	1.00000e+00	1.00000e+00	1.00000e+00	1.00000e+00	1.00000e+00	1.00000e+00	1.00000e+00	1.00000e+00	1.00000e+00	1.00000e+00	1.00000e+00	1.00000e+00	1.00000e+00	1.00000e+00	1.00000e+00	1.00000e+00	1.00000e+00	1.00000e+00	1.00000e+00	1.00000e+00	1.00000e+00	1.00000e+00	1.00000e+00	1.00000e+00	1.00000e+00	1.00000e+00	1.00000e+00	1.00000e+00	X	X	X	X	X	X	X	X	X	X	X	X	X	X	X	X	

B = Detector Channel
Val Type	B-AC1	B-AC2	B-AC3	B-AC4	B-AC5	B-AC6	B-AC7	B-AC8	B-AC9	B-AC10	B-AC11	B-AC12	B-AC13	B-AC14	B-AC15	B-AC16	B-DC1	B-DC2	B-DC3	B-DC4	B-DC5	B-DC6	B-DC7	B-DC8	B-DC9	B-DC10	B-DC11	B-DC12	B-DC13	B-DC14	B-DC15	B-DC16	B-Ph1	B-Ph2	B-Ph3	B-Ph4	B-Ph5	B-Ph6	B-Ph7	B-Ph8	B-Ph9	B-Ph10	B-Ph11	B-Ph12	B-Ph13	B-Ph14	B-Ph15	B-Ph16	

Term	0.00000e+00	0.00000e+00	0.00000e+00	0.00000e+00	0.00000e+00	0.00000e+00	0.00000e+00	0.00000e+00	0.00000e+00	0.00000e+00	0.00000e+00	0.00000e+00	0.00000e+00	0.00000e+00	0.00000e+00	0.00000e+00	0.00000e+00	0.00000e+00	0.00000e+00	0.00000e+00	0.00000e+00	0.00000e+00	0.00000e+00	0.00000e+00	0.00000e+00	0.00000e+00	0.00000e+00	0.00000e+00	0.00000e+00	0.00000e+00	0.00000e+00	0.00000e+00	-1.98888e+02	-1.41666e+02	-1.28181e+02	-1.83212e+02	-8.92266e+01	-7.95993e+01	-1.60609e+02	-1.62015e+02	-7.67401e+01	-7.98675e+01	-1.72562e+02	-1.72621e+02	-1.82837e+02	-1.77955e+02	-8.59113e+01	-1.50807e+02	
Factor	3.77429e-05	1.24987e-04	3.22763e-05	1.53048e-01	1.12836e-06	1.18453e-06	1.66555e-01	5.17580e-02	1.34229e-06	1.30404e-06	7.96663e-02	2.59757e-02	2.43854e-02	7.97063e-03	1.19627e-06	1.14541e-02	1.84811e-06	1.93964e-06	5.39761e-07	8.01032e-02	2.10885e-08	2.12456e-08	8.19187e-02	2.70715e-02	2.11425e-08	2.13452e-08	4.02592e-02	1.31275e-02	1.28064e-02	4.18483e-03	2.12242e-08	5.82685e-03	X	X	X	X	X	X	X	X	X	X	X	X	X	X	X	X	



#DISTANCE SETTINGS
A = Detector Channel
A-1	A-2	A-3	A-4	A-5	A-6	A-7	A-8	A-9	A-10	A-11	A-12	A-13	A-14	A-15	A-16	

2.5000e+00	3.0000e+00	2.5000e+00	3.0000e+00	2.0000e+00	3.0000e+00	1.5000e+00	3.0000e+00	3.0000e+00	3.0000e+00	3.0000e+00	3.0000e+00	3.0000e+00	3.0000e+00	1.5000e+00	3.0000e+00	

B = Detector Channel
B-1	B-2	B-3	B-4	B-5	B-6	B-7	B-8	B-9	B-10	B-11	B-12	B-13	B-14	B-15	B-16	

1.0000e+01	1.0000e+01	1.0000e+01	1.4400e+00	1.0000e+01	1.0000e+01	1.5100e+00	1.9400e+00	1.0000e+01	1.0000e+01	1.9900e+00	2.4900e+00	2.4100e+00	2.9000e+00	1.0000e+01	2.9800e+00	




#DATA BEGINS
time	group	step	mark	flag	A-AC1	A-AC2	A-AC3	A-AC4	A-AC5	A-AC6	A-AC7	A-AC8	A-AC9	A-AC10	A-AC11	A-AC12	A-AC13	A-AC14	A-AC15	A-AC16	A-DC1	A-DC2	A-DC3	A-DC4	A-DC5	A-DC6	A-DC7	A-DC8	A-DC9	A-DC10	A-DC11	A-DC12	A-DC13	A-DC14	A-DC15	A-DC16	A-Ph1	A-Ph2	A-Ph3	A-Ph4	A-Ph5	A-Ph6	A-Ph7	A-Ph8	A-Ph9	A-Ph10	A-Ph11	A-Ph12	A-Ph13	A-Ph14	A-Ph15	A-Ph16	B-AC1	B-AC2	B-AC3	B-AC4	B-AC5	B-AC6	B-AC7	B-AC8	B-AC9	B-AC10	B-AC11	B-AC12	B-AC13	B-AC14	B-AC15	B-AC16	B-DC1	B-DC2	B-DC3	B-DC4	B-DC5	B-DC6	B-DC7	B-DC8	B-DC9	B-DC10	B-DC11	B-DC12	B-DC13	B-DC14	B-DC15	B-DC16	B-Ph1	B-Ph2	B-Ph3	B-Ph4	B-Ph5	B-Ph6	B-Ph7	B-Ph8	B-Ph9	B-Ph10	B-Ph11	B-Ph12	B-Ph13	B-Ph14	B-Ph15	B-Ph16	aux-1	digaux	

8562.701	1	1	0	256	0.14162	0.15116	0.18865	0.11697	0.32357	0.12595	0.43965	0.21368	0.16253	0.15125	0.18686	0.42227	0.10173	0.050209	0.14325	0.31041	-2.275	-2.2958	-2.5583	-2.6104	-2.125	-2.9375	-2.575	-2.5083	-2.6729	-2.2333	-2.6354	-2.6396	-2.5729	-2.6729	-2.6104	-2.4521	95.027	221.338	431.784	430.208	233.236	392.933	383.631	381.894	146.569	278.553	137.532	360.184	77.969	142.022	329.760	290.407	0.00054618	0.00018244	0.00011584	1028.3	2.7191e-06	7.1936e-07	1116.3	215.97	4.7589e-06	1.3231e-06	272.54	76.571	59.334	17.415	2.0495e-06	24.346	9.8212e-05	8.2952e-05	2.3095e-05	1005.8	9.5483e-07	8.8315e-07	1094.2	212.62	9.2701e-07	9.1019e-07	267.67	75.035	58.178	17.346	9.2082e-07	24.339	99.573	159.523	146.640	84.146	190.733	260.511	84.303	92.108	238.349	176.239	91.270	98.076	98.638	105.682	241.022	104.765	-8191	255	
8562.773	1	1	0	0	0.24929	0.23564	0.0075396	0.37607	0.10808	0.15019	0.17606	0.12459	0.17056	0.22124	0.13015	0.35509	0.076571	0.1098	0.25025	0.1256	-2.4417	-2.3042	-2.5062	-2.6979	-2.3521	-2.8625	-2.625	-2.5896	-2.6437	-2.3354	-2.6458	-2.7167	-2.3479	-2.8042	-2.5458	-2.4792	153.377	278.992	315.231	413.899	429.690	120.948	417.844	251.926	108.122	395.993	82.449	88.361	386.991	141.766	170.017	104.550	0.00046022	0.00024288	6.4416e-05	1027.4	1.9769e-06	2.4906e-06	1119.3	217.03	3.9741e-06	2.2395e-06	272.7	76.259	59.385	17.288	2.9397e-06	24.361	9.8262e-05	8.2103e-05	2.3071e-05	1004.5	9.4762e-07	8.9015e-07	1093.6	212.71	9.3543e-07	8.9481e-07	267.16	74.979	58.344	17.317	9.2228e-07	24.285	101.585	174.088	148.084	84.129	158.904	170.857	84.303	91.694	197.216	208.557	90.716	98.138	98.344	105.463	188.958	105.251	-8191	255	
8562.869	1	1	0	0	0.069788	0.06815	0.18273	0.34006	0.28637	0.23198	0.22171	0.24567	0.14022	0.16011	0.14238	0.30618	0.2345	0.027611	0.22804	0.30442	-2.2146	-2.3812	-2.5229	-2.8542	-2.3354	-2.7958	-2.6146	-2.35	-2.9062	-2.3896	-2.5833	-2.6625	-2.3354	-2.8521	-2.5583	-2.3417	160.989	261.582	88.414	357.975	132.009	321.155	422.242	328.311	407.776	231.680	97.645	344.152	371.625	412.102	313.883	117.179	0.00056747	0.00025744	7.1774e-05	1025.8	4.4896e-06	2.4238e-06	1117.9	215.24	4.4933e-06	1.1115e-06	270.1	75.79	59.37	17.216	1.693e-06	24.294	9.7272e-05	7.9949e-05	2.3104e-05	1003.3	9.5926e-07	8.7036e-07	1093.1	211.89	9.119e-07	9.1518e-07	267.36	74.932	58.284	17.34	9.1118e-07	24.22	94.533	166.494	159.476	83.967	213.348	206.346	84.178	91.527	208.131	184.137	91.132	98.173	98.598	106.180	172.060	104.990	-8191	255	
8562.988	1	1	0	0	0.19991	0.18739	0.31191	0.13204	0.18138	0.19276	0.17593	0.063329	0.005147	0.22875	0.12909	0.14437	0.10443	0.28266	0.09567	0.2219	-2.3458	-2.4875	-2.5438	-2.8563	-2.2729	-2.7396	-2.7313	-2.5125	-2.7958	-2.4354	-2.4313	-2.7542	-2.4271	-2.8812	-2.6646	-2.3854	407.274	193.075	350.242	136.042	291.799	110.030	300.183	374.736	258.399	408.731	228.729	176.899	123.554	427.132	204.844	113.981	0.000493	0.00034593	3.3064e-05	1027.4	4.1777e-06	1.8171e-06	1116.9	215.64	2.8348e-06	1.8828e-06	271.54	75.755	59.283	17.434	1.8885e-06	24.221	9.7361e-05	8.1828e-05	2.2625e-05	1004.6	9.3637e-07	8.7859e-07	1092.6	212.55	9.2318e-07	8.8089e-07	267.33	74.746	58.14	17.357	9.1242e-07	24.279	96.041	165.681	139.209	84.205	193.686	200.852	84.332	91.565	208.544	90.965	91.129	98.305	98.864	105.410	242.805	104.716	-8191	255	
8563.084	1	1	0	0	0.09087	0.17995	0.16943	0.079479	0.16398	0.02674	0.1209	0.14775	0.21405	0.066634	0.15074	0.14928	0.024348	0.10116	0.23876	0.13497	-2.2375	-2.475	-2.5021	-2.8063	-2.325	-2.7375	-2.8708	-2.4208	-2.8021	-2.3771	-2.4417	-2.7729	-2.4104	-2.6708	-2.7521	-2.5167	106.642	348.808	111.487	300.041	181.972	387.067	340.386	296.557	324.195	256.389	287.951	89.083	87.080	82.808	204.894	105.147	0.00050089	0.00028453	3.1123e-05	1023.9	3.9832e-06	1.7855e-06	1116.1	215.81	1.0727e-06	2.0225e-06	272.73	75.65	59.38	17.301	2.7661e-06	24.085	9.5867e-05	8.121e-05	2.2724e-05	1001.4	9.3031e-07	8.9143e-07	1091.6	212.63	8.9288e-07	8.9459e-07	267.51	74.631	58.249	17.314	8.9119e-07	24.2	101.724	144.123	112.383	84.256	193.535	205.000	84.263	92.005	249.876	246.020	91.251	98.110	98.482	105.707	188.603	105.001	-8191	255	
8563.180	1	1	0	0	0.083472	0.21917	0.094837	0.15891	0.28017	0.24163	0.15917	0.38592	0.15041	0.3734	0.064316	0.32587	0.41531	0.22389	0.035219	0.15359	-2.4396	-2.4917	-2.3187	-3.0438	-2.325	-2.6521	-2.8271	-2.3521	-2.6188	-2.6833	-2.5146	-2.7188	-2.5146	-2.4938	-2.6958	-2.2708	208.738	192.412	344.478	419.917	392.620	198.950	413.267	103.238	342.544	323.440	292.086	381.430	148.344	419.212	373.060	207.630	0.00046821	0.00029643	6.2525e-05	1025.8	2.5489e-06	3.44e-06	1119.4	215.17	4.7368e-06	3.2422e-06	272.61	76.096	59.616	17.246	3.5156e-06	24.121	9.4777e-05	8.2002e-05	2.2247e-05	1002.2	9.2258e-07	8.8869e-07	1092.5	211.83	9.6093e-07	8.9672e-07	266.78	74.756	58.382	17.305	9.1631e-07	24.278	93.322	138.673	222.600	84.044	211.316	229.159	83.960	92.009	228.311	196.317	91.139	98.122	98.457	105.765	187.638	105.081	-8191	255	
8563.276	1	1	0	0	0.064208	0.13611	0.31058	0.12359	0.075137	0.075344	0.056842	0.29151	0.2613	0.24241	0.19706	0.18773	0.032777	0.092055	0.20139	0.27328	-2.3312	-2.5354	-2.2938	-2.9146	-2.4	-2.5271	-2.8104	-2.3604	-2.5833	-2.6167	-2.3625	-2.9479	-2.4625	-2.6875	-2.7083	-2.5271	207.650	229.562	283.460	422.317	240.980	375.825	106.614	114.889	327.330	390.265	167.921	322.386	133.765	174.512	329.678	354.033	0.00056264	0.00030369	0.00010823	1026.9	2.5201e-06	1.3045e-06	1114.8	215.35	4.7851e-06	9.6885e-07	272.11	75.982	59.332	17.392	3.7641e-06	24.114	9.7649e-05	8.42e-05	2.3015e-05	1002.9	9.1713e-07	8.7868e-07	1091.5	211.87	9.4357e-07	8.848e-07	267.08	74.826	58.172	17.317	9.0212e-07	24.158	96.584	136.108	158.444	84.138	229.016	250.108	84.290	91.904	224.958	239.925	90.902	98.540	98.260	105.302	166.838	104.713	-8191	255	
8563.372	1	1	0	0	0.1534	0.16717	0.18399	0.1139	0.12436	0.091734	0.26086	0.21972	0.18626	0.1496	0.26816	0.091691	0.15173	0.038884	0.11978	0.037248	-2.2021	-2.4917	-2.3312	-3.0104	-2.5396	-2.4792	-2.9333	-2.5521	-2.4375	-2.8729	-2.4792	-2.7604	-2.5812	-2.4542	-2.8312	-2.3333	314.820	113.007	249.214	373.430	316.019	274.214	357.005	362.381	210.945	300.458	250.197	274.218	338.418	210.103	214.080	391.840	0.00052599	8.5982e-05	8.3594e-05	1025.5	2.234e-06	6.2586e-07	1115.3	215.57	3.1979e-06	2.0564e-06	272.8	75.532	59.095	17.399	2.4595e-06	24.21	9.5994e-05	8.0826e-05	2.2823e-05	1001.5	9.2522e-07	8.8962e-07	1090.5	212.44	9.1186e-07	8.5986e-07	267.27	74.706	58.113	17.335	8.9761e-07	24.215	96.888	183.685	153.695	83.903	235.052	330.295	84.245	91.793	196.266	197.356	90.960	98.635	98.546	105.477	203.829	105.014	-8191	255	
8563.469	1	1	0	0	0.34828	0.12633	0.18368	0.39294	0.3265	0.16047	0.074415	0.2078	0.11776	0.10739	0.1056	0.2093	0.20627	0.19167	0.10581	0.34107	-2.1688	-2.5083	-2.3479	-2.7208	-2.4667	-2.65	-2.8688	-2.4792	-2.5875	-2.9083	-2.5896	-2.6312	-2.6625	-2.5646	-2.8187	-2.5292	320.506	81.979	383.560	125.363	124.159	214.874	411.495	362.274	229.617	236.733	90.152	420.005	152.411	96.207	75.108	361.793	0.00052197	0.00028517	5.0248e-05	1022.5	2.3119e-06	3.3955e-06	1113.6	215.98	5.5506e-06	1.7505e-06	271.85	75.808	59.065	17.333	2.8504e-06	24.185	9.6233e-05	8.1449e-05	2.2236e-05	1000.1	9.1849e-07	8.874e-07	1090.9	211.88	9.2816e-07	8.8689e-07	266.97	74.719	58.086	17.362	8.969e-07	24.204	94.566	164.210	243.055	84.094	179.493	257.178	84.288	91.727	225.674	247.188	91.304	98.467	98.893	105.869	224.734	104.945	-8191	255	
8563.589	1	1	0	0	0.44102	0.11712	0.16987	0.2528	0.094903	0.02822	0.35977	0.47175	0.30894	0.31756	0.27605	0.21616	0.12949	0.20504	0.0083692	0.32212	-1.9604	-2.6917	-2.4458	-2.6833	-2.6813	-2.2646	-2.9813	-2.4583	-2.4125	-2.8083	-2.4521	-2.5021	-2.8833	-2.4958	-2.8458	-2.5458	318.581	253.867	74.885	406.259	174.798	158.049	358.331	398.210	323.316	79.331	99.092	378.063	430.974	366.435	262.733	369.077	0.00052751	0.00019603	5.6763e-05	1029.3	3.2401e-06	8.2456e-07	1114.6	214.99	2.8028e-06	2.3742e-06	273.24	75.829	59.395	17.285	1.7904e-06	24.313	9.599e-05	7.9994e-05	2.3058e-05	1002.3	9.3585e-07	9.0626e-07	1090.4	211.76	9.1644e-07	9.0286e-07	267.37	74.687	58.207	17.288	8.7638e-07	24.24	94.273	164.284	136.094	84.049	192.713	176.768	84.450	91.752	224.629	287.081	91.270	98.371	98.361	105.731	176.454	105.457	-8191	255	
8563.685	1	1	0	0	0.14448	0.21539	0.29928	0.18837	0.26919	0.27131	0.25527	0.18847	0.060858	0.2039	0.14038	0.16729	0.22252	0.064835	0.066984	0.26837	-2.0729	-2.9146	-2.4479	-2.7167	-2.8354	-2.4333	-3.1375	-2.6688	-2.5833	-2.9333	-2.3604	-2.65	-2.8146	-2.2833	-2.8312	-2.7313	288.840	117.036	141.307	80.112	336.099	431.531	385.527	343.896	361.384	347.652	301.751	159.022	355.488	419.451	74.057	99.298	0.00054638	0.00037717	7.0365e-05	1021.6	2.4582e-06	2.127e-06	1118.7	216.45	3.6273e-06	4.532e-06	273.62	76.155	58.952	17.425	2.9047e-06	24.207	9.6772e-05	8.0087e-05	2.2575e-05	1000.8	9.4015e-07	8.9263e-07	1091.7	212.05	9.3124e-07	9.0304e-07	267.53	74.845	58.001	17.368	9.1246e-07	24.16	91.848	127.212	115.001	84.100	219.182	215.843	84.212	91.692	248.860	162.608	91.447	98.222	98.402	105.496	217.491	105.049	-8191	255	
8563.781	1	1	0	0	0.047513	0.33906	0.15859	0.0061277	0.097828	0.044089	0.28708	0.074469	0.2743	0.037651	0.30095	0.09488	0.12141	0.12169	0.24006	0.091643	-2.0333	-2.8	-2.5125	-2.6937	-2.975	-2.1854	-3.0062	-2.8875	-2.4458	-2.9313	-2.5292	-2.7208	-3.0146	-2.3812	-2.575	-2.6188	82.481	318.911	328.396	280.788	75.848	274.609	382.512	350.896	214.256	311.535	393.867	322.207	291.548	88.610	137.199	121.180	0.00061975	0.00039297	9.9503e-05	1022.9	2.892e-06	3.0474e-06	1117	216.61	5.0844e-06	3.6627e-06	271.99	76.116	58.876	17.308	1.6987e-06	24.227	9.6406e-05	8.2645e-05	2.2384e-05	1000.9	9.2579e-07	8.8638e-07	1090.1	212.27	9.5009e-07	8.933e-07	267.16	74.969	58.08	17.344	8.8315e-07	24.244	101.402	132.041	178.763	84.117	228.058	210.682	84.231	91.733	221.681	211.840	91.172	98.270	98.693	106.110	218.513	104.888	-8191	255	
8563.878	1	1	0	0	0.18185	0.13879	0.22862	0.11239	0.21059	0.25861	0.12144	0.024261	0.18556	0.12633	0.19006	0.11764	0.2706	0.063581	0.32754	0.13512	-2.0208	-2.6708	-2.4813	-2.5271	-2.7938	-2.4667	-2.8792	-2.7521	-2.2521	-2.8979	-2.7229	-2.3604	-2.9771	-2.3958	-2.6646	-2.6125	318.717	179.232	415.435	263.424	317.076	182.073	332.769	115.097	220.609	141.113	422.884	360.276	123.572	288.942	171.566	348.991	0.00048875	0.00015928	2.2674e-05	1024.7	4.128e-06	1.3397e-06	1111	215.11	5.1079e-06	2.88e-06	271.56	74.984	59.052	17.214	1.7266e-06	24.285	9.5863e-05	8.0046e-05	2.261e-05	1001.6	9.4336e-07	8.9085e-07	1087.5	211.88	9.2102e-07	8.768e-07	266.43	74.47	57.986	17.181	9.0941e-07	24.202	98.588	183.279	177.520	84.136	239.218	250.600	84.083	91.782	183.296	163.642	91.178	98.574	98.443	105.886	252.932	104.736	-8191	255	
8563.972	1	1	0	0	0.13805	0.16003	0.19594	0.28149	0.16	0.26588	0.18094	0.25741	0.036529	0.097566	0.10474	0.21248	0.098357	0.11867	0.06712	0.11527	-1.8604	-2.7042	-2.4458	-2.6042	-2.85	-2.4729	-2.8292	-2.7812	-2.1646	-2.8208	-2.7042	-2.4625	-2.8583	-2.4167	-2.6292	-2.8667	390.111	128.278	91.529	400.282	248.055	367.673	326.644	99.332	173.396	207.370	101.196	257.508	329.028	130.504	224.485	334.400	0.00054692	0.00026359	8.52e-05	1014	4.3231e-06	2.4167e-06	1109.4	213.89	5.375e-06	2.07e-06	270.08	74.965	59.092	17.227	2.7137e-06	23.808	9.6926e-05	8.1679e-05	2.2006e-05	993.98	9.2232e-07	8.7147e-07	1082.9	210.68	9.0983e-07	9.0499e-07	265.51	74.21	57.854	17.164	9.221e-07	23.954	103.107	182.996	171.126	84.338	181.519	212.748	84.177	91.734	218.719	249.001	91.198	98.603	98.820	105.619	204.740	105.015	-8191	255	
8564.068	1	1	0	0	0.07525	0.24956	0.10891	0.11642	0.089387	0.041649	0.28131	0.34325	0.1901	0.24998	0.18781	0.11539	0.28728	0.25819	0.22393	0.16958	-2.1229	-2.7896	-2.55	-2.7062	-2.7979	-2.4646	-2.6312	-2.8229	-2.2292	-2.6979	-2.6375	-2.4229	-2.5833	-2.6146	-2.5146	-2.7854	255.132	370.756	206.248	398.747	428.685	374.237	305.852	323.895	158.267	357.196	422.364	364.355	330.365	361.202	256.572	415.690	0.00055738	0.00039875	8.7931e-05	1010.6	3.9376e-06	1.8777e-06	1099	212.65	4.3378e-06	2.0676e-06	268.16	74.845	58.258	16.969	2.8443e-06	23.96	9.4569e-05	8.1861e-05	2.2004e-05	989.14	9.3154e-07	9.017e-07	1078.3	209.56	9.0864e-07	8.812e-07	263.72	73.857	57.37	17.041	9.0667e-07	23.908	96.613	166.707	152.718	84.407	235.175	205.376	84.308	91.857	217.569	243.060	91.310	98.330	98.794	105.685	215.903	105.091	-8191	255	
8564.164	1	1	0	0	0.043546	0.20762	0.033601	0.22918	0.25962	0.10322	0.53544	0.22869	0.091733	0.054601	0.22015	0.01735	0.1357	0.16923	0.17524	0.23804	-1.8146	-2.5187	-2.5854	-2.3104	-2.7438	-2.4896	-2.5854	-2.875	-2.5083	-2.7229	-2.6958	-2.4104	-2.9667	-2.5625	-2.3167	-2.725	433.883	419.695	143.010	417.429	429.690	131.062	382.172	369.852	110.813	107.474	278.889	311.093	416.722	134.941	381.186	174.207	0.0005173	0.00016331	9.9022e-05	1007.6	2.9769e-06	2.0379e-06	1101.4	211.99	2.6977e-06	2.6151e-06	267.57	74.521	57.974	16.906	2.3247e-06	23.519	9.7807e-05	8.0289e-05	2.2414e-05	985.62	9.3093e-07	8.7727e-07	1072.1	208.43	8.9926e-07	9.2087e-07	262.93	73.389	57.051	16.934	8.8381e-07	23.672	97.943	133.531	143.152	84.050	240.252	227.906	84.099	92.003	211.499	243.777	91.337	98.500	98.537	105.706	213.574	105.260	-8191	255	
8564.285	1	1	0	0	0.19462	0.1488	0.10846	0.38788	0.13732	0.23695	0.049895	0.057253	0.075019	0.34059	0.26618	0.20681	0.098286	0.12753	0.26821	0.069824	-1.9042	-2.5771	-2.8812	-2.4521	-2.4583	-2.5812	-2.5083	-2.8229	-2.5479	-2.5208	-2.8958	-2.5042	-2.525	-2.6604	-2.5229	-2.8042	76.668	125.634	347.874	339.944	356.985	287.772	240.695	245.648	336.277	197.773	396.490	341.354	105.733	269.172	97.258	126.757	0.00056589	0.00010064	7.3453e-05	997.45	2.8965e-06	1.7448e-06	1085.8	208.71	3.0434e-06	3.2731e-06	263.81	73.219	57.173	16.697	2.9178e-06	23.426	9.641e-05	8.1182e-05	2.2848e-05	976.79	9.4187e-07	8.967e-07	1063.3	205.24	9.5362e-07	9.0077e-07	258.34	72.301	56.294	16.7	9.3178e-07	23.472	95.789	118.699	186.530	84.210	181.397	181.543	84.396	91.756	262.167	152.892	90.942	98.258	98.586	106.108	192.356	105.220	-8191	255	
8564.381	1	1	0	0	0.047312	0.15271	0.046627	0.17962	0.094749	0.42442	0.32256	0.10365	0.095984	0.21394	0.44586	0.18693	0.36148	0.17501	0.1398	0.19974	-2.0021	-2.3521	-2.8333	-2.4604	-2.4875	-2.6167	-2.4354	-2.8979	-2.5083	-2.4146	-2.7833	-2.3417	-2.6667	-2.5146	-2.4313	-2.9562	341.706	156.519	433.479	361.738	215.763	396.517	343.313	296.869	350.120	256.008	379.993	276.359	347.164	219.141	177.291	328.577	0.00047092	0.00030118	7.4533e-05	991.24	3.3397e-06	1.8459e-06	1080	207.74	3.4358e-06	1.7932e-06	262.01	73.254	57.49	16.652	3.2663e-06	23.546	9.9043e-05	8.3926e-05	2.3406e-05	972.45	9.9125e-07	9.1706e-07	1057.9	203.78	1.003e-06	9.266e-07	258.08	72.158	56.346	16.683	9.2462e-07	23.515	94.325	171.440	146.038	84.134	194.193	247.119	84.134	91.961	194.669	255.445	91.133	98.232	99.042	106.189	170.918	105.024	-8191	255	
