BOXY.EXE: ISS Imagent and Oximeter Data Acquisition Program Version 0.80
Ascii Record File

#ACQ INFORMATION
2  Detector Channels 
16  External MUX Channels 
1  Auxiliary Channels 
5000  Waveform (CCF) Frequency (Hz)
1  Waveforms Skipped 
30  Waveforms Averaged 
1  Cycles Averaged 
16  Acquisitions per Waveform 
10.0806  Updata Rate (Hz) 

#FILE INFORMATION
TRUE -- External MUX Channel results are PARSED.
FALSE -- AC DC and Phase are NOT grouped.
TRUE -- Companion Program Settings File CREATED.
FALSE -- AC data not excluded
FALSE -- DC data not excluded
FALSE -- Phase data not excluded
FALSE -- Auxillary Chn. data not excluded
Tab delimiters

#CALIBRATION STATE
TRUE -- Waveform Calibration Values APPLIED.


#AUX CALIBRATION VALUES
Val Type	aux-1	

Term	1.0000e+00	
Factor	0.0000e+00	


#WF CALIBRATION VALUES
A = Detector Channel
Val Type	A-AC1	A-AC2	A-AC3	A-AC4	A-AC5	A-AC6	A-AC7	A-AC8	A-AC9	A-AC10	A-AC11	A-AC12	A-AC13	A-AC14	A-AC15	A-AC16	A-DC1	A-DC2	A-DC3	A-DC4	A-DC5	A-DC6	A-DC7	A-DC8	A-DC9	A-DC10	A-DC11	A-DC12	A-DC13	A-DC14	A-DC15	A-DC16	A-Ph1	A-Ph2	A-Ph3	A-Ph4	A-Ph5	A-Ph6	A-Ph7	A-Ph8	A-Ph9	A-Ph10	A-Ph11	A-Ph12	A-Ph13	A-Ph14	A-Ph15	A-Ph16	

Term	0.00000e+00	0.00000e+00	0.00000e+00	0.00000e+00	0.00000e+00	0.00000e+00	0.00000e+00	0.00000e+00	0.00000e+00	0.00000e+00	0.00000e+00	0.00000e+00	0.00000e+00	0.00000e+00	0.00000e+00	0.00000e+00	0.00000e+00	0.00000e+00	0.00000e+00	0.00000e+00	0.00000e+00	0.00000e+00	0.00000e+00	0.00000e+00	0.00000e+00	0.00000e+00	0.00000e+00	0.00000e+00	0.00000e+00	0.00000e+00	0.00000e+00	0.00000e+00	0.00000e+00	0.00000e+00	0.00000e+00	0.00000e+00	0.00000e+00	0.00000e+00	0.00000e+00	0.00000e+00	0.00000e+00	0.00000e+00	0.00000e+00	0.00000e+00	0.00000e+00	0.00000e+00	0.00000e+00	0.00000e+00	
Factor	1.00000e+00	1.00000e+00	1.00000e+00	1.00000e+00	1.00000e+00	1.00000e+00	1.00000e+00	1.00000e+00	1.00000e+00	1.00000e+00	1.00000e+00	1.00000e+00	1.00000e+00	1.00000e+00	1.00000e+00	1.00000e+00	1.00000e+00	1.00000e+00	1.00000e+00	1.00000e+00	1.00000e+00	1.00000e+00	1.00000e+00	1.00000e+00	1.00000e+00	1.00000e+00	1.00000e+00	1.00000e+00	1.00000e+00	1.00000e+00	1.00000e+00	1.00000e+00	X	X	X	X	X	X	X	X	X	X	X	X	X	X	X	X	

B = Detector Channel
Val Type	B-AC1	B-AC2	B-AC3	B-AC4	B-AC5	B-AC6	B-AC7	B-AC8	B-AC9	B-AC10	B-AC11	B-AC12	B-AC13	B-AC14	B-AC15	B-AC16	B-DC1	B-DC2	B-DC3	B-DC4	B-DC5	B-DC6	B-DC7	B-DC8	B-DC9	B-DC10	B-DC11	B-DC12	B-DC13	B-DC14	B-DC15	B-DC16	B-Ph1	B-Ph2	B-Ph3	B-Ph4	B-Ph5	B-Ph6	B-Ph7	B-Ph8	B-Ph9	B-Ph10	B-Ph11	B-Ph12	B-Ph13	B-Ph14	B-Ph15	B-Ph16	

Term	0.00000e+00	0.00000e+00	0.00000e+00	0.00000e+00	0.00000e+00	0.00000e+00	0.00000e+00	0.00000e+00	0.00000e+00	0.00000e+00	0.00000e+00	0.00000e+00	0.00000e+00	0.00000e+00	0.00000e+00	0.00000e+00	0.00000e+00	0.00000e+00	0.00000e+00	0.00000e+00	0.00000e+00	0.00000e+00	0.00000e+00	0.00000e+00	0.00000e+00	0.00000e+00	0.00000e+00	0.00000e+00	0.00000e+00	0.00000e+00	0.00000e+00	0.00000e+00	-1.98888e+02	-1.41666e+02	-1.28181e+02	-1.83212e+02	-8.92266e+01	-7.95993e+01	-1.60609e+02	-1.62015e+02	-7.67401e+01	-7.98675e+01	-1.72562e+02	-1.72621e+02	-1.82837e+02	-1.77955e+02	-8.59113e+01	-1.50807e+02	
Factor	3.77429e-05	1.24987e-04	3.22763e-05	1.53048e-01	1.12836e-06	1.18453e-06	1.66555e-01	5.17580e-02	1.34229e-06	1.30404e-06	7.96663e-02	2.59757e-02	2.43854e-02	7.97063e-03	1.19627e-06	1.14541e-02	1.84811e-06	1.93964e-06	5.39761e-07	8.01032e-02	2.10885e-08	2.12456e-08	8.19187e-02	2.70715e-02	2.11425e-08	2.13452e-08	4.02592e-02	1.31275e-02	1.28064e-02	4.18483e-03	2.12242e-08	5.82685e-03	X	X	X	X	X	X	X	X	X	X	X	X	X	X	X	X	



#DISTANCE SETTINGS
A = Detector Channel
A-1	A-2	A-3	A-4	A-5	A-6	A-7	A-8	A-9	A-10	A-11	A-12	A-13	A-14	A-15	A-16	

2.5000e+00	3.0000e+00	2.5000e+00	3.0000e+00	2.0000e+00	3.0000e+00	1.5000e+00	3.0000e+00	3.0000e+00	3.0000e+00	3.0000e+00	3.0000e+00	3.0000e+00	3.0000e+00	1.5000e+00	3.0000e+00	

B = Detector Channel
B-1	B-2	B-3	B-4	B-5	B-6	B-7	B-8	B-9	B-10	B-11	B-12	B-13	B-14	B-15	B-16	

1.0000e+01	1.0000e+01	1.0000e+01	1.4400e+00	1.0000e+01	1.0000e+01	1.5100e+00	1.9400e+00	1.0000e+01	1.0000e+01	1.9900e+00	2.4900e+00	2.4100e+00	2.9000e+00	1.0000e+01	2.9800e+00	




#DATA BEGINS
time	group	step	mark	flag	A-AC1	A-AC2	A-AC3	A-AC4	A-AC5	A-AC6	A-AC7	A-AC8	A-AC9	A-AC10	A-AC11	A-AC12	A-AC13	A-AC14	A-AC15	A-AC16	A-DC1	A-DC2	A-DC3	A-DC4	A-DC5	A-DC6	A-DC7	A-DC8	A-DC9	A-DC10	A-DC11	A-DC12	A-DC13	A-DC14	A-DC15	A-DC16	A-Ph1	A-Ph2	A-Ph3	A-Ph4	A-Ph5	A-Ph6	A-Ph7	A-Ph8	A-Ph9	A-Ph10	A-Ph11	A-Ph12	A-Ph13	A-Ph14	A-Ph15	A-Ph16	B-AC1	B-AC2	B-AC3	B-AC4	B-AC5	B-AC6	B-AC7	B-AC8	B-AC9	B-AC10	B-AC11	B-AC12	B-AC13	B-AC14	B-AC15	B-AC16	B-DC1	B-DC2	B-DC3	B-DC4	B-DC5	B-DC6	B-DC7	B-DC8	B-DC9	B-DC10	B-DC11	B-DC12	B-DC13	B-DC14	B-DC15	B-DC16	B-Ph1	B-Ph2	B-Ph3	B-Ph4	B-Ph5	B-Ph6	B-Ph7	B-Ph8	B-Ph9	B-Ph10	B-Ph11	B-Ph12	B-Ph13	B-Ph14	B-Ph15	B-Ph16	aux-1	digaux	

8524.982	1	1	0	768	0.063806	0.09914	0.14781	0.22014	0.2219	0.17337	0.22439	0.23219	0.32066	0.12127	0.17668	0.11111	0.19192	0.30451	0.18342	0.34289	-2.0708	-2.5125	-2.8104	-2.6188	-2.7417	-2.6396	-2.5563	-2.7458	-2.4979	-2.4896	-2.7333	-2.3708	-2.7729	-2.5729	-2.3542	-2.5938	190.072	286.344	285.980	363.285	156.628	308.309	350.278	344.565	188.233	349.131	409.465	89.339	113.746	422.339	319.039	364.849	0.00047733	0.00022066	2.4755e-05	978.14	1.6927e-06	2.0731e-06	1071.2	209.29	3.3378e-06	1.7295e-06	265.75	73.162	57.418	16.73	3.3877e-06	23.579	8.616e-05	6.9629e-05	1.9691e-05	957.22	7.8832e-07	7.5285e-07	1046.4	205.56	8.1703e-07	7.867e-07	260.46	72.372	56.366	16.748	7.5103e-07	23.513	100.218	112.961	141.352	84.547	193.732	211.043	84.261	92.073	222.414	189.155	91.578	98.539	98.885	105.729	250.590	105.354	-8191	255	
8525.078	1	1	0	0	0.18264	0.10815	0.21863	0.21772	0.11315	0.24717	0.12334	0.1656	0.12858	0.11352	0.10952	0.10486	0.19316	0.024194	0.14211	0.15027	-2.0687	-2.4292	-2.5938	-2.5	-2.4813	-2.8667	-2.375	-2.7854	-2.7375	-2.3896	-2.8438	-2.4917	-2.4958	-2.725	-2.1854	-2.6958	190.947	213.686	308.123	381.664	273.035	364.262	330.100	375.400	110.455	259.345	281.264	81.393	399.167	280.203	275.895	392.756	0.00059674	0.00019299	5.3185e-05	983.51	4.5023e-06	1.6657e-06	1072.5	211.11	3.3731e-06	1.8778e-06	268.06	73.897	57.783	16.721	2.1128e-06	23.518	8.3885e-05	7.0756e-05	1.9292e-05	959.97	7.9868e-07	7.3855e-07	1046.8	206.07	7.9033e-07	7.5473e-07	261.45	72.698	56.557	16.782	8.0838e-07	23.586	97.454	176.027	135.863	84.432	219.723	215.344	84.313	91.983	235.846	213.313	91.049	98.770	98.748	106.041	199.196	105.264	-8191	255	
8525.175	1	1	0	0	0.036876	0.21266	0.10164	0.1763	0.096408	0.12975	0.33102	0.11077	0.2018	0.060762	0.46249	0.18467	0.23594	0.045077	0.19352	0.11563	-2.0667	-2.1833	-2.7062	-2.6	-2.4229	-2.7625	-2.4792	-2.7313	-2.5333	-2.3646	-2.8375	-2.6146	-2.6042	-2.8021	-2.375	-2.5438	87.632	122.795	398.155	394.451	220.021	337.653	358.645	111.799	343.568	293.011	318.335	93.942	143.953	105.169	239.335	143.905	0.0005204	0.00013799	5.2759e-05	983.28	3.6721e-06	5.7381e-07	1073.5	210.93	3.6339e-06	2.8095e-06	266.43	73.623	57.669	16.929	2.7886e-06	23.779	8.4909e-05	6.9395e-05	1.9096e-05	961.24	7.9701e-07	7.2408e-07	1051.3	206.87	7.7214e-07	7.5553e-07	260.78	72.696	56.549	16.858	7.6854e-07	23.646	93.313	176.175	185.828	84.606	215.758	215.675	84.319	92.077	230.675	224.389	91.118	98.550	98.713	105.628	221.918	105.201	-8191	255	
8525.271	1	1	0	0	0.22778	0.2445	0.1065	0.053666	0.10808	0.022066	0.20277	0.4043	0.084787	0.070768	0.21822	0.12567	0.23463	0.13088	0.022419	0.26764	-2.2438	-2.4417	-2.5708	-2.4813	-2.3417	-2.6333	-2.5479	-2.6729	-2.5583	-2.2438	-2.8167	-2.5396	-2.2521	-2.8479	-2.3021	-2.6292	324.719	283.083	218.035	280.589	87.294	327.607	354.952	399.813	106.569	145.037	355.036	361.263	136.892	290.447	148.286	417.026	0.00049376	8.5651e-05	5.2222e-05	980.46	4.2822e-06	1.0775e-06	1079.7	210.69	1.6492e-06	3.7337e-06	266.09	73.937	57.829	16.745	3.8569e-06	23.597	8.2429e-05	6.9803e-05	1.8796e-05	960.89	8.0053e-07	7.4873e-07	1052.5	206.51	7.7298e-07	7.6073e-07	260.96	72.66	56.595	16.814	7.9051e-07	23.636	104.588	234.726	198.460	84.476	214.475	227.586	84.519	91.816	286.278	227.723	91.485	98.679	98.814	105.615	185.702	105.120	-8191	255	
8525.367	1	1	0	0	0.025708	0.1587	0.24297	0.070114	0.12973	0.10221	0.16376	0.21963	0.23695	0.17343	0.05219	0.09983	0.14471	0.17827	0.12046	0.28944	-2.2396	-2.3208	-2.6917	-2.5687	-2.4875	-2.7979	-2.5333	-2.5583	-2.6375	-2.3	-2.8979	-2.4917	-2.3646	-2.7667	-2.3208	-2.5417	325.637	262.998	268.429	407.159	193.447	331.369	89.679	273.181	157.336	112.057	149.019	101.739	161.199	112.321	421.599	119.455	0.0004983	0.00037453	3.0599e-05	985.11	2.4301e-06	2.3439e-06	1071	211.32	5.7649e-06	2.276e-06	266.13	73.777	57.99	16.783	2.6226e-06	23.704	8.4455e-05	7.0001e-05	1.8427e-05	962.53	7.9267e-07	7.5024e-07	1050.3	207.09	7.6862e-07	7.6438e-07	260.98	72.674	56.794	16.837	7.8193e-07	23.645	96.402	148.255	159.854	84.544	199.477	240.544	84.210	91.886	230.787	205.692	91.309	98.383	98.818	105.779	246.241	105.103	-8191	255	
8525.463	1	1	0	0	0.061953	0.089782	0.1452	0.29162	0.2188	0.098496	0.31358	0.24556	0.12483	0.19585	0.078359	0.080947	0.17077	0.16488	0.26762	0.18254	-2.3333	-2.2708	-2.6042	-2.7875	-2.2417	-2.7708	-2.7771	-2.375	-2.8438	-2.6188	-2.7021	-2.8563	-2.3042	-2.7896	-2.5271	-2.5208	297.602	407.292	308.266	386.049	129.254	354.645	336.813	387.964	222.259	93.280	86.402	308.350	326.203	75.416	96.862	387.341	0.00049449	0.00037754	6.6333e-05	982.6	1.6889e-06	1.7323e-06	1076.8	209.49	3.571e-06	1.7036e-06	266.77	73.731	57.66	16.854	2.7362e-06	23.631	8.4158e-05	7.0716e-05	1.9188e-05	962.91	8.0018e-07	7.5842e-07	1051.3	206.62	7.7047e-07	7.5913e-07	261.32	72.809	56.782	16.827	7.6686e-07	23.631	105.481	208.782	171.033	84.468	197.327	228.108	84.486	92.008	223.389	196.420	91.056	98.229	98.644	106.023	207.834	105.221	-8191	255	
8525.584	1	1	0	0	0.26401	0.026621	0.076202	0.28261	0.33137	0.24327	0.30557	0.041225	0.10885	0.04993	0.19139	0.16925	0.15412	0.10929	0.14566	0.34959	-2.3688	-2.4875	-2.4125	-2.8312	-2.3542	-2.7958	-2.8042	-2.3208	-2.8688	-2.4875	-2.6146	-2.75	-2.1562	-2.7125	-2.3458	-2.2958	331.648	244.743	128.136	387.497	298.476	374.166	424.716	82.882	425.106	380.782	383.902	147.581	256.120	331.451	106.025	417.703	0.00057542	0.000283	4.6119e-05	985.46	1.6111e-06	2.5659e-06	1071.5	210.04	3.9866e-06	1.6831e-06	268.31	74.098	57.712	16.859	1.9885e-06	23.564	8.2753e-05	6.9273e-05	1.9066e-05	963.22	7.8748e-07	7.3926e-07	1049.9	206.52	7.7549e-07	7.7683e-07	262.12	72.735	56.72	16.839	7.7168e-07	23.611	102.809	132.541	221.249	84.527	183.795	183.261	84.327	91.888	208.239	189.173	91.573	98.660	98.536	105.940	190.237	104.782	-8191	255	
8525.680	1	1	0	0	0.13297	0.15691	0.091936	0.26625	0.16122	0.34493	0.33856	0.10226	0.25218	0.13631	0.040183	0.25316	0.15911	0.24384	0.18566	0.027624	-2.4479	-2.3042	-2.3083	-2.975	-2.1	-2.4708	-2.65	-2.2979	-2.8292	-2.4	-2.5312	-2.8021	-2.1792	-2.6667	-2.7042	-2.3917	82.272	412.520	123.676	355.661	368.700	383.755	405.166	125.202	411.217	75.448	228.451	96.290	144.966	164.158	243.213	155.684	0.00057154	0.00028164	7.4824e-05	986.61	3.2918e-06	1.049e-06	1070.1	210.19	1.7516e-06	1.5526e-06	266.29	73.801	57.3	16.957	2.5185e-06	23.824	8.5591e-05	6.855e-05	1.9761e-05	964.2	7.8893e-07	7.5648e-07	1051.9	206.49	7.4801e-07	7.5126e-07	261.03	72.841	56.652	16.833	7.596e-07	23.701	94.739	85.851	167.489	84.353	199.609	238.579	84.275	91.936	236.569	245.172	91.680	98.560	99.101	106.024	180.956	105.015	-8191	255	
8525.776	1	1	0	0	0.29815	0.13776	0.19484	0.38297	0.27304	0.37961	0.3309	0.13409	0.12882	0.39334	0.028673	0.26697	0.089026	0.10577	0.29857	0.093965	-2.1	-2.3958	-2.3521	-2.8292	-2.2812	-2.7521	-2.8479	-2.2542	-2.725	-2.5167	-2.4458	-2.8812	-2.4625	-2.4521	-2.5312	-2.4229	297.944	142.454	255.496	120.880	367.245	428.374	379.075	319.330	216.564	370.511	302.351	127.973	81.276	107.295	291.409	232.579	0.00056648	0.00023067	4.2206e-05	987.18	1.7636e-06	3.0123e-06	1082.1	210.7	3.1954e-06	2.6873e-06	266	74.177	57.57	16.841	1.7365e-06	23.534	8.5479e-05	7.0631e-05	1.9271e-05	964.04	7.8195e-07	7.8197e-07	1053.4	206.89	7.8523e-07	7.711e-07	261.43	73.022	56.642	16.858	7.8291e-07	23.619	95.975	185.205	141.790	84.359	195.788	198.195	84.492	92.013	247.930	266.326	91.475	98.679	98.640	105.969	192.125	105.261	-8191	255	
8525.872	1	1	0	0	0.17758	0.15086	0.20114	0.12051	0.16746	0.16007	0.25414	0.061938	0.061953	0.10736	0.0932	0.080923	0.41301	0.098509	0.066243	0.1072	-2.2188	-2.6562	-2.3104	-2.8521	-2.3708	-2.4458	-2.9458	-2.4313	-2.6667	-2.5604	-2.4208	-2.9104	-2.4062	-2.5687	-2.7167	-2.3292	222.197	386.585	383.144	84.553	306.088	403.541	364.387	195.063	213.386	251.785	419.236	100.691	411.367	230.464	203.240	396.373	0.00052434	0.00032155	6.1802e-05	990.05	1.404e-06	2.5381e-06	1079.8	211.31	3.129e-06	3.3847e-06	268.01	73.779	57.97	16.809	2.8175e-06	23.642	8.3184e-05	6.8792e-05	1.9817e-05	965.81	7.9495e-07	7.5125e-07	1053.8	207.11	7.8412e-07	7.6523e-07	261.95	72.905	56.832	16.848	7.4833e-07	23.646	90.048	154.086	217.714	84.432	195.756	223.683	84.405	91.963	220.153	229.800	91.557	98.673	98.625	106.081	222.787	105.386	-8191	255	
8525.966	1	1	0	0	0.19823	0.13495	0.043955	0.41931	0.24872	0.12984	0.40408	0.11327	0.042501	0.11883	0.18453	0.23433	0.10282	0.2605	0.26077	0.08953	-2.2604	-2.4938	-2.35	-2.9021	-2.5667	-2.5479	-2.9083	-2.3646	-2.5854	-2.7208	-2.3979	-2.6813	-2.4417	-2.6271	-2.7979	-2.5167	146.379	152.338	221.404	408.290	116.991	304.754	413.963	135.841	283.014	117.989	327.030	323.938	120.722	137.379	202.875	151.436	0.00055922	0.00024991	5.267e-05	989.02	3.5682e-06	2.9533e-06	1081.8	212.45	3.0186e-06	2.5901e-06	267.6	74.208	58.172	17.033	1.1138e-06	23.779	8.4871e-05	6.6146e-05	1.9286e-05	967.24	8.1349e-07	7.9286e-07	1057.2	207.36	7.976e-07	7.4526e-07	261.96	73.112	56.76	16.97	7.9653e-07	23.691	100.727	168.245	131.535	84.356	204.316	220.559	84.476	92.075	221.149	202.653	91.605	98.354	98.674	105.659	161.862	105.352	-8191	255	
8526.063	1	1	0	0	0.14377	0.21254	0.14191	0.026649	0.38273	0.13782	0.34351	0.15816	0.1155	0.10054	0.1806	0.30718	0.2646	0.11995	0.21179	0.11838	-2.1125	-2.5396	-2.2313	-2.8458	-2.4146	-2.4083	-2.9313	-2.3688	-2.5458	-2.6167	-2.4354	-2.9271	-2.6417	-2.4479	-2.7667	-2.6375	380.412	88.368	224.005	108.437	379.517	428.282	363.183	423.363	78.405	97.350	357.630	384.074	178.439	85.822	364.052	224.003	0.00057563	0.0002108	4.797e-05	988.59	4.0175e-06	2.2858e-06	1082.9	211.92	3.1316e-06	5.1609e-07	267.25	74.528	57.888	16.934	1.0169e-06	23.994	8.5706e-05	6.8506e-05	1.9573e-05	969.26	8.1213e-07	7.5001e-07	1058.7	207.54	7.9795e-07	7.5678e-07	262.09	73.127	56.782	16.932	7.8591e-07	23.748	94.800	163.134	131.232	84.728	175.416	226.559	84.504	92.239	177.815	125.911	91.255	98.624	98.721	106.241	198.093	105.455	-8191	255	
8526.183	1	1	0	0	0.41169	0.21851	0.054495	0.33603	0.089926	0.14618	0.16067	0.096691	0.24946	0.23605	0.40476	0.31383	0.12853	0.14058	0.34996	0.090185	-2.2354	-2.7229	-2.2292	-2.8937	-2.5875	-2.3667	-2.6792	-2.5208	-2.5979	-2.5812	-2.2729	-2.6688	-2.5187	-2.4583	-2.8292	-2.6333	351.857	402.788	169.725	401.237	404.182	255.088	410.421	322.940	159.373	341.786	416.721	381.888	345.926	316.338	294.089	231.173	0.00053247	0.00028868	9.4187e-05	989.28	3.885e-06	1.0497e-06	1084.4	211.42	2.5144e-06	3.6815e-06	268.56	74.343	57.877	16.921	3.2578e-06	23.649	8.6565e-05	6.8198e-05	1.9792e-05	968.44	7.8915e-07	7.5125e-07	1057.1	207.37	8.0099e-07	7.5909e-07	262.02	73.248	56.796	16.929	7.749e-07	23.723	102.382	174.610	181.788	84.264	219.198	214.239	84.268	91.833	221.699	237.209	91.082	98.658	98.858	105.976	206.859	105.058	-8191	255	
8526.279	1	1	0	0	0.061131	0.23597	0.19024	0.33658	0.20196	0.064715	0.14643	0.18879	0.1719	0.028017	0.18415	0.066117	0.14743	0.058847	0.15184	0.19248	-2.0271	-2.8208	-2.3708	-2.7417	-2.7167	-2.3417	-2.9167	-2.5208	-2.5729	-2.8	-2.5125	-2.8208	-2.7646	-2.4313	-2.7604	-2.4958	393.582	248.788	365.044	397.396	151.056	372.453	213.467	275.544	157.879	160.702	354.445	120.702	344.332	318.821	222.295	128.952	0.00049614	0.00023298	6.716e-05	987.5	4.4073e-06	8.1004e-07	1085	210.71	5.5893e-06	3.2137e-06	266.68	74.406	57.914	16.912	2.1751e-06	23.853	8.4293e-05	7.093e-05	1.9544e-05	967.9	7.9513e-07	7.5913e-07	1058.6	207.35	7.6021e-07	7.8653e-07	262.1	73.155	56.647	16.942	7.5673e-07	23.76	93.422	150.033	152.646	84.345	189.165	207.106	84.382	91.928	219.935	198.857	91.076	98.622	98.777	105.877	176.779	104.899	-8191	255	
8526.376	1	1	0	0	0.072644	0.12104	0.11073	0.14188	0.10789	0.25908	0.22764	0.31386	0.10976	0.02382	0.32363	0.10135	0.19402	0.053937	0.101	0.10651	-1.7958	-2.6833	-2.4104	-2.7396	-2.7854	-2.3375	-2.9854	-2.7979	-2.3604	-2.6417	-2.4813	-2.4583	-2.4146	-2.4229	-2.7	-2.4083	289.392	374.406	95.413	393.277	407.213	104.668	374.011	376.394	172.433	262.615	379.767	204.575	384.671	326.450	108.143	135.435	0.00045499	0.00036244	8.1164e-05	988.9	3.4485e-06	3.394e-06	1080.7	210.75	2.6271e-06	2.754e-07	266.12	73.956	57.872	16.927	1.4796e-06	23.75	8.4358e-05	6.8554e-05	1.9106e-05	970.05	7.8691e-07	7.4895e-07	1056.8	207.22	7.9632e-07	7.5157e-07	261.73	73.014	56.837	16.92	7.8242e-07	23.713	106.091	171.288	203.029	84.194	196.341	193.516	84.393	92.120	278.749	180.067	91.287	98.306	99.085	106.258	224.632	105.275	-8191	255	
8526.472	1	1	0	0	0.014662	0.037864	0.097048	0.14582	0.20528	0.17256	0.2467	0.15808	0.1864	0.10669	0.044923	0.081615	0.17734	0.15852	0.043582	0.24487	-1.7396	-2.6688	-2.3688	-2.5062	-2.7938	-2.3333	-2.825	-2.6854	-2.4042	-2.8812	-2.5187	-2.575	-2.8312	-2.2917	-2.6437	-2.6479	251.126	317.529	123.919	390.005	186.683	131.580	329.467	157.759	140.350	199.160	151.380	135.909	403.830	123.664	118.128	332.351	0.00054264	0.00023564	3.5912e-05	992.38	3.3742e-06	2.907e-06	1083.2	210.64	3.2727e-06	1.1341e-06	266.73	74.184	57.919	17.014	1.8254e-06	23.87	8.6742e-05	6.8889e-05	1.9409e-05	969.59	8.0519e-07	7.613e-07	1059.6	207.43	7.8267e-07	7.642e-07	261.7	73.102	56.781	16.971	7.7879e-07	23.795	98.062	156.494	203.765	84.300	210.875	251.628	84.254	91.646	227.772	137.119	91.406	98.544	98.508	105.649	192.332	105.194	-8191	255	
8526.543	1	1	0	0	0.19529	0.095906	0.31956	0.20767	0.096621	0.072146	0.12687	0.24674	0.19086	0.04088	0.066208	0.17176	0.23497	0.34738	0.1327	0.1053	-1.9146	-2.7229	-2.3875	-2.6188	-2.8771	-2.3937	-2.875	-2.7875	-2.2271	-2.7896	-2.6583	-2.3229	-2.725	-2.3125	-2.3875	-2.7146	268.395	261.673	321.922	403.440	111.662	211.493	353.310	394.692	157.751	106.729	247.805	313.411	333.052	90.333	126.912	82.720	0.00050241	0.00031191	4.4393e-05	990.7	4.0881e-06	2.7857e-06	1082.1	211.3	5.3015e-06	2.9279e-06	266.84	74.242	57.925	16.9	3.9802e-06	23.73	8.3742e-05	6.9791e-05	1.9573e-05	969.28	7.8731e-07	7.7542e-07	1060.2	207.41	7.7738e-07	7.6812e-07	262.37	72.933	56.74	16.901	7.925e-07	23.781	96.143	134.269	225.442	84.463	218.843	262.593	84.259	91.897	201.617	225.271	91.417	98.712	98.788	106.090	193.021	105.743	-8191	255	
8526.664	1	1	0	0	0.12875	0.18933	0.16086	0.098712	0.27005	0.21611	0.28512	0.069045	0.22837	0.15005	0.22017	0.032911	0.27255	0.027949	0.10766	0.32918	-1.7479	-2.5271	-2.4125	-2.3396	-2.7229	-2.1708	-2.7146	-2.7896	-2.3958	-2.6646	-2.5396	-2.4896	-2.9188	-2.55	-2.4854	-2.6792	232.051	159.842	240.697	324.261	189.965	240.654	383.707	149.704	284.500	83.232	334.532	239.656	341.042	406.267	174.249	296.063	0.00062288	0.00042012	4.3275e-05	993.41	2.1405e-06	2.2728e-06	1082.9	212.49	1.6947e-06	2.9281e-06	266.52	74.313	57.877	16.931	2.8723e-06	23.829	8.9452e-05	6.9605e-05	1.8851e-05	972.11	7.7263e-07	7.428e-07	1059.2	207.74	8.228e-07	7.4722e-07	262.21	73.007	56.787	16.94	7.9688e-07	23.736	100.125	144.908	127.669	84.429	184.195	223.274	84.226	92.233	212.444	182.459	91.422	98.325	98.875	105.810	192.153	105.029	-8191	255	
