BOXY.EXE: ISS Imagent and Oximeter Data Acquisition Program Version 0.80
Ascii Record File

#ACQ INFORMATION
2  Detector Channels 
16  External MUX Channels 
1  Auxiliary Channels 
5000  Waveform (CCF) Frequency (Hz)
1  Waveforms Skipped 
30  Waveforms Averaged 
1  Cycles Averaged 
16  Acquisitions per Waveform 
10.0806  Updata Rate (Hz) 

#FILE INFORMATION
TRUE -- External MUX Channel results are PARSED.
FALSE -- AC DC and Phase are NOT grouped.
TRUE -- Companion Program Settings File CREATED.
FALSE -- AC data not excluded
FALSE -- DC data not excluded
FALSE -- Phase data not excluded
FALSE -- Auxillary Chn. data not excluded
Tab delimiters

#CALIBRATION STATE
TRUE -- Waveform Calibration Values APPLIED.


#AUX CALIBRATION VALUES
Val Type	aux-1	

Term	1.0000e+00	
Factor	0.0000e+00	


#WF CALIBRATION VALUES
A = Detector Channel
Val Type	A-AC1	A-AC2	A-AC3	A-AC4	A-AC5	A-AC6	A-AC7	A-AC8	A-AC9	A-AC10	A-AC11	A-AC12	A-AC13	A-AC14	A-AC15	A-AC16	A-DC1	A-DC2	A-DC3	A-DC4	A-DC5	A-DC6	A-DC7	A-DC8	A-DC9	A-DC10	A-DC11	A-DC12	A-DC13	A-DC14	A-DC15	A-DC16	A-Ph1	A-Ph2	A-Ph3	A-Ph4	A-Ph5	A-Ph6	A-Ph7	A-Ph8	A-Ph9	A-Ph10	A-Ph11	A-Ph12	A-Ph13	A-Ph14	A-Ph15	A-Ph16	

Term	0.00000e+00	0.00000e+00	0.00000e+00	0.00000e+00	0.00000e+00	0.00000e+00	0.00000e+00	0.00000e+00	0.00000e+00	0.00000e+00	0.00000e+00	0.00000e+00	0.00000e+00	0.00000e+00	0.00000e+00	0.00000e+00	0.00000e+00	0.00000e+00	0.00000e+00	0.00000e+00	0.00000e+00	0.00000e+00	0.00000e+00	0.00000e+00	0.00000e+00	0.00000e+00	0.00000e+00	0.00000e+00	0.00000e+00	0.00000e+00	0.00000e+00	0.00000e+00	0.00000e+00	0.00000e+00	0.00000e+00	0.00000e+00	0.00000e+00	0.00000e+00	0.00000e+00	0.00000e+00	0.00000e+00	0.00000e+00	0.00000e+00	0.00000e+00	0.00000e+00	0.00000e+00	0.00000e+00	0.00000e+00	
Factor	1.00000e+00	1.00000e+00	1.00000e+00	1.00000e+00	1.00000e+00	1.00000e+00	1.00000e+00	1.00000e+00	1.00000e+00	1.00000e+00	1.00000e+00	1.00000e+00	1.00000e+00	1.00000e+00	1.00000e+00	1.00000e+00	1.00000e+00	1.00000e+00	1.00000e+00	1.00000e+00	1.00000e+00	1.00000e+00	1.00000e+00	1.00000e+00	1.00000e+00	1.00000e+00	1.00000e+00	1.00000e+00	1.00000e+00	1.00000e+00	1.00000e+00	1.00000e+00	X	X	X	X	X	X	X	X	X	X	X	X	X	X	X	X	

B = Detector Channel
Val Type	B-AC1	B-AC2	B-AC3	B-AC4	B-AC5	B-AC6	B-AC7	B-AC8	B-AC9	B-AC10	B-AC11	B-AC12	B-AC13	B-AC14	B-AC15	B-AC16	B-DC1	B-DC2	B-DC3	B-DC4	B-DC5	B-DC6	B-DC7	B-DC8	B-DC9	B-DC10	B-DC11	B-DC12	B-DC13	B-DC14	B-DC15	B-DC16	B-Ph1	B-Ph2	B-Ph3	B-Ph4	B-Ph5	B-Ph6	B-Ph7	B-Ph8	B-Ph9	B-Ph10	B-Ph11	B-Ph12	B-Ph13	B-Ph14	B-Ph15	B-Ph16	

Term	0.00000e+00	0.00000e+00	0.00000e+00	0.00000e+00	0.00000e+00	0.00000e+00	0.00000e+00	0.00000e+00	0.00000e+00	0.00000e+00	0.00000e+00	0.00000e+00	0.00000e+00	0.00000e+00	0.00000e+00	0.00000e+00	0.00000e+00	0.00000e+00	0.00000e+00	0.00000e+00	0.00000e+00	0.00000e+00	0.00000e+00	0.00000e+00	0.00000e+00	0.00000e+00	0.00000e+00	0.00000e+00	0.00000e+00	0.00000e+00	0.00000e+00	0.00000e+00	6.26660e+01	-1.60708e+02	-1.38034e+02	-1.81640e+02	-8.09839e+01	-1.13405e+02	-1.57973e+02	-1.62015e+02	-1.03025e+02	-8.37485e+01	-1.80409e+02	-1.70637e+02	-1.81506e+02	-1.76090e+02	-1.06331e+02	-1.49360e+02	
Factor	4.46417e-05	7.40306e-05	1.66068e-05	1.80300e-01	6.95920e-07	6.52801e-07	1.65304e-01	5.16653e-02	1.08927e-06	6.59530e-07	1.02996e-01	2.98071e-02	2.44284e-02	9.16901e-03	8.66652e-07	1.32262e-02	3.52392e-07	3.56068e-07	9.93150e-08	8.43590e-02	3.89487e-09	3.90538e-09	7.38614e-02	2.41382e-02	3.89876e-09	3.90770e-09	4.36374e-02	1.29438e-02	1.10597e-02	4.10157e-03	3.91558e-09	5.63340e-03	X	X	X	X	X	X	X	X	X	X	X	X	X	X	X	X	



#DISTANCE SETTINGS
A = Detector Channel
A-1	A-2	A-3	A-4	A-5	A-6	A-7	A-8	A-9	A-10	A-11	A-12	A-13	A-14	A-15	A-16	

2.5000e+00	3.0000e+00	2.5000e+00	3.0000e+00	2.0000e+00	3.0000e+00	1.5000e+00	3.0000e+00	3.0000e+00	3.0000e+00	3.0000e+00	3.0000e+00	3.0000e+00	3.0000e+00	1.5000e+00	3.0000e+00	

B = Detector Channel
B-1	B-2	B-3	B-4	B-5	B-6	B-7	B-8	B-9	B-10	B-11	B-12	B-13	B-14	B-15	B-16	

1.0000e+01	1.0000e+01	1.0000e+01	1.4400e+00	1.0000e+01	1.0000e+01	1.5100e+00	1.9400e+00	1.0000e+01	1.0000e+01	1.9900e+00	2.4900e+00	2.4100e+00	2.9000e+00	1.0000e+01	2.9800e+00	




#DATA BEGINS
time	group	step	mark	flag	A-AC1	A-AC2	A-AC3	A-AC4	A-AC5	A-AC6	A-AC7	A-AC8	A-AC9	A-AC10	A-AC11	A-AC12	A-AC13	A-AC14	A-AC15	A-AC16	A-DC1	A-DC2	A-DC3	A-DC4	A-DC5	A-DC6	A-DC7	A-DC8	A-DC9	A-DC10	A-DC11	A-DC12	A-DC13	A-DC14	A-DC15	A-DC16	A-Ph1	A-Ph2	A-Ph3	A-Ph4	A-Ph5	A-Ph6	A-Ph7	A-Ph8	A-Ph9	A-Ph10	A-Ph11	A-Ph12	A-Ph13	A-Ph14	A-Ph15	A-Ph16	B-AC1	B-AC2	B-AC3	B-AC4	B-AC5	B-AC6	B-AC7	B-AC8	B-AC9	B-AC10	B-AC11	B-AC12	B-AC13	B-AC14	B-AC15	B-AC16	B-DC1	B-DC2	B-DC3	B-DC4	B-DC5	B-DC6	B-DC7	B-DC8	B-DC9	B-DC10	B-DC11	B-DC12	B-DC13	B-DC14	B-DC15	B-DC16	B-Ph1	B-Ph2	B-Ph3	B-Ph4	B-Ph5	B-Ph6	B-Ph7	B-Ph8	B-Ph9	B-Ph10	B-Ph11	B-Ph12	B-Ph13	B-Ph14	B-Ph15	B-Ph16	aux-1	digaux	

7022.353	1	1	0	256	0.02107	0.39878	0.1383	0.053724	0.1742	0.21206	0.35118	0.073458	0.1227	0.22712	0.12302	0.29209	0.26935	0.13693	0.23286	0.14491	-2.425	-1.9979	-2.7604	-2.7604	-2.2646	-2.8417	-2.6583	-2.3729	-2.8208	-2.175	-2.6042	-2.3833	-2.2521	-2.7125	-2.4021	-2.3604	380.246	112.021	262.492	367.561	367.424	417.032	391.923	212.288	195.957	88.890	292.599	90.388	357.357	391.098	260.140	373.820	0.00072697	0.00028015	3.2012e-05	1077	1.1395e-06	2.2557e-07	1176.3	232.97	4.9487e-06	1.1483e-06	294.81	83.266	65.472	19.648	2.7033e-06	27.247	4.6754e-05	4.1127e-05	1.2439e-05	978.96	4.8569e-07	4.4149e-07	1074.9	212.81	4.8737e-07	4.5859e-07	253.92	73.692	57.964	17.551	5.3125e-07	23.885	359.624	117.379	169.255	81.069	295.746	177.363	81.157	89.002	215.567	181.190	88.373	95.182	95.462	102.486	218.688	101.939	-8191	255	
7022.474	1	1	0	0	0.20637	0.14383	0.12463	0.069073	0.22316	0.226	0.32786	0.21569	0.12801	0.10769	0.10338	0.25011	0.098101	0.035125	0.13629	0.10885	-2.3688	-1.9521	-2.5667	-2.625	-2.2167	-2.7542	-2.4604	-2.1771	-2.7188	-2.3875	-2.4708	-2.8021	-2.0563	-2.7188	-2.3917	-2.3021	413.531	107.165	368.987	117.668	313.374	248.378	351.728	405.066	402.247	144.164	418.577	405.066	360.356	362.374	249.291	194.594	0.00056668	0.00027119	2.525e-05	1085	2.0301e-06	1.3551e-06	1172.5	234.25	3.115e-06	6.9439e-07	295.07	84.37	65.805	19.862	1.5748e-06	27.358	4.6708e-05	4.3017e-05	1.3543e-05	982.79	4.9879e-07	4.7934e-07	1076.7	213.48	4.921e-07	4.87e-07	254.57	74.129	58.165	17.762	5.7339e-07	23.944	356.851	173.456	394.185	81.127	185.215	138.592	81.091	88.780	128.149	158.577	88.429	95.037	95.504	101.765	205.386	101.684	-8191	255	
7022.570	1	1	0	0	0.18164	0.31858	0.11978	0.053459	0.21495	0.11297	0.15979	0.46083	0.13397	0.15491	0.30644	0.19292	0.21412	0.049353	0.20305	0.24276	-2.2896	-2.1146	-2.3187	-2.8	-1.8354	-2.8125	-2.6521	-2.225	-2.9021	-2.1958	-2.5083	-2.8021	-2.1833	-2.4292	-2.6271	-2.2438	177.340	184.061	306.334	364.042	380.664	174.017	351.118	135.518	271.908	252.462	382.805	367.608	149.557	240.526	183.360	428.290	0.0007003	0.00018512	4.0325e-05	1087.5	8.1826e-07	1.8901e-06	1177	235.7	1.5461e-06	1.4569e-06	293.89	83.968	65.621	19.696	2.168e-06	27.012	4.9057e-05	4.558e-05	1.4584e-05	983.73	5.0496e-07	5.2687e-07	1078.4	214.21	5.1353e-07	5.5353e-07	254.88	74.109	58.109	17.695	6.8797e-07	24.014	360.820	177.598	173.603	81.109	114.944	138.812	81.261	88.687	233.403	211.133	88.281	94.982	95.726	102.319	163.843	101.463	-8191	255	
7022.666	1	1	0	0	0.12207	0.23608	0.062809	0.32877	0.18026	0.25301	0.4441	0.32727	0.15373	0.22854	0.041999	0.098425	0.2443	0.1617	0.1311	0.18606	-2.2917	-2.3875	-2.1917	-2.9146	-2.0625	-2.4979	-2.8417	-2.2375	-2.8417	-2.4583	-2.2625	-2.875	-2.2542	-2.4708	-2.5271	-2.3063	251.583	337.293	374.916	402.198	284.465	72.987	371.452	253.057	205.937	173.634	175.180	98.510	73.556	389.784	113.963	367.569	0.00068851	0.00051093	2.2143e-05	1083.9	3.6589e-06	1.1241e-06	1176.4	233.18	1.8123e-06	1.2576e-06	295.73	83.845	65.821	19.714	2.5542e-06	27.213	5.9897e-05	6.4347e-05	1.7982e-05	985.53	6.2285e-07	7.0122e-07	1079.6	214.24	6.259e-07	7.1389e-07	256.52	74.171	58.251	17.767	6.3375e-07	23.909	340.422	112.635	204.465	81.187	239.464	218.708	80.899	88.538	181.292	146.646	88.178	95.103	95.618	102.301	188.521	101.482	-8191	255	
7022.762	1	1	0	0	0.18792	0.09708	0.080522	0.3626	0.19248	0.15786	0.068871	0.17105	0.17871	0.1528	0.063643	0.20408	0.13983	0.068956	0.049756	0.2059	-2.1333	-2.5187	-2.2542	-2.9313	-2.1771	-2.4062	-2.8646	-2.15	-2.5729	-2.575	-2.1958	-2.7708	-2.1958	-2.4167	-2.65	-2.0333	213.357	142.913	125.967	353.724	345.435	163.319	290.909	417.372	364.334	175.808	301.803	369.250	167.930	335.121	184.357	420.185	0.00059464	0.00016673	5.84e-05	1087	2.7667e-06	1.1903e-06	1175.2	234.37	2.4874e-06	8.5881e-07	294.37	83.416	65.098	19.589	2.0622e-06	26.923	5.3572e-05	5.7825e-05	1.5047e-05	983.22	5.6152e-07	6.1994e-07	1076.3	213.29	5.4515e-07	6.1491e-07	254.12	73.453	57.878	17.616	5.5587e-07	23.76	347.584	140.343	159.721	81.169	178.424	135.213	81.010	88.949	165.627	328.760	88.446	95.140	95.842	102.021	129.156	101.765	-8191	255	
7022.881	1	1	0	0	0.10224	0.038048	0.087052	0.32821	0.067478	0.41488	0.15219	0.21875	0.49411	0.159	0.28024	0.14296	0.31827	0.32347	0.14908	0.095238	-1.975	-2.6375	-2.0875	-2.8187	-2.3021	-2.2687	-2.8937	-1.8521	-2.6542	-2.5021	-2.2042	-3.0521	-2.2792	-2.4625	-2.7562	-2.175	129.000	386.652	113.110	390.974	259.018	257.971	427.854	128.225	227.379	110.609	84.918	72.734	268.151	165.606	85.555	129.321	0.00075846	0.00016897	4.8678e-05	1087.7	1.1556e-06	2.6768e-06	1177	233.9	4.5063e-06	1.9215e-06	296.55	83.799	65.603	19.626	2.1976e-06	26.934	5.395e-05	5.4142e-05	1.3759e-05	984.12	5.6773e-07	5.9063e-07	1076.7	213.17	5.6463e-07	5.7349e-07	254.48	73.725	58.162	17.614	5.1293e-07	23.709	347.751	423.909	130.252	81.312	233.652	167.248	81.135	88.729	197.834	273.682	88.232	95.431	95.402	102.353	148.032	102.022	-8191	255	
7022.953	1	1	0	0	0.13872	0.11758	0.33781	0.14393	0.23	0.049999	0.28036	0.24353	0.17977	0.19328	0.12886	0.044904	0.11945	0.31311	0.24954	0.19653	-2.2792	-2.8104	-1.9208	-2.9229	-2.4396	-2.3812	-3.0833	-2.1312	-2.3896	-2.625	-2.2042	-2.7167	-2.6292	-2.2062	-2.9521	-2.0354	313.889	280.130	401.958	385.288	189.966	350.260	365.817	399.470	398.021	427.382	390.594	176.191	399.879	292.271	396.255	229.698	0.00068064	0.00016348	4.2195e-05	1083.5	3.2741e-06	1.9245e-06	1180.3	232.75	3.3915e-06	7.6808e-07	294.45	83.256	65.196	19.485	3.1422e-06	26.762	5.4576e-05	5.1117e-05	1.3158e-05	983.79	5.7643e-07	5.524e-07	1076.4	212.63	5.6994e-07	5.3014e-07	253.34	73.328	57.95	17.424	4.9451e-07	23.681	358.799	116.990	145.559	81.212	206.327	242.014	81.113	88.863	232.770	179.434	88.652	95.505	95.201	102.235	222.487	101.820	-8191	255	
7023.049	1	1	0	0	0.12668	0.1223	0.2361	0.19392	0.14593	0.3118	0.30098	0.12981	0.10989	0.068122	0.16495	0.11234	0.11471	0.16702	0.15268	0.1491	-2.0687	-2.6354	-2.1708	-2.8729	-2.5521	-2.1208	-3.0062	-2.2792	-2.6021	-2.7729	-2.2438	-2.5833	-2.5417	-2.025	-2.9021	-2.4125	418.995	319.743	88.294	372.842	149.238	336.447	327.824	296.676	242.776	262.697	416.745	298.449	284.940	350.283	361.869	250.193	0.00076528	0.0001263	3.3076e-05	1080.9	3.2539e-06	1.2915e-06	1173.6	233.76	3.0651e-06	1.9207e-06	295.09	83.727	64.974	19.356	8.6511e-07	26.667	5.6187e-05	4.8244e-05	1.2887e-05	981.12	5.8892e-07	5.2814e-07	1072.9	212.58	5.8658e-07	5.2274e-07	253.11	73.513	57.767	17.424	4.8524e-07	23.713	363.249	128.244	190.923	81.227	202.299	261.118	81.056	88.467	251.828	202.800	88.081	95.189	95.360	102.178	125.751	101.981	-8191	255	
7023.170	1	1	0	0	0.33261	0.13923	0.21346	0.3398	0.21924	0.15454	0.11128	0.11814	0.32578	0.021485	0.13137	0.23646	0.039431	0.44093	0.076226	0.20338	-1.8458	-2.7812	-2.1208	-2.7521	-2.6292	-2.2438	-2.9521	-2.4875	-2.5125	-2.7875	-2.3625	-2.5812	-2.7229	-2.0812	-2.7438	-2.4604	205.410	303.097	156.824	380.043	173.850	109.047	344.073	387.524	253.088	429.888	428.906	322.498	71.990	332.245	152.359	86.554	0.000572	0.00024428	4.4104e-05	1077.1	5.7911e-07	4.8806e-07	1166.5	232.39	1.9062e-06	1.2529e-06	292.28	83.355	65.207	19.55	4.273e-06	26.813	5.4332e-05	4.6461e-05	1.235e-05	981.54	5.5865e-07	5.0565e-07	1071.5	212.14	5.4858e-07	4.9696e-07	252.41	73.466	57.708	17.427	4.8883e-07	23.711	362.052	138.843	124.395	81.040	250.306	202.481	81.158	88.752	114.434	179.977	88.174	95.230	95.282	102.086	247.593	101.762	-8191	255	
7023.266	1	1	0	0	0.31328	0.24604	0.074247	0.31625	0.10758	0.081176	0.12725	0.28589	0.39179	0.20277	0.19018	0.045243	0.15476	0.24655	0.20843	0.16597	-1.8208	-2.8833	-2.1562	-2.775	-2.7792	-1.9792	-2.8417	-2.4792	-2.1979	-2.8917	-2.3146	-2.5062	-2.7062	-2.1375	-2.6271	-2.5875	189.688	237.065	131.438	395.852	178.260	100.059	418.187	301.590	110.185	215.229	236.970	88.037	424.546	376.356	397.805	223.764	0.00067464	0.0001048	3.2248e-05	1084.8	4.7618e-07	2.107e-06	1170.8	232.35	2.0648e-06	7.9552e-07	292.99	83.77	65.114	19.347	1.5393e-06	26.84	5.3037e-05	4.5104e-05	1.2619e-05	982.53	5.259e-07	4.9008e-07	1070.9	212.21	5.2082e-07	4.7052e-07	252.84	73.494	57.557	17.294	5.0167e-07	23.589	361.247	271.814	173.081	81.137	245.608	207.088	81.087	88.947	232.525	202.482	88.767	95.059	95.540	102.381	186.108	101.914	-8191	255	
7023.362	1	1	0	0	0.067482	0.016397	0.072605	0.30642	0.060674	0.25347	0.19161	0.1674	0.1011	0.21444	0.19677	0.11747	0.19472	0.37708	0.098461	0.16153	-1.6604	-2.8583	-2.2042	-2.5812	-2.5854	-2.2188	-2.8375	-2.7542	-2.0104	-2.8896	-2.3146	-2.5979	-2.8354	-2.3396	-2.4625	-2.6625	310.200	378.676	156.115	425.359	163.359	367.790	340.151	372.783	343.956	128.506	429.430	416.242	322.154	374.697	404.287	366.382	0.00065737	0.00020373	3.3621e-05	1073.6	1.6422e-06	2.6979e-06	1168.5	231.95	1.3415e-06	1.5234e-06	294.65	82.626	64.603	19.207	4.1097e-06	26.606	4.8935e-05	4.2721e-05	1.2997e-05	976.21	5.0197e-07	4.7314e-07	1069.4	211.43	5.1291e-07	4.6822e-07	252.44	73.052	57.255	17.199	5.3054e-07	23.462	366.551	95.124	142.743	81.201	146.089	251.471	81.157	88.849	175.966	212.319	88.282	95.212	95.799	102.537	202.919	101.300	-8191	255	
7023.483	1	1	0	0	0.089442	0.0089852	0.24221	0.18326	0.062653	0.11057	0.08382	0.20272	0.09684	0.10187	0.20032	0.07211	0.063221	0.24929	0.2435	0.17589	-1.7354	-2.4375	-2.4271	-2.35	-2.9208	-2.1542	-2.6813	-2.7458	-2.1771	-2.7771	-2.5312	-2.1688	-2.7479	-2.3708	-2.4792	-2.7021	429.108	146.497	80.938	391.370	197.673	154.734	87.181	388.815	303.331	386.746	420.708	260.661	403.306	132.290	282.247	177.110	0.00055874	0.00020148	5.2548e-05	1066.9	3.4715e-06	2.8588e-06	1161.5	229.89	3.083e-06	1.0648e-06	290.38	82.21	63.894	18.986	2.3668e-06	26.391	4.7304e-05	4.1543e-05	1.3431e-05	972.76	4.7165e-07	4.5444e-07	1063.5	209.53	4.7995e-07	4.575e-07	250.27	72.252	56.411	17.012	5.3189e-07	23.276	355.964	128.898	104.306	81.211	211.055	117.801	81.219	89.215	193.238	196.945	88.462	95.470	95.683	102.374	153.904	102.239	-8191	255	
7023.579	1	1	0	0	0.14438	0.059972	0.23726	0.52368	0.129	0.16142	0.22614	0.32661	0.1551	0.065973	0.28803	0.20374	0.17164	0.21406	0.19668	0.36127	-1.6021	-2.5917	-2.3438	-2.3104	-2.7083	-2.1625	-2.5208	-2.8375	-2.0396	-2.6625	-2.525	-2.2604	-2.8521	-2.1396	-2.4792	-2.8771	347.037	151.289	424.583	373.919	423.875	312.764	88.924	360.750	406.851	272.641	344.193	87.042	216.060	428.820	378.203	377.900	0.00074981	0.00029226	1.5157e-05	1068.7	1.0301e-06	1.9466e-06	1153.5	227.68	4.0159e-06	2.0288e-06	286.05	81.158	63.455	18.815	3.3527e-06	26.176	4.5519e-05	4.1808e-05	1.3091e-05	964.93	4.4367e-07	4.765e-07	1054.6	206.98	4.5481e-07	4.6624e-07	247.05	71.316	55.889	16.779	5.0219e-07	22.946	354.045	125.761	157.598	81.184	215.315	185.872	81.125	88.693	187.680	259.557	88.389	95.635	95.817	102.553	193.345	102.121	-8191	255	
7023.651	1	1	0	0	0.15435	0.21859	0.098182	0.29534	0.13493	0.135	0.21275	0.15458	0.11955	0.20742	0.10767	0.26902	0.23734	0.17544	0.08494	0.23534	-1.6187	-2.5271	-2.6229	-2.0729	-2.9271	-2.4125	-2.4479	-2.8208	-2.0438	-2.5896	-2.9854	-2.275	-2.5438	-2.4417	-2.1792	-2.9667	76.467	137.179	105.879	71.317	388.426	277.956	396.473	416.356	369.559	181.259	168.174	232.415	239.711	374.431	165.681	411.533	0.00053253	0.00028849	1.8009e-05	1056.4	2.8289e-06	3.2074e-07	1144.3	226.16	2.5057e-06	5.2103e-07	285.6	80.53	62.865	18.639	1.6266e-06	26.124	4.2493e-05	4.3661e-05	1.2323e-05	957.38	4.2461e-07	4.8008e-07	1047.2	205.18	4.3517e-07	4.7297e-07	245.15	70.785	55.514	16.686	4.6883e-07	22.757	356.935	107.663	209.490	80.950	260.491	156.495	81.193	89.042	159.154	188.497	88.695	95.624	96.087	103.020	427.164	102.385	-8191	255	
7023.771	1	1	0	0	0.27955	0.2067	0.078213	0.21211	0.17372	0.11517	0.297	0.22761	0.061387	0.075352	0.18364	0.13309	0.21053	0.33041	0.099656	0.085052	-1.8062	-2.4271	-2.6146	-2.2042	-2.7104	-2.3979	-2.3417	-3.0146	-2.3083	-2.3667	-2.8333	-2.1125	-2.8583	-2.4458	-2.35	-2.6917	374.531	271.737	122.972	348.669	244.711	142.009	380.794	419.526	416.949	231.414	86.031	409.843	359.116	410.714	244.127	110.412	0.00055587	0.00018605	3.7318e-05	1049.6	2.6234e-06	1.2335e-06	1142.3	223.97	3.9761e-06	3.1594e-07	284.82	80.125	63.009	18.522	1.7517e-06	26.108	4.16e-05	4.4623e-05	1.1785e-05	950.76	4.3546e-07	4.9075e-07	1043	203.76	4.3863e-07	4.8402e-07	244.32	70.576	55.353	16.592	4.5585e-07	22.728	354.115	152.253	227.284	81.264	173.125	167.457	81.074	89.064	180.364	229.111	88.656	95.535	95.608	102.978	149.594	102.225	-8191	255	
7023.866	1	1	0	0	0.16273	0.28113	0.13935	0.23201	0.21496	0.23327	0.1207	0.21242	0.18961	0.15584	0.056618	0.065143	0.16541	0.020753	0.13754	0.14284	-1.9625	-2.2292	-2.7583	-2.1042	-2.6937	-2.5563	-2.0187	-2.95	-2.4813	-2.4292	-2.8604	-2.2583	-2.4021	-2.7792	-1.9604	-2.9021	273.655	205.962	207.660	404.546	324.104	183.146	401.809	343.738	388.066	361.713	357.082	430.035	251.012	224.518	292.298	373.394	0.0006762	0.00032497	1.6505e-05	1049.1	3.0248e-06	6.5698e-07	1138.7	224.59	5.9992e-06	2.8794e-06	284.1	80.586	62.806	18.57	2.1529e-06	25.858	4.4498e-05	4.3643e-05	1.105e-05	949.79	4.5604e-07	4.7512e-07	1038.8	203.52	4.6872e-07	4.686e-07	244.14	70.635	55.408	16.595	4.4089e-07	22.65	363.617	134.371	205.137	81.405	218.081	104.779	81.206	89.070	203.663	240.844	88.710	95.639	95.734	102.740	183.575	102.222	-8191	255	
7023.962	1	1	0	0	0.27868	0.24663	0.052977	0.23751	0.026538	0.19181	0.39649	0.1794	0.14886	0.15742	0.23737	0.20799	0.15026	0.041657	0.14444	0.11653	-1.9833	-2.4188	-2.6562	-2.4688	-2.5312	-2.6063	-2.0938	-2.675	-2.2979	-2.3833	-2.8083	-2.2667	-2.4792	-2.5583	-2.1229	-2.6937	332.999	351.442	266.943	393.060	84.786	167.939	304.094	382.698	105.211	123.301	103.640	109.178	307.826	186.266	270.297	283.602	0.00062936	5.3735e-05	3.7721e-05	1046.9	1.6103e-06	2.8487e-06	1135.7	225.27	4.9211e-06	1.5195e-06	284.63	80.287	62.648	18.452	2.6347e-06	25.878	4.5828e-05	4.2337e-05	1.0765e-05	948.77	4.9111e-07	4.5021e-07	1038.4	203.61	4.8981e-07	4.5133e-07	243.76	70.502	55.406	16.545	4.2128e-07	22.696	350.951	78.886	118.939	81.299	188.044	201.141	81.139	89.099	197.818	230.620	88.806	95.425	95.693	102.755	174.419	102.146	-8191	255	
7024.058	1	1	0	0	0.094376	0.20333	0.12545	0.32223	0.11909	0.14259	0.18139	0.41496	0.35364	0.080419	0.088656	0.14124	0.29113	0.076067	0.13787	0.23502	-1.9979	-2.0938	-2.9396	-2.3354	-2.3521	-2.9125	-2.3979	-2.7271	-2.5542	-2.1021	-3.0229	-2.2417	-2.4437	-2.8396	-1.9792	-2.7208	160.794	254.336	180.829	313.088	315.324	188.883	406.438	390.504	209.051	153.353	145.954	214.391	371.008	172.444	114.352	362.873	0.00075011	0.00013086	5.562e-05	1051.1	5.7705e-07	9.1761e-07	1133.5	223.34	2.7041e-06	8.299e-07	283.35	80.151	62.548	18.495	3.0107e-06	25.906	4.7257e-05	4.0588e-05	1.0284e-05	948.08	4.8269e-07	4.3061e-07	1037.3	203.2	4.8012e-07	4.3324e-07	243.39	70.466	55.269	16.549	4.1592e-07	22.653	352.580	198.298	127.585	81.388	190.985	114.223	81.229	88.996	241.748	105.465	88.692	95.488	96.037	102.791	177.978	101.844	-8191	255	
