BOXY.EXE: ISS Imagent and Oximeter Data Acquisition Program Version 0.80
Ascii Record File

#ACQ INFORMATION
2  Detector Channels 
16  External MUX Channels 
1  Auxiliary Channels 
5000  Waveform (CCF) Frequency (Hz)
1  Waveforms Skipped 
30  Waveforms Averaged 
1  Cycles Averaged 
16  Acquisitions per Waveform 
10.0806  Updata Rate (Hz) 

#FILE INFORMATION
TRUE -- External MUX Channel results are PARSED.
FALSE -- AC DC and Phase are NOT grouped.
TRUE -- Companion Program Settings File CREATED.
FALSE -- AC data not excluded
FALSE -- DC data not excluded
FALSE -- Phase data not excluded
FALSE -- Auxillary Chn. data not excluded
Tab delimiters

#CALIBRATION STATE
TRUE -- Waveform Calibration Values APPLIED.


#AUX CALIBRATION VALUES
Val Type	aux-1	

Term	1.0000e+00	
Factor	0.0000e+00	


#WF CALIBRATION VALUES
A = Detector Channel
Val Type	A-AC1	A-AC2	A-AC3	A-AC4	A-AC5	A-AC6	A-AC7	A-AC8	A-AC9	A-AC10	A-AC11	A-AC12	A-AC13	A-AC14	A-AC15	A-AC16	A-DC1	A-DC2	A-DC3	A-DC4	A-DC5	A-DC6	A-DC7	A-DC8	A-DC9	A-DC10	A-DC11	A-DC12	A-DC13	A-DC14	A-DC15	A-DC16	A-Ph1	A-Ph2	A-Ph3	A-Ph4	A-Ph5	A-Ph6	A-Ph7	A-Ph8	A-Ph9	A-Ph10	A-Ph11	A-Ph12	A-Ph13	A-Ph14	A-Ph15	A-Ph16	

Term	0.00000e+00	0.00000e+00	0.00000e+00	0.00000e+00	0.00000e+00	0.00000e+00	0.00000e+00	0.00000e+00	0.00000e+00	0.00000e+00	0.00000e+00	0.00000e+00	0.00000e+00	0.00000e+00	0.00000e+00	0.00000e+00	0.00000e+00	0.00000e+00	0.00000e+00	0.00000e+00	0.00000e+00	0.00000e+00	0.00000e+00	0.00000e+00	0.00000e+00	0.00000e+00	0.00000e+00	0.00000e+00	0.00000e+00	0.00000e+00	0.00000e+00	0.00000e+00	0.00000e+00	0.00000e+00	0.00000e+00	0.00000e+00	0.00000e+00	0.00000e+00	0.00000e+00	0.00000e+00	0.00000e+00	0.00000e+00	0.00000e+00	0.00000e+00	0.00000e+00	0.00000e+00	0.00000e+00	0.00000e+00	
Factor	1.00000e+00	1.00000e+00	1.00000e+00	1.00000e+00	1.00000e+00	1.00000e+00	1.00000e+00	1.00000e+00	1.00000e+00	1.00000e+00	1.00000e+00	1.00000e+00	1.00000e+00	1.00000e+00	1.00000e+00	1.00000e+00	1.00000e+00	1.00000e+00	1.00000e+00	1.00000e+00	1.00000e+00	1.00000e+00	1.00000e+00	1.00000e+00	1.00000e+00	1.00000e+00	1.00000e+00	1.00000e+00	1.00000e+00	1.00000e+00	1.00000e+00	1.00000e+00	X	X	X	X	X	X	X	X	X	X	X	X	X	X	X	X	

B = Detector Channel
Val Type	B-AC1	B-AC2	B-AC3	B-AC4	B-AC5	B-AC6	B-AC7	B-AC8	B-AC9	B-AC10	B-AC11	B-AC12	B-AC13	B-AC14	B-AC15	B-AC16	B-DC1	B-DC2	B-DC3	B-DC4	B-DC5	B-DC6	B-DC7	B-DC8	B-DC9	B-DC10	B-DC11	B-DC12	B-DC13	B-DC14	B-DC15	B-DC16	B-Ph1	B-Ph2	B-Ph3	B-Ph4	B-Ph5	B-Ph6	B-Ph7	B-Ph8	B-Ph9	B-Ph10	B-Ph11	B-Ph12	B-Ph13	B-Ph14	B-Ph15	B-Ph16	

Term	0.00000e+00	0.00000e+00	0.00000e+00	0.00000e+00	0.00000e+00	0.00000e+00	0.00000e+00	0.00000e+00	0.00000e+00	0.00000e+00	0.00000e+00	0.00000e+00	0.00000e+00	0.00000e+00	0.00000e+00	0.00000e+00	0.00000e+00	0.00000e+00	0.00000e+00	0.00000e+00	0.00000e+00	0.00000e+00	0.00000e+00	0.00000e+00	0.00000e+00	0.00000e+00	0.00000e+00	0.00000e+00	0.00000e+00	0.00000e+00	0.00000e+00	0.00000e+00	2.93197e+01	-1.46832e+02	-1.39121e+02	-1.81086e+02	-9.40388e+01	-8.26987e+01	-1.58451e+02	-1.62015e+02	-4.88284e+01	-7.25510e+01	-1.70463e+02	-1.70388e+02	-1.82301e+02	-1.76731e+02	-5.84013e+01	-1.49945e+02	
Factor	5.48794e-05	1.85628e-04	4.36060e-05	1.70858e-01	1.72188e-06	1.61827e-06	1.82640e-01	6.30764e-02	2.27960e-06	1.44727e-06	1.00929e-01	3.45204e-02	2.99637e-02	1.05836e-02	1.66694e-06	1.51637e-02	2.09266e-06	2.19092e-06	6.07507e-07	8.53818e-02	2.38634e-08	2.39635e-08	8.56573e-02	3.13960e-02	2.38440e-08	2.39852e-08	4.84051e-02	1.65146e-02	1.48863e-02	5.27694e-03	2.38470e-08	7.29755e-03	X	X	X	X	X	X	X	X	X	X	X	X	X	X	X	X	



#DISTANCE SETTINGS
A = Detector Channel
A-1	A-2	A-3	A-4	A-5	A-6	A-7	A-8	A-9	A-10	A-11	A-12	A-13	A-14	A-15	A-16	

2.5000e+00	3.0000e+00	2.5000e+00	3.0000e+00	2.0000e+00	3.0000e+00	1.5000e+00	3.0000e+00	3.0000e+00	3.0000e+00	3.0000e+00	3.0000e+00	3.0000e+00	3.0000e+00	1.5000e+00	3.0000e+00	

B = Detector Channel
B-1	B-2	B-3	B-4	B-5	B-6	B-7	B-8	B-9	B-10	B-11	B-12	B-13	B-14	B-15	B-16	

1.0000e+01	1.0000e+01	1.0000e+01	1.4400e+00	1.0000e+01	1.0000e+01	1.5100e+00	1.9400e+00	1.0000e+01	1.0000e+01	1.9900e+00	2.4900e+00	2.4100e+00	2.9000e+00	1.0000e+01	2.9800e+00	




#DATA BEGINS
time	group	step	mark	flag	A-AC1	A-AC2	A-AC3	A-AC4	A-AC5	A-AC6	A-AC7	A-AC8	A-AC9	A-AC10	A-AC11	A-AC12	A-AC13	A-AC14	A-AC15	A-AC16	A-DC1	A-DC2	A-DC3	A-DC4	A-DC5	A-DC6	A-DC7	A-DC8	A-DC9	A-DC10	A-DC11	A-DC12	A-DC13	A-DC14	A-DC15	A-DC16	A-Ph1	A-Ph2	A-Ph3	A-Ph4	A-Ph5	A-Ph6	A-Ph7	A-Ph8	A-Ph9	A-Ph10	A-Ph11	A-Ph12	A-Ph13	A-Ph14	A-Ph15	A-Ph16	B-AC1	B-AC2	B-AC3	B-AC4	B-AC5	B-AC6	B-AC7	B-AC8	B-AC9	B-AC10	B-AC11	B-AC12	B-AC13	B-AC14	B-AC15	B-AC16	B-DC1	B-DC2	B-DC3	B-DC4	B-DC5	B-DC6	B-DC7	B-DC8	B-DC9	B-DC10	B-DC11	B-DC12	B-DC13	B-DC14	B-DC15	B-DC16	B-Ph1	B-Ph2	B-Ph3	B-Ph4	B-Ph5	B-Ph6	B-Ph7	B-Ph8	B-Ph9	B-Ph10	B-Ph11	B-Ph12	B-Ph13	B-Ph14	B-Ph15	B-Ph16	aux-1	digaux	

1847.749	1	1	0	256	0.035579	0.22917	0.20861	0.30051	0.1706	0.1812	0.15606	0.12294	0.12004	0.12414	0.25196	0.19283	0.23639	0.25294	0.31482	0.28188	-0.38542	-0.14375	-0.17292	-1.0792	0.016667	-0.56667	-0.81875	-0.1125	-0.87292	-0.15	-0.62917	-0.8875	0.01875	-0.67708	-0.52917	-0.064583	404.682	161.844	290.135	403.224	420.071	212.846	463.245	468.520	317.161	465.419	149.106	452.090	406.386	391.569	374.931	442.878	0.0016388	0.0011973	0.00014129	1410.5	1.0273e-05	4.0669e-06	1404.4	386.82	9.0407e-06	3.6491e-06	435.68	147.24	128.4	43.664	4.5933e-06	53.427	0.00051238	0.00056	0.00013931	1438.1	5.4956e-06	6.0937e-06	1430.8	393.67	5.7288e-06	6.3335e-06	445.97	149.32	130.52	45.223	5.8852e-06	55.071	338.442	157.891	243.117	134.780	199.209	290.480	134.656	139.250	284.117	314.175	138.632	143.372	143.590	148.434	265.854	147.213	-8191	255	
1847.869	1	1	0	0	0.15089	0.13625	0.060292	0.20737	0.060916	0.14134	0.29581	0.36729	0.1902	0.1215	0.10422	0.23242	0.2026	0.10715	0.074407	0.1787	-0.64792	-0.34375	-0.1375	-1.1688	-0.0083333	-0.74167	-0.78125	-0.0375	-0.69375	-0.42083	-0.14375	-0.97917	-0.28333	-0.53125	-0.75417	-0.0625	296.823	151.976	154.296	440.218	408.392	466.567	363.614	398.611	339.981	456.272	415.913	393.254	252.531	404.423	308.284	385.973	0.0018003	0.00057611	0.00019527	1410.2	8.4341e-06	7.3501e-06	1404.3	385.4	1.3271e-05	5.9399e-06	433.55	145.86	127.57	43.761	8.0811e-06	53.64	0.00058572	0.00059754	0.00014633	1438.2	6.3678e-06	6.4391e-06	1433.3	393.27	6.5452e-06	6.547e-06	445.09	149.02	130.92	45.238	5.9713e-06	55.258	338.765	235.120	236.644	134.691	259.506	262.690	134.484	139.468	290.451	218.789	138.888	143.074	143.280	148.294	293.230	147.024	-8191	255	
1847.941	1	1	0	0	0.19336	0.11416	0.21169	0.23272	0.15798	0.27438	0.33521	0.13541	0.14585	0.20492	0.26855	0.17585	0.049934	0.24408	0.2645	0.14088	-0.47292	-0.25833	-0.12708	-1.1375	0.045833	-0.50208	-0.96458	-0.10208	-0.8	-0.38333	-0.2	-1.0521	-0.125	-0.3	-0.72292	-0.083333	438.932	129.101	420.636	436.074	220.936	292.279	391.985	391.118	189.280	169.167	299.408	291.982	257.264	200.970	474.973	217.303	0.0015156	0.00055231	0.00017207	1412.9	6.6482e-06	6.4933e-06	1408	388.11	1.2995e-05	5.0856e-06	436.38	147.75	127.77	43.966	5.6292e-06	53.771	0.00062253	0.00058456	0.00014305	1443.1	6.5698e-06	6.0054e-06	1433.3	394.4	6.3583e-06	5.89e-06	444.21	149.68	130.89	45.205	5.3608e-06	55.357	337.171	264.560	230.716	134.841	229.499	285.671	134.335	139.234	286.144	276.032	138.830	143.502	143.431	148.218	261.555	147.114	-8191	255	
1848.037	1	1	0	0	0.21053	0.081157	0.33439	0.11519	0.21518	0.13815	0.25625	0.19524	0.147	0.34	0.27599	0.12932	0.22814	0.22977	0.32947	0.34145	-0.36458	-0.3875	-0.095833	-0.93958	-0.27708	-0.23958	-1.0375	-0.18542	-0.625	-0.55417	-0.12083	-0.94792	-0.24792	-0.35417	-0.94167	-0.033333	345.725	143.316	156.991	215.041	345.079	250.065	453.736	308.196	245.921	460.158	139.961	307.100	340.914	152.956	278.902	453.084	0.0016629	0.00059953	0.00012878	1409.8	4.0591e-06	9.1988e-06	1405.4	387.49	5.6828e-06	1.0854e-06	436.45	147.37	128.03	43.743	8.153e-06	53.844	0.00057707	0.00052105	0.0001313	1440.8	6.2515e-06	5.4824e-06	1432.4	394.62	6.0912e-06	5.6044e-06	443.91	149.82	130.87	45.117	5.3959e-06	55.476	342.980	200.184	226.805	134.732	309.929	269.951	134.401	139.316	339.250	288.099	138.493	143.141	143.404	148.362	266.865	147.347	-8191	255	
1848.133	1	1	0	0	0.13754	0.32129	0.2115	0.22653	0.2408	0.041595	0.14659	0.16441	0.24613	0.039256	0.18207	0.221	0.039055	0.18069	0.089527	0.06081	-0.33333	-0.49583	0.029167	-1.0271	-0.18958	-0.1	-0.9625	-0.275	-0.45	-0.69583	0.05	-0.69167	-0.35208	-0.31458	-0.75	-0.14792	236.713	479.603	134.737	166.061	207.127	446.911	197.382	300.022	362.103	286.442	124.115	438.947	196.398	397.392	460.571	418.744	0.0015511	0.0001315	0.00027604	1412	3.2957e-06	4.9726e-06	1408.7	387.64	1.2256e-05	7.633e-07	434.13	147.41	128.22	43.862	9.1699e-06	53.758	0.00057499	0.00051363	0.00013463	1441.5	6.1738e-06	5.4736e-06	1434.5	395.43	5.917e-06	5.5687e-06	444.19	150.17	130.8	45.086	5.5012e-06	55.548	341.192	229.388	207.526	134.852	245.528	302.153	134.601	139.528	295.466	139.682	138.908	142.913	143.705	148.308	223.583	146.901	-8191	255	
1848.254	1	1	0	0	0.19308	0.2705	0.23413	0.081457	0.12246	0.19682	0.16536	0.41382	0.2274	0.2748	0.34802	0.22416	0.17869	0.16678	0.060866	0.24383	0.029167	-0.56458	0.05625	-0.76875	-0.31875	0.21875	-1.2042	-0.12292	-0.35208	-0.84583	-0.26458	-0.69167	-0.59375	-0.12708	-0.79792	-0.30417	129.220	148.537	165.817	216.803	400.697	368.112	405.729	126.821	350.167	460.917	436.281	462.965	365.583	446.005	320.378	374.379	0.0014844	0.00045637	0.00019021	1411.4	2.5409e-06	5.9146e-07	1410.7	388.64	7.4871e-06	1.4372e-06	432.97	147.69	128.59	43.885	1.3636e-05	53.686	0.00054165	0.00049767	0.00013941	1444.5	5.7995e-06	5.2672e-06	1436.8	396.12	5.5204e-06	5.3206e-06	445.36	150.24	130.92	45.076	5.6367e-06	55.623	344.503	152.958	183.562	134.892	204.857	348.934	134.489	139.420	289.817	431.134	138.738	143.464	143.643	148.219	238.642	147.397	-8191	255	
1848.350	1	1	0	0	0.10953	0.18407	0.068947	0.36216	0.21016	0.17322	0.31596	0.12206	0.13929	0.25714	0.12129	0.10805	0.36443	0.28582	0.18095	0.3002	0.10833	-0.90208	0.12292	-0.80208	-0.60417	0.091667	-1.0021	-0.34167	-0.26667	-0.83333	-0.035417	-0.45833	-0.68958	0.0125	-0.66458	-0.35417	146.813	372.377	245.404	464.260	390.930	395.124	422.874	410.621	129.789	465.438	191.136	142.319	393.428	429.706	316.723	480.069	0.0014872	0.0008453	0.00016598	1412.7	7.7861e-06	4.8147e-06	1414.6	386.79	7.5702e-06	2.9401e-06	435.23	146.59	128.4	44.035	7.9726e-06	53.756	0.00051623	0.00048138	0.00014597	1443.7	5.5261e-06	5.1181e-06	1438.5	395.17	5.3715e-06	5.2032e-06	446.31	149.65	130.8	45.172	5.998e-06	55.539	344.884	219.270	133.610	134.882	205.278	268.545	134.760	139.220	255.369	253.632	138.522	143.454	143.701	148.087	279.418	146.979	-8191	255	
1848.445	1	1	0	0	0.30885	0.042945	0.16246	0.093131	0.10618	0.20095	0.22358	0.043363	0.13624	0.17201	0.22869	0.36684	0.17383	0.2259	0.43543	0.35675	0.15833	-0.89167	0.0041667	-0.64167	-0.64583	-0.029167	-0.83125	-0.425	-0.06875	-0.91875	-0.12708	-0.54792	-0.82917	0.23125	-0.82083	-0.54792	266.554	400.438	215.121	205.996	199.974	299.358	422.900	440.802	125.032	457.976	150.200	302.893	440.252	397.609	372.895	449.970	0.0015614	0.00065621	0.0001879	1419.4	1.8696e-06	6.565e-06	1410.3	387.44	6.0925e-06	6.4824e-06	434.98	147.2	128.23	43.801	5.923e-06	53.597	0.00050828	0.00048914	0.00015608	1444.7	5.4908e-06	5.2729e-06	1438.9	394.86	5.4175e-06	5.5714e-06	446.38	149.71	130.83	45.111	6.4524e-06	55.451	337.317	175.958	183.088	134.815	226.750	228.962	134.590	139.431	308.589	240.022	138.432	143.463	143.549	148.272	258.065	146.963	-8191	255	
1848.518	1	1	0	0	0.26673	0.35599	0.090831	0.25531	0.29512	0.12759	0.095333	0.32197	0.15972	0.16644	0.3262	0.13205	0.15212	0.23808	0.12144	0.20377	0.33333	-0.93542	-0.095833	-0.5	-0.53958	-0.16042	-0.9125	-0.62917	-0.010417	-0.75208	-0.39167	-0.39792	-0.99583	0.052083	-0.65208	-0.49375	238.712	284.100	280.635	437.711	419.281	444.248	422.960	418.648	179.872	231.476	441.259	421.630	123.650	405.728	265.095	448.564	0.0016866	0.00067344	0.00023775	1412.4	1.1339e-05	8.7797e-06	1410.2	386.94	1.2244e-05	4.3831e-06	435.08	147.31	128.47	43.755	5.8355e-06	53.505	0.00051989	0.00053508	0.0001677	1443.9	5.6837e-06	5.9209e-06	1439.5	395.15	5.4562e-06	6.0462e-06	446.54	149.61	130.59	45.175	6.1938e-06	55.352	341.178	183.707	197.258	134.918	221.028	225.726	134.498	139.397	279.181	229.943	138.631	143.175	143.570	147.984	272.289	147.219	-8191	255	
1848.637	1	1	0	0	0.29488	0.37569	0.27638	0.39695	0.21466	0.19661	0.18288	0.17428	0.29981	0.2745	0.096286	0.14882	0.18659	0.1934	0.16762	0.28285	0.35	-0.77708	-0.25417	-0.31667	-0.8	0.10833	-0.67292	-0.91667	-0.035417	-0.7625	-0.32708	-0.225	-1.1854	-0.16667	-0.37708	-0.65625	154.287	134.953	349.681	132.045	134.841	416.371	384.260	441.998	320.746	381.637	185.452	191.023	437.636	455.571	290.283	424.361	0.001552	0.0011392	0.00011241	1415.4	1.0858e-05	5.7394e-06	1411.9	387.74	6.9577e-06	4.986e-06	433.56	147.27	128.33	43.779	3.2306e-06	53.416	0.00051079	0.00056226	0.00015917	1441.7	5.5143e-06	6.2537e-06	1438.4	394.68	5.4176e-06	6.3302e-06	445.97	149.41	130.66	45.32	6.0509e-06	55.365	340.689	169.452	218.665	134.742	207.851	208.938	134.422	139.199	252.684	235.650	138.569	143.323	143.540	148.046	318.265	147.180	-8191	255	
1848.733	1	1	0	0	0.14374	0.066613	0.20946	0.3437	0.10512	0.31753	0.20794	0.17165	0.076612	0.35305	0.1311	0.20933	0.34338	0.031299	0.062493	0.40137	0.24167	-0.47917	-0.4375	-0.15833	-0.81875	-0.079167	-0.625	-0.7375	0.039583	-0.73542	-0.6375	-0.16667	-1.0958	-0.17917	-0.13542	-0.93542	327.746	392.877	265.959	389.450	444.885	166.150	123.238	139.420	296.816	344.867	390.333	410.509	455.340	452.882	404.725	196.769	0.0016365	0.00093329	9.467e-05	1416.2	9.8866e-06	2.2837e-06	1412.3	386.23	1.1817e-05	2.9593e-06	433.94	147.33	128.12	43.744	3.1942e-06	53.577	0.0005275	0.00059039	0.00015628	1444.1	5.7964e-06	6.6022e-06	1437.6	394.69	5.7922e-06	6.524e-06	445.81	149.51	130.77	45.341	5.8328e-06	55.323	337.965	189.686	202.623	134.712	209.104	192.275	134.582	139.332	296.620	259.016	138.454	143.261	143.648	148.088	243.766	147.219	-8191	255	
1848.829	1	1	0	0	0.25538	0.093629	0.1153	0.4559	0.2787	0.10021	0.09276	0.23818	0.33154	0.13393	0.13415	0.4214	0.12769	0.19667	0.17629	0.056163	0.30625	-0.75208	-0.56458	-0.072917	-0.88542	-0.09375	-0.48125	-0.83125	0.035417	-0.62083	-0.59583	0.027083	-0.93542	-0.43125	0.029167	-1.0271	407.720	228.063	410.248	422.665	224.513	181.197	149.790	380.283	206.494	125.141	299.796	473.331	321.703	446.333	243.645	180.188	0.0014848	0.00089168	0.00011354	1411.2	1.2521e-05	3.8676e-06	1410.6	387.44	1.2516e-05	2.4655e-06	434.97	147.45	128.35	43.67	8.7166e-06	53.462	0.00056172	0.00059034	0.00015001	1441.5	6.068e-06	6.4407e-06	1436.4	394.34	6.175e-06	6.3215e-06	444.9	149.42	131.05	45.218	5.6514e-06	55.298	342.834	180.523	228.562	134.762	241.505	299.641	134.499	139.273	282.232	316.947	138.625	143.407	143.718	148.134	304.916	147.334	-8191	255	
1848.950	1	1	0	0	0.14034	0.19281	0.14409	0.28488	0.31963	0.14747	0.1035	0.36422	0.13221	0.32248	0.16084	0.1614	0.24175	0.082138	0.076642	0.37328	0.1625	-0.62917	-0.69167	-0.079167	-0.68958	-0.26667	-0.40208	-1.0042	-0.083333	-0.36875	-0.9375	-0.22083	-0.68125	-0.58125	-0.08125	-0.98333	191.299	436.751	128.393	422.352	406.493	252.693	168.579	399.481	288.109	396.656	417.425	428.220	172.637	205.276	171.218	414.200	0.0016519	0.00094614	3.725e-05	1415.7	8.9425e-06	5.7048e-06	1413.3	385.88	4.5181e-06	1.6051e-06	435.07	147.24	128.94	43.578	6.3933e-06	53.452	0.00059916	0.00056272	0.00014564	1442.6	6.4459e-06	6.1214e-06	1437.5	394.26	6.425e-06	5.9744e-06	445.65	149.33	131.43	45.122	5.4486e-06	55.303	342.113	175.397	219.587	134.776	234.929	296.472	134.595	139.357	339.490	178.984	138.573	143.381	143.571	148.360	308.656	147.137	-8191	255	
1849.046	1	1	0	0	0.031206	0.039723	0.34189	0.36897	0.19048	0.18727	0.31222	0.13908	0.1774	0.25072	0.20063	0.20846	0.24018	0.048697	0.12617	0.44702	0.12292	-0.55625	-0.64583	-0.26875	-0.73125	-0.45833	-0.05	-0.96667	-0.28542	-0.40417	-1.0729	0.020833	-0.775	-0.375	-0.022917	-1.0333	460.783	245.257	440.274	446.673	265.065	479.558	365.710	149.401	228.243	396.351	450.898	478.569	172.677	290.650	465.933	394.950	0.0015731	0.00045104	0.0002524	1412.9	6.0938e-06	4.4281e-06	1412.9	387.67	6.3352e-06	3.8312e-06	434.08	147.17	128.01	43.783	5.8159e-06	53.597	0.00060855	0.0005351	0.00014234	1441.6	6.4267e-06	5.8904e-06	1436.3	395.03	6.4463e-06	5.7089e-06	444.73	149.68	131.09	45.201	5.3701e-06	55.425	337.386	288.945	192.327	134.752	245.799	240.546	134.494	139.442	298.539	266.607	138.743	143.467	143.619	148.141	322.047	147.327	-8191	255	
1849.118	1	1	0	0	0.099523	0.053122	0.22988	0.023742	0.31117	0.21316	0.33815	0.28856	0.42174	0.14222	0.088839	0.41075	0.16107	0.39518	0.27787	0.18919	0.079167	-0.075	-0.5125	0.0083333	-0.41875	-0.65	0.014583	-1.0688	-0.35625	-0.060417	-1.0104	-0.20625	-0.40833	-0.61042	-0.09375	-0.75417	410.118	419.188	434.163	394.554	323.063	342.328	428.034	435.485	441.917	411.020	125.407	437.577	406.585	134.023	394.815	139.919	0.0016997	0.00050451	0.00023129	1411.8	3.5023e-06	2.8903e-06	1411.6	388.65	8.3931e-06	6.003e-06	435.37	146.61	128	43.78	8.9116e-06	53.559	0.00060858	0.00052343	0.00014067	1443.4	6.2479e-06	5.8126e-06	1435.8	396.02	6.3801e-06	5.6757e-06	445.29	149.88	130.91	45.127	5.5239e-06	55.602	340.770	146.233	222.548	134.823	228.237	253.976	134.509	139.411	316.566	250.009	138.875	143.126	143.972	148.223	272.248	147.182	-8191	255	
1849.238	1	1	0	0	0.1524	0.11551	0.089402	0.25499	0.13875	0.11584	0.017835	0.19248	0.21592	0.043172	0.099025	0.21253	0.22715	0.16445	0.27876	0.14778	-0.016667	-0.17917	-0.7875	-0.17083	-0.41875	-0.73958	-0.072917	-0.77917	-0.45208	-0.1	-1.1104	-0.10417	-0.50625	-0.85625	0.17083	-0.6625	471.376	217.813	446.210	479.540	315.938	310.555	246.648	167.219	443.831	163.698	313.137	128.383	133.481	435.928	209.901	151.372	0.0014987	0.00082877	0.00014322	1409.4	4.2562e-06	4.0663e-06	1413.5	387.79	3.1994e-06	5.6771e-07	436.27	147.39	128.57	43.707	7.1525e-06	53.622	0.00058224	0.00051205	0.00014344	1444.7	6.069e-06	5.6919e-06	1437	396.17	6.0726e-06	5.5402e-06	445.11	150.19	130.84	45.171	5.8111e-06	55.581	340.505	224.503	181.777	134.585	259.157	279.487	134.537	139.412	255.428	412.085	138.854	143.103	143.793	148.278	217.912	147.395	-8191	255	
1849.334	1	1	0	0	0.10204	0.1802	0.12499	0.365	0.23227	0.032843	0.18856	0.22534	0.099435	0.2604	0.12943	0.30407	0.1486	0.086272	0.10581	0.13181	-0.14167	-0.010417	-0.8625	-0.2625	-0.16458	-0.90208	-0.26875	-0.59583	-0.5	-0.039583	-0.88958	-0.25	-0.28958	-0.9	0.020833	-0.52083	323.737	234.289	449.527	433.374	478.696	159.788	417.312	360.110	300.701	258.599	402.637	395.175	453.146	449.652	351.982	394.722	0.001585	0.00056536	0.00021844	1415.1	7.8827e-06	2.065e-06	1407.5	387.21	4.6514e-06	3.8122e-06	434.3	146.7	127.74	43.529	8.9174e-06	53.611	0.00056727	0.00049502	0.00015195	1448.2	5.8593e-06	5.5826e-06	1435.6	395.68	5.9287e-06	5.4423e-06	445.87	149.81	130.49	45.067	6.2883e-06	55.557	342.300	233.946	190.363	134.881	244.004	285.530	134.489	139.533	291.533	162.723	138.764	143.345	143.876	148.328	273.091	147.497	-8191	255	
1849.431	1	1	0	0	0.19645	0.18123	0.17692	0.28996	0.075052	0.24778	0.45094	0.24214	0.17564	0.31581	0.087382	0.037533	0.37581	0.10857	0.1098	0.34382	-0.39167	0.2	-0.80417	-0.59583	-0.25	-0.84583	-0.13542	-0.63125	-0.6375	0.022917	-1.0104	-0.48542	-0.095833	-0.87917	-0.10833	-0.52917	130.963	265.692	258.157	122.361	283.155	429.101	447.747	457.944	435.365	395.852	424.955	379.303	422.346	402.374	330.552	395.980	0.0015551	0.00058681	0.00025529	1410.3	8.8173e-07	4.4665e-06	1406.1	388.72	7.6931e-06	5.8502e-06	435.56	146.63	128.28	43.672	4.4455e-06	53.693	0.00056299	0.00050068	0.00016403	1443.3	5.7681e-06	5.6438e-06	1437.4	395.7	5.9538e-06	5.6197e-06	446.67	149.79	130.67	45.185	6.6546e-06	55.465	342.318	131.521	202.156	134.866	325.007	198.942	134.539	139.528	319.075	261.097	138.677	143.239	143.724	148.206	272.761	147.394	-8191	255	
