BOXY.EXE: ISS Imagent and Oximeter Data Acquisition Program Version 0.80
Ascii Record File

#ACQ INFORMATION
2  Detector Channels 
16  External MUX Channels 
1  Auxiliary Channels 
5000  Waveform (CCF) Frequency (Hz)
1  Waveforms Skipped 
30  Waveforms Averaged 
1  Cycles Averaged 
16  Acquisitions per Waveform 
10.0806  Updata Rate (Hz) 

#FILE INFORMATION
TRUE -- External MUX Channel results are PARSED.
FALSE -- AC DC and Phase are NOT grouped.
TRUE -- Companion Program Settings File CREATED.
FALSE -- AC data not excluded
FALSE -- DC data not excluded
FALSE -- Phase data not excluded
FALSE -- Auxillary Chn. data not excluded
Tab delimiters

#CALIBRATION STATE
TRUE -- Waveform Calibration Values APPLIED.


#AUX CALIBRATION VALUES
Val Type	aux-1	

Term	1.0000e+00	
Factor	0.0000e+00	


#WF CALIBRATION VALUES
A = Detector Channel
Val Type	A-AC1	A-AC2	A-AC3	A-AC4	A-AC5	A-AC6	A-AC7	A-AC8	A-AC9	A-AC10	A-AC11	A-AC12	A-AC13	A-AC14	A-AC15	A-AC16	A-DC1	A-DC2	A-DC3	A-DC4	A-DC5	A-DC6	A-DC7	A-DC8	A-DC9	A-DC10	A-DC11	A-DC12	A-DC13	A-DC14	A-DC15	A-DC16	A-Ph1	A-Ph2	A-Ph3	A-Ph4	A-Ph5	A-Ph6	A-Ph7	A-Ph8	A-Ph9	A-Ph10	A-Ph11	A-Ph12	A-Ph13	A-Ph14	A-Ph15	A-Ph16	

Term	0.00000e+00	0.00000e+00	0.00000e+00	0.00000e+00	0.00000e+00	0.00000e+00	0.00000e+00	0.00000e+00	0.00000e+00	0.00000e+00	0.00000e+00	0.00000e+00	0.00000e+00	0.00000e+00	0.00000e+00	0.00000e+00	0.00000e+00	0.00000e+00	0.00000e+00	0.00000e+00	0.00000e+00	0.00000e+00	0.00000e+00	0.00000e+00	0.00000e+00	0.00000e+00	0.00000e+00	0.00000e+00	0.00000e+00	0.00000e+00	0.00000e+00	0.00000e+00	0.00000e+00	0.00000e+00	0.00000e+00	0.00000e+00	0.00000e+00	0.00000e+00	0.00000e+00	0.00000e+00	0.00000e+00	0.00000e+00	0.00000e+00	0.00000e+00	0.00000e+00	0.00000e+00	0.00000e+00	0.00000e+00	
Factor	1.00000e+00	1.00000e+00	1.00000e+00	1.00000e+00	1.00000e+00	1.00000e+00	1.00000e+00	1.00000e+00	1.00000e+00	1.00000e+00	1.00000e+00	1.00000e+00	1.00000e+00	1.00000e+00	1.00000e+00	1.00000e+00	1.00000e+00	1.00000e+00	1.00000e+00	1.00000e+00	1.00000e+00	1.00000e+00	1.00000e+00	1.00000e+00	1.00000e+00	1.00000e+00	1.00000e+00	1.00000e+00	1.00000e+00	1.00000e+00	1.00000e+00	1.00000e+00	X	X	X	X	X	X	X	X	X	X	X	X	X	X	X	X	

B = Detector Channel
Val Type	B-AC1	B-AC2	B-AC3	B-AC4	B-AC5	B-AC6	B-AC7	B-AC8	B-AC9	B-AC10	B-AC11	B-AC12	B-AC13	B-AC14	B-AC15	B-AC16	B-DC1	B-DC2	B-DC3	B-DC4	B-DC5	B-DC6	B-DC7	B-DC8	B-DC9	B-DC10	B-DC11	B-DC12	B-DC13	B-DC14	B-DC15	B-DC16	B-Ph1	B-Ph2	B-Ph3	B-Ph4	B-Ph5	B-Ph6	B-Ph7	B-Ph8	B-Ph9	B-Ph10	B-Ph11	B-Ph12	B-Ph13	B-Ph14	B-Ph15	B-Ph16	

Term	0.00000e+00	0.00000e+00	0.00000e+00	0.00000e+00	0.00000e+00	0.00000e+00	0.00000e+00	0.00000e+00	0.00000e+00	0.00000e+00	0.00000e+00	0.00000e+00	0.00000e+00	0.00000e+00	0.00000e+00	0.00000e+00	0.00000e+00	0.00000e+00	0.00000e+00	0.00000e+00	0.00000e+00	0.00000e+00	0.00000e+00	0.00000e+00	0.00000e+00	0.00000e+00	0.00000e+00	0.00000e+00	0.00000e+00	0.00000e+00	0.00000e+00	0.00000e+00	-1.45959e+02	-1.30980e+02	-1.25157e+02	-1.82080e+02	-7.17741e+01	-6.95097e+01	-1.55766e+02	-1.62015e+02	-7.74156e+01	-6.88670e+01	-1.70942e+02	-1.70432e+02	-1.82993e+02	-1.76724e+02	-6.90137e+01	-1.49404e+02	
Factor	2.03209e-05	1.41488e-04	3.74525e-05	1.74853e-01	1.18439e-06	1.57894e-06	1.53863e-01	4.53265e-02	1.13898e-06	1.62005e-06	7.65132e-02	2.71161e-02	3.40376e-02	8.44743e-03	1.33393e-06	1.21964e-02	1.36066e-05	2.52670e-05	7.14622e-06	9.33528e-02	2.52174e-07	2.86787e-07	7.71164e-02	2.43145e-02	2.45725e-07	2.86025e-07	3.96700e-02	1.41238e-02	1.84396e-02	4.57171e-03	2.63143e-07	6.37821e-03	X	X	X	X	X	X	X	X	X	X	X	X	X	X	X	X	



#DISTANCE SETTINGS
A = Detector Channel
A-1	A-2	A-3	A-4	A-5	A-6	A-7	A-8	A-9	A-10	A-11	A-12	A-13	A-14	A-15	A-16	

2.5000e+00	3.0000e+00	2.5000e+00	3.0000e+00	2.0000e+00	3.0000e+00	1.5000e+00	3.0000e+00	3.0000e+00	3.0000e+00	3.0000e+00	3.0000e+00	3.0000e+00	3.0000e+00	1.5000e+00	3.0000e+00	

B = Detector Channel
B-1	B-2	B-3	B-4	B-5	B-6	B-7	B-8	B-9	B-10	B-11	B-12	B-13	B-14	B-15	B-16	

1.0000e+01	1.0000e+01	1.0000e+01	1.4400e+00	1.0000e+01	1.0000e+01	1.5100e+00	1.9400e+00	1.0000e+01	1.0000e+01	1.9900e+00	2.4900e+00	2.4100e+00	2.9000e+00	1.0000e+01	2.9800e+00	




#DATA BEGINS
time	group	step	mark	flag	A-AC1	A-AC2	A-AC3	A-AC4	A-AC5	A-AC6	A-AC7	A-AC8	A-AC9	A-AC10	A-AC11	A-AC12	A-AC13	A-AC14	A-AC15	A-AC16	A-DC1	A-DC2	A-DC3	A-DC4	A-DC5	A-DC6	A-DC7	A-DC8	A-DC9	A-DC10	A-DC11	A-DC12	A-DC13	A-DC14	A-DC15	A-DC16	A-Ph1	A-Ph2	A-Ph3	A-Ph4	A-Ph5	A-Ph6	A-Ph7	A-Ph8	A-Ph9	A-Ph10	A-Ph11	A-Ph12	A-Ph13	A-Ph14	A-Ph15	A-Ph16	B-AC1	B-AC2	B-AC3	B-AC4	B-AC5	B-AC6	B-AC7	B-AC8	B-AC9	B-AC10	B-AC11	B-AC12	B-AC13	B-AC14	B-AC15	B-AC16	B-DC1	B-DC2	B-DC3	B-DC4	B-DC5	B-DC6	B-DC7	B-DC8	B-DC9	B-DC10	B-DC11	B-DC12	B-DC13	B-DC14	B-DC15	B-DC16	B-Ph1	B-Ph2	B-Ph3	B-Ph4	B-Ph5	B-Ph6	B-Ph7	B-Ph8	B-Ph9	B-Ph10	B-Ph11	B-Ph12	B-Ph13	B-Ph14	B-Ph15	B-Ph16	aux-1	digaux	

947.344	1	1	0	768	0.11728	0.15031	0.17507	0.21777	0.36946	0.11965	0.085882	0.24893	0.063886	0.18521	0.27942	0.12238	0.092277	0.28548	0.14851	0.16887	-1.2042	-1.325	-2.0396	-1.5708	-1.5208	-2.1125	-1.4708	-2.2875	-1.9896	-1.3062	-2.3729	-1.675	-1.7167	-2.1771	-1.2458	-2.1521	117.523	419.870	213.033	344.760	189.958	287.793	381.280	316.421	367.961	233.496	401.511	383.812	216.219	424.200	314.018	86.270	0.00056993	0.00044844	0.00013709	1354.8	4.3239e-06	3.7073e-06	1357.2	369.42	5.3496e-06	4.9433e-06	420.36	140.59	122.17	42.045	5.1155e-06	51.886	0.000603	0.00057572	0.00015494	1377.7	6.3574e-06	6.4658e-06	1378.9	375.58	6.3269e-06	6.5416e-06	428.38	143.64	124.96	43.135	6.691e-06	53.326	152.159	161.780	176.709	91.189	228.028	227.059	91.358	95.737	223.740	240.794	95.460	99.673	100.208	104.305	227.620	103.716	-8191	255	
947.438	1	1	0	0	0.075129	0.026275	0.22391	0.11177	0.09805	0.1186	0.23498	0.35525	0.056368	0.20709	0.0038333	0.059415	0.32028	0.32935	0.098419	0.11335	-1.4937	-1.0875	-2.0229	-1.5438	-1.625	-2.1375	-1.3458	-2.1604	-1.7313	-1.25	-2.5083	-1.6896	-1.6146	-2.2896	-1.3521	-1.9958	303.308	106.003	373.962	377.921	222.681	294.254	402.411	398.795	220.721	111.789	215.987	391.292	413.266	101.769	293.469	237.380	0.00058354	0.0004709	0.00012907	1356.7	3.908e-06	5.425e-06	1361.7	369.7	5.5502e-06	3.6077e-06	421.04	140.43	122.85	41.881	6.7876e-06	51.649	0.00059937	0.00057998	0.00015941	1379.4	6.3038e-06	6.2621e-06	1380.6	375.86	6.2726e-06	6.3498e-06	429.21	143.46	125.14	43.104	6.5457e-06	53.307	148.493	168.908	166.933	91.148	229.741	233.043	91.201	95.962	218.390	222.442	95.486	99.469	99.964	104.711	230.033	104.180	-8191	255	
947.536	1	1	0	0	0.030746	0.22588	0.30467	0.41281	0.15422	0.25748	0.12889	0.27567	0.10613	0.14761	0.19922	0.072568	0.19259	0.11231	0.099644	0.11776	-1.5958	-1.3042	-2.0854	-1.8917	-1.3958	-2.4688	-1.5	-1.8417	-1.9583	-1.3854	-2.1	-1.9354	-1.6167	-2.3146	-1.3458	-1.6708	403.510	163.799	377.688	407.505	172.419	121.437	395.165	381.532	326.564	408.035	398.067	132.416	437.606	110.381	118.415	384.594	0.0005752	0.00061403	0.00010098	1362.3	3.8109e-06	6.1774e-06	1361.9	370.62	5.5476e-06	5.3291e-06	421.41	140.89	122.65	42.14	5.1385e-06	51.988	0.00058477	0.00059014	0.000161	1382	6.4042e-06	6.0052e-06	1383.5	376.47	6.2706e-06	6.6501e-06	429.74	143.87	125.29	43.273	6.5314e-06	53.475	151.858	178.027	156.111	91.237	229.968	214.861	91.328	96.137	225.774	236.479	95.226	99.617	100.298	104.761	226.858	104.239	-8191	255	
947.632	1	1	0	0	0.2221	0.10633	0.18052	0.24783	0.11559	0.13488	0.12767	0.3743	0.095013	0.11866	0.25652	0.11617	0.2184	0.32031	0.13063	0.34461	-1.6042	-1.3417	-1.9562	-1.9771	-1.2667	-2.1792	-1.6208	-1.8188	-2.2479	-1.2125	-2.3083	-2.0146	-1.425	-2.1667	-1.3563	-1.8438	80.272	180.187	126.527	113.973	323.809	375.861	371.890	410.396	160.592	147.866	411.682	372.784	365.963	382.299	181.019	427.405	0.0005774	0.00063856	0.00012075	1364.9	6.6111e-06	4.4503e-06	1364.5	370.84	4.9614e-06	4.3785e-06	420.2	140.99	123.08	42.09	5.0867e-06	51.778	0.00058166	0.00060514	0.00015769	1382.8	6.514e-06	6.2024e-06	1382.6	377.04	6.4395e-06	6.482e-06	429.82	143.85	125.49	43.225	6.5715e-06	53.315	150.225	167.717	188.517	91.178	218.336	224.981	91.069	95.933	208.003	228.702	95.364	99.620	100.120	104.880	218.175	104.310	-8191	255	
947.727	1	1	0	0	0.04837	0.2004	0.1458	0.29436	0.15018	0.086829	0.32958	0.23407	0.15847	0.18925	0.041697	0.12314	0.23802	0.38218	0.2585	0.075934	-1.6375	-1.0438	-2.1229	-2.1	-1.2979	-2.2104	-1.5771	-1.6625	-2.075	-1.2417	-2.025	-1.9792	-1.4125	-2.0917	-1.4125	-1.7	270.440	252.778	419.552	78.347	312.184	188.314	376.417	418.010	296.665	120.617	82.328	145.069	317.113	356.479	332.218	333.550	0.0006011	0.0005787	0.00012909	1364.5	5.6112e-06	5.0818e-06	1360.8	369.27	4.9519e-06	6.44e-06	420.97	141.53	122.66	41.93	4.4309e-06	51.825	0.00060289	0.00058698	0.00016837	1381.3	6.5239e-06	6.4419e-06	1382.2	376.07	6.1892e-06	6.5208e-06	429.27	143.65	125.03	43.162	6.3182e-06	53.379	150.569	164.574	158.404	91.298	220.364	205.396	91.081	95.908	228.185	231.249	95.529	99.599	100.032	104.788	227.962	104.267	-8191	255	
947.823	1	1	0	0	0.15459	0.093759	0.2894	0.40484	0.26808	0.097834	0.31225	0.091383	0.12442	0.37066	0.078138	0.3312	0.072639	0.062726	0.063906	0.075901	-1.7313	-1.1333	-1.6083	-2.1729	-1.2604	-1.8563	-1.875	-1.5646	-2.1167	-1.525	-1.8	-2.1688	-1.375	-1.9688	-1.6583	-1.5604	276.369	298.856	150.275	400.884	393.713	136.859	411.375	415.927	103.633	385.881	366.468	355.261	331.787	230.579	341.105	343.548	0.00058927	0.00040383	0.0001419	1363.1	4.8541e-06	4.0726e-06	1365.1	368.22	5.7254e-06	5.171e-06	420.02	140.68	121.9	41.897	4.6323e-06	51.645	0.00059308	0.00058909	0.00016389	1381.7	6.3889e-06	6.2364e-06	1381.1	375.52	6.1313e-06	6.6906e-06	428.34	143.42	124.87	42.995	6.4245e-06	53.173	151.403	164.937	176.151	91.363	224.539	228.694	91.035	96.078	230.885	201.787	95.242	99.711	100.199	104.735	222.824	104.226	-8191	255	
947.943	1	1	0	0	0.13977	0.20105	0.33595	0.15936	0.21277	0.21853	0.27943	0.17638	0.10727	0.043938	0.22649	0.22526	0.20335	0.16536	0.041407	0.23887	-1.625	-1.4354	-1.4458	-2.1917	-1.1917	-2.0062	-1.8813	-1.4833	-2.1458	-1.4729	-1.7229	-2.2146	-1.3625	-2.0292	-1.7458	-1.4021	326.540	373.875	272.325	300.299	292.458	296.026	375.176	291.355	147.150	113.829	117.803	331.109	131.370	425.315	229.551	418.773	0.00060131	0.00060226	9.9205e-05	1359.5	4.3828e-06	4.4935e-06	1356.6	368.2	4.6257e-06	6.965e-06	420.68	140.55	121.82	41.854	4.9263e-06	51.715	0.00058633	0.00055245	0.00015763	1378.3	6.0569e-06	6.2926e-06	1377.1	375	6.0039e-06	6.3289e-06	427.95	143.34	124.61	42.955	6.1992e-06	53.097	151.805	167.639	173.136	91.233	217.534	223.193	91.182	96.072	222.536	229.113	95.507	99.600	100.171	104.686	234.369	104.187	-8191	255	
948.040	1	1	0	0	0.0070027	0.22868	0.2519	0.10098	0.22064	0.033346	0.10028	0.2493	0.16294	0.21205	0.20504	0.058205	0.15947	0.085956	0.28593	0.29159	-1.7479	-1.4604	-1.3062	-2.2792	-1.1	-1.7833	-2.1667	-1.2708	-2.1604	-1.6292	-1.5292	-2.2833	-1.4125	-1.8479	-1.9312	-1.3583	311.261	408.300	238.910	103.841	422.780	296.175	416.708	352.753	290.852	285.529	314.828	386.646	234.268	285.297	337.380	416.706	0.00059997	0.00047061	0.00011686	1364.5	4.5179e-06	3.7725e-06	1354.5	368.03	5.3624e-06	4.5685e-06	418.78	140.16	122.07	41.708	3.8343e-06	51.901	0.00058528	0.00056945	0.00016161	1381.3	6.0122e-06	6.2848e-06	1377	374.86	6.201e-06	6.2282e-06	427.3	143.15	124.53	42.89	5.9734e-06	53.175	150.913	175.923	178.416	91.323	229.611	234.880	91.076	95.871	224.903	215.860	95.594	99.911	100.281	104.982	246.061	104.068	-8191	255	
948.136	1	1	0	0	0.2142	0.21041	0.06317	0.39842	0.14161	0.086405	0.36843	0.13016	0.14836	0.14624	0.11707	0.20907	0.37981	0.43821	0.27812	0.51113	-1.6604	-1.525	-1.4208	-2.4	-1.3542	-1.8292	-2.4896	-1.375	-2.0104	-1.5875	-1.2354	-2.3396	-1.4646	-1.8479	-2.0354	-1.3979	385.126	344.269	284.951	395.377	266.904	79.522	367.858	386.996	336.653	214.873	328.557	369.261	273.202	370.198	208.753	388.914	0.0005924	0.00045704	9.0022e-05	1352.7	5.148e-06	4.8637e-06	1353	366.83	4.5398e-06	5.7786e-06	418.9	140.72	122.1	41.878	3.8023e-06	51.479	0.00058174	0.00056208	0.00015996	1374.6	6.3437e-06	5.9215e-06	1375.7	374.06	6.1605e-06	6.314e-06	427.35	143.22	124.43	42.909	6.0452e-06	52.997	150.786	171.637	169.741	91.391	233.866	225.876	91.199	95.841	222.514	238.279	95.460	99.600	100.272	105.023	246.351	104.326	-8191	255	
948.232	1	1	0	0	0.089195	0.09653	0.12309	0.19987	0.25162	0.086138	0.077875	0.16168	0.10642	0.20237	0.23096	0.12916	0.10112	0.17236	0.17407	0.079339	-1.5917	-1.7646	-1.5187	-2.2396	-1.4188	-1.3917	-2.4313	-1.4625	-1.8333	-2.0229	-1.6208	-2.4167	-1.3729	-1.5896	-1.9896	-1.2958	393.469	289.140	138.353	325.917	384.847	151.076	309.767	208.818	289.111	108.021	374.777	387.106	110.417	118.753	87.898	434.436	0.00057325	0.0004582	0.00010122	1357.3	4.9629e-06	4.8711e-06	1360.6	367.34	5.0352e-06	5.2537e-06	419.64	140.43	121.39	41.639	5.6964e-06	51.731	0.00059316	0.00055135	0.00015481	1378	6.1436e-06	5.9783e-06	1378.2	373.98	6.1416e-06	6.1364e-06	426.69	143.27	124.2	42.824	5.9043e-06	53.112	149.527	148.598	182.725	91.312	236.925	218.281	91.315	95.964	222.112	237.334	95.596	99.616	100.176	104.655	224.941	104.048	-8191	255	
948.328	1	1	0	0	0.1214	0.16795	0.21536	0.03848	0.17966	0.11117	0.1689	0.36105	0.070828	0.12696	0.16339	0.033624	0.15667	0.085293	0.033472	0.34219	-1.3	-1.9042	-1.1958	-2.25	-1.775	-1.5396	-2.3125	-1.5083	-1.9646	-2.0104	-1.3188	-2.2104	-1.6458	-1.5396	-1.9708	-1.5271	331.707	421.496	342.850	184.231	423.084	113.710	352.618	347.069	286.104	295.324	436.217	325.752	81.358	82.592	207.710	425.093	0.00061123	0.00060401	0.0001614	1360.5	4.8239e-06	5.413e-06	1357.7	366.71	6.509e-06	4.4666e-06	418.58	140.5	122.28	41.823	6.4058e-06	51.698	0.00059254	0.00055424	0.00015862	1378.7	6.1835e-06	6.3224e-06	1379	374.22	6.2066e-06	5.9374e-06	427.13	143.41	124.69	42.985	6.2436e-06	53.132	152.670	170.289	167.736	91.311	223.952	217.258	91.311	96.032	219.429	207.110	95.633	99.966	100.414	104.890	221.318	104.056	-8191	255	
948.424	1	1	0	0	0.24618	0.22536	0.17129	0.33156	0.17935	0.057147	0.25511	0.43099	0.19649	0.27882	0.24606	0.073373	0.022773	0.32183	0.20589	0.24923	-1.1979	-2.0646	-1.2667	-2.3312	-1.8604	-1.325	-2.1979	-1.7646	-1.525	-2.0375	-1.5063	-2.1271	-1.8583	-1.4167	-2.2146	-1.4729	95.633	153.545	359.498	401.353	184.777	263.825	416.198	400.148	224.693	380.390	394.526	340.961	208.237	339.500	281.552	108.652	0.00055203	0.00052367	0.00013995	1362.7	4.7038e-06	7.2106e-06	1359.6	367.22	6.4312e-06	5.6999e-06	420.23	140.24	121.59	41.731	5.2351e-06	51.665	0.00058928	0.00055082	0.00016046	1380.4	6.2854e-06	6.3153e-06	1378.5	374.58	6.2772e-06	6.23e-06	427.62	143.26	124.6	42.855	6.1082e-06	53.067	150.622	163.261	158.216	91.234	223.775	215.959	91.219	95.914	231.281	232.435	95.589	99.759	100.199	104.757	236.295	104.086	-8191	255	
948.519	1	1	0	0	0.1885	0.16446	0.11856	0.17713	0.20773	0.099312	0.20829	0.33028	0.20076	0.34551	0.13878	0.20427	0.21032	0.16859	0.15018	0.12908	-1.1437	-2.0812	-1.1958	-2.1708	-1.8167	-1.3125	-2.4146	-1.8563	-1.4438	-2.2958	-1.4438	-2.0062	-1.8979	-1.2	-1.8687	-1.675	208.729	328.432	231.226	364.921	281.968	387.267	386.214	360.909	229.437	208.732	154.686	138.784	326.183	111.930	252.920	369.152	0.00057777	0.00045752	0.00012174	1361.2	5.8829e-06	5.6071e-06	1357.4	368.23	5.2561e-06	5.9967e-06	418.77	140.2	122.19	41.991	5.6647e-06	51.555	0.00059793	0.00056672	0.00016337	1378.3	6.1998e-06	6.663e-06	1377.9	374.41	6.1999e-06	6.3045e-06	427.69	143.19	125.03	42.967	6.2217e-06	53.168	149.773	175.240	173.218	91.684	219.391	228.586	91.177	96.020	227.284	228.421	95.604	99.761	100.401	104.895	231.253	103.824	-8191	255	
948.639	1	1	0	0	0.10441	0.075002	0.21255	0.065756	0.106	0.10509	0.21054	0.19414	0.25992	0.30331	0.22166	0.10781	0.10873	0.20155	0.13038	0.15426	-0.8625	-2.1917	-1.3229	-1.8	-1.8188	-1.2938	-2.3042	-1.9521	-1.2229	-2.0333	-1.4771	-1.9604	-2.0062	-1.375	-2.0667	-1.6604	307.415	84.832	197.785	422.476	429.210	403.189	401.085	207.879	312.023	108.494	400.691	265.289	417.554	304.679	258.294	204.570	0.00061102	0.00047454	0.00012402	1359	5.4084e-06	3.4306e-06	1358.8	367.49	6.0861e-06	5.4799e-06	419.73	140.44	121.66	41.854	5.4497e-06	51.653	0.000607	0.0005624	0.00016396	1377.9	6.1031e-06	6.3248e-06	1379.3	374.66	6.2071e-06	6.0864e-06	428.18	143.55	124.72	43.026	6.2584e-06	53.129	148.008	184.226	154.103	91.344	224.508	239.825	91.305	96.030	224.006	224.539	95.476	99.759	100.248	104.927	228.484	104.151	-8191	255	
948.735	1	1	0	0	0.12926	0.17032	0.23362	0.19099	0.17317	0.036253	0.18525	0.54385	0.17969	0.082018	0.15212	0.2067	0.14645	0.099807	0.23049	0.27875	-1.0354	-2.1104	-1.3146	-1.7604	-2.1583	-1.225	-2.2979	-2.0417	-1.0875	-2.3479	-1.4229	-1.7604	-2.2333	-1.2271	-1.8271	-1.8771	237.447	255.595	281.907	417.665	141.887	180.974	381.686	409.290	419.114	281.552	94.891	343.294	355.977	178.314	301.414	186.589	0.00057221	0.00043542	0.00014037	1361.4	6.8329e-06	4.8848e-06	1358.3	369.49	4.8777e-06	5.4358e-06	420.43	140.89	121.75	41.967	5.7913e-06	51.67	0.00060266	0.00058556	0.00016143	1379.6	6.4635e-06	6.341e-06	1379.9	375.85	6.5547e-06	6.0864e-06	428.74	143.59	124.89	43.044	6.1888e-06	53.239	150.847	170.407	162.335	91.493	234.740	234.822	91.246	95.716	224.862	220.951	95.305	99.860	100.536	105.076	219.588	104.207	-8191	255	
948.831	1	1	0	0	0.19669	0.1622	0.035104	0.090944	0.046074	0.13486	0.39581	0.11345	0.11182	0.16364	0.11602	0.36625	0.41052	0.13936	0.12126	0.27722	-0.7375	-2.0417	-1.2938	-1.6417	-2.0604	-1.1187	-1.9438	-2.0312	-1.25	-2.0563	-1.6437	-1.8458	-2.1625	-1.375	-1.7188	-2.2	218.494	129.798	292.370	334.632	113.382	354.461	361.206	289.792	234.314	319.511	118.596	435.257	97.098	401.491	207.131	343.671	0.00058781	0.00043877	0.00012426	1359	5.4434e-06	5.6184e-06	1357.7	369.08	6.2089e-06	6.3861e-06	420.48	140.92	122.41	41.662	4.7751e-06	52.16	0.00058696	0.00055235	0.00015993	1379.9	6.142e-06	6.3565e-06	1379.3	375.62	6.1917e-06	6.2586e-06	428.78	143.73	125.26	42.988	6.0715e-06	53.344	151.359	149.670	169.194	91.277	210.091	216.121	91.261	95.880	222.252	229.618	95.451	99.892	100.217	104.780	229.004	104.049	-8191	255	
948.903	1	1	0	0	0.096379	0.14065	0.17499	0.12668	0.076842	0.020844	0.24977	0.34991	0.10085	0.2526	0.22084	0.099894	0.23405	0.20118	0.097902	0.20818	-0.675	-2.1896	-1.6792	-1.4688	-2.1021	-1.3687	-2.1188	-2.2667	-1.1938	-1.9292	-1.7458	-1.4854	-2.2458	-1.4958	-1.5375	-2.0667	231.620	189.628	205.854	386.100	110.663	195.260	365.062	389.146	381.085	207.055	320.334	351.231	292.968	391.236	416.774	301.366	0.00056419	0.00044729	0.00010859	1360.5	4.7229e-06	6.1539e-06	1359.6	369.6	4.8878e-06	3.4758e-06	420.44	140.89	122.02	41.897	5.3927e-06	51.984	0.00058083	0.00055703	0.00015766	1381.3	5.8961e-06	6.5632e-06	1380.1	375.55	6.3182e-06	6.2175e-06	428.58	143.79	125.07	43.095	6.0737e-06	53.293	149.758	156.632	194.974	91.363	202.627	222.426	91.237	96.066	223.769	241.683	95.377	99.829	100.606	104.892	234.084	104.049	-8191	255	
949.024	1	1	0	0	0.17651	0.24299	0.14464	0.20208	0.16472	0.17577	0.17296	0.31739	0.092948	0.27085	0.097643	0.27475	0.12471	0.26436	0.067822	0.32537	-0.89583	-2.0417	-1.6479	-1.6125	-2.125	-1.5521	-1.9188	-2.4146	-1.2125	-1.875	-1.8875	-1.3229	-2.1583	-1.6604	-1.1833	-2.3646	119.797	314.520	384.307	366.004	272.563	357.011	94.034	397.226	116.514	89.587	329.268	419.665	328.385	388.298	403.190	344.712	0.00058838	0.0004378	0.00012647	1362.6	6.1317e-06	4.6476e-06	1363.5	369.48	5.1002e-06	4.6039e-06	420.07	141.02	122.2	41.987	5.4747e-06	51.682	0.00059651	0.00054129	0.00015528	1381.6	6.1672e-06	6.5728e-06	1380.1	375.79	6.0929e-06	5.9815e-06	428.14	143.8	124.83	43.087	6.3078e-06	53.189	150.988	177.728	169.900	91.256	219.240	218.167	91.291	95.976	234.060	240.934	95.518	99.715	100.186	104.859	224.017	104.182	-8191	255	
