BOXY.EXE: ISS Imagent and Oximeter Data Acquisition Program Version 0.80
Ascii Record File

#ACQ INFORMATION
2  Detector Channels 
16  External MUX Channels 
1  Auxiliary Channels 
5000  Waveform (CCF) Frequency (Hz)
1  Waveforms Skipped 
30  Waveforms Averaged 
1  Cycles Averaged 
16  Acquisitions per Waveform 
10.0806  Updata Rate (Hz) 

#FILE INFORMATION
TRUE -- External MUX Channel results are PARSED.
FALSE -- AC DC and Phase are NOT grouped.
TRUE -- Companion Program Settings File CREATED.
FALSE -- AC data not excluded
FALSE -- DC data not excluded
FALSE -- Phase data not excluded
FALSE -- Auxillary Chn. data not excluded
Tab delimiters

#CALIBRATION STATE
TRUE -- Waveform Calibration Values APPLIED.


#AUX CALIBRATION VALUES
Val Type	aux-1	

Term	1.0000e+00	
Factor	0.0000e+00	


#WF CALIBRATION VALUES
A = Detector Channel
Val Type	A-AC1	A-AC2	A-AC3	A-AC4	A-AC5	A-AC6	A-AC7	A-AC8	A-AC9	A-AC10	A-AC11	A-AC12	A-AC13	A-AC14	A-AC15	A-AC16	A-DC1	A-DC2	A-DC3	A-DC4	A-DC5	A-DC6	A-DC7	A-DC8	A-DC9	A-DC10	A-DC11	A-DC12	A-DC13	A-DC14	A-DC15	A-DC16	A-Ph1	A-Ph2	A-Ph3	A-Ph4	A-Ph5	A-Ph6	A-Ph7	A-Ph8	A-Ph9	A-Ph10	A-Ph11	A-Ph12	A-Ph13	A-Ph14	A-Ph15	A-Ph16	

Term	0.00000e+00	0.00000e+00	0.00000e+00	0.00000e+00	0.00000e+00	0.00000e+00	0.00000e+00	0.00000e+00	0.00000e+00	0.00000e+00	0.00000e+00	0.00000e+00	0.00000e+00	0.00000e+00	0.00000e+00	0.00000e+00	0.00000e+00	0.00000e+00	0.00000e+00	0.00000e+00	0.00000e+00	0.00000e+00	0.00000e+00	0.00000e+00	0.00000e+00	0.00000e+00	0.00000e+00	0.00000e+00	0.00000e+00	0.00000e+00	0.00000e+00	0.00000e+00	0.00000e+00	0.00000e+00	0.00000e+00	0.00000e+00	0.00000e+00	0.00000e+00	0.00000e+00	0.00000e+00	0.00000e+00	0.00000e+00	0.00000e+00	0.00000e+00	0.00000e+00	0.00000e+00	0.00000e+00	0.00000e+00	
Factor	1.00000e+00	1.00000e+00	1.00000e+00	1.00000e+00	1.00000e+00	1.00000e+00	1.00000e+00	1.00000e+00	1.00000e+00	1.00000e+00	1.00000e+00	1.00000e+00	1.00000e+00	1.00000e+00	1.00000e+00	1.00000e+00	1.00000e+00	1.00000e+00	1.00000e+00	1.00000e+00	1.00000e+00	1.00000e+00	1.00000e+00	1.00000e+00	1.00000e+00	1.00000e+00	1.00000e+00	1.00000e+00	1.00000e+00	1.00000e+00	1.00000e+00	1.00000e+00	X	X	X	X	X	X	X	X	X	X	X	X	X	X	X	X	

B = Detector Channel
Val Type	B-AC1	B-AC2	B-AC3	B-AC4	B-AC5	B-AC6	B-AC7	B-AC8	B-AC9	B-AC10	B-AC11	B-AC12	B-AC13	B-AC14	B-AC15	B-AC16	B-DC1	B-DC2	B-DC3	B-DC4	B-DC5	B-DC6	B-DC7	B-DC8	B-DC9	B-DC10	B-DC11	B-DC12	B-DC13	B-DC14	B-DC15	B-DC16	B-Ph1	B-Ph2	B-Ph3	B-Ph4	B-Ph5	B-Ph6	B-Ph7	B-Ph8	B-Ph9	B-Ph10	B-Ph11	B-Ph12	B-Ph13	B-Ph14	B-Ph15	B-Ph16	

Term	0.00000e+00	0.00000e+00	0.00000e+00	0.00000e+00	0.00000e+00	0.00000e+00	0.00000e+00	0.00000e+00	0.00000e+00	0.00000e+00	0.00000e+00	0.00000e+00	0.00000e+00	0.00000e+00	0.00000e+00	0.00000e+00	0.00000e+00	0.00000e+00	0.00000e+00	0.00000e+00	0.00000e+00	0.00000e+00	0.00000e+00	0.00000e+00	0.00000e+00	0.00000e+00	0.00000e+00	0.00000e+00	0.00000e+00	0.00000e+00	0.00000e+00	0.00000e+00	-1.45959e+02	-1.30980e+02	-1.25157e+02	-1.82080e+02	-7.17741e+01	-6.95097e+01	-1.55766e+02	-1.62015e+02	-7.74156e+01	-6.88670e+01	-1.70942e+02	-1.70432e+02	-1.82993e+02	-1.76724e+02	-6.90137e+01	-1.49404e+02	
Factor	2.03209e-05	1.41488e-04	3.74525e-05	1.74853e-01	1.18439e-06	1.57894e-06	1.53863e-01	4.53265e-02	1.13898e-06	1.62005e-06	7.65132e-02	2.71161e-02	3.40376e-02	8.44743e-03	1.33393e-06	1.21964e-02	1.36066e-05	2.52670e-05	7.14622e-06	9.33528e-02	2.52174e-07	2.86787e-07	7.71164e-02	2.43145e-02	2.45725e-07	2.86025e-07	3.96700e-02	1.41238e-02	1.84396e-02	4.57171e-03	2.63143e-07	6.37821e-03	X	X	X	X	X	X	X	X	X	X	X	X	X	X	X	X	



#DISTANCE SETTINGS
A = Detector Channel
A-1	A-2	A-3	A-4	A-5	A-6	A-7	A-8	A-9	A-10	A-11	A-12	A-13	A-14	A-15	A-16	

2.5000e+00	3.0000e+00	2.5000e+00	3.0000e+00	2.0000e+00	3.0000e+00	1.5000e+00	3.0000e+00	3.0000e+00	3.0000e+00	3.0000e+00	3.0000e+00	3.0000e+00	3.0000e+00	1.5000e+00	3.0000e+00	

B = Detector Channel
B-1	B-2	B-3	B-4	B-5	B-6	B-7	B-8	B-9	B-10	B-11	B-12	B-13	B-14	B-15	B-16	

1.0000e+01	1.0000e+01	1.0000e+01	1.4400e+00	1.0000e+01	1.0000e+01	1.5100e+00	1.9400e+00	1.0000e+01	1.0000e+01	1.9900e+00	2.4900e+00	2.4100e+00	2.9000e+00	1.0000e+01	2.9800e+00	




#DATA BEGINS
time	group	step	mark	flag	A-AC1	A-AC2	A-AC3	A-AC4	A-AC5	A-AC6	A-AC7	A-AC8	A-AC9	A-AC10	A-AC11	A-AC12	A-AC13	A-AC14	A-AC15	A-AC16	A-DC1	A-DC2	A-DC3	A-DC4	A-DC5	A-DC6	A-DC7	A-DC8	A-DC9	A-DC10	A-DC11	A-DC12	A-DC13	A-DC14	A-DC15	A-DC16	A-Ph1	A-Ph2	A-Ph3	A-Ph4	A-Ph5	A-Ph6	A-Ph7	A-Ph8	A-Ph9	A-Ph10	A-Ph11	A-Ph12	A-Ph13	A-Ph14	A-Ph15	A-Ph16	B-AC1	B-AC2	B-AC3	B-AC4	B-AC5	B-AC6	B-AC7	B-AC8	B-AC9	B-AC10	B-AC11	B-AC12	B-AC13	B-AC14	B-AC15	B-AC16	B-DC1	B-DC2	B-DC3	B-DC4	B-DC5	B-DC6	B-DC7	B-DC8	B-DC9	B-DC10	B-DC11	B-DC12	B-DC13	B-DC14	B-DC15	B-DC16	B-Ph1	B-Ph2	B-Ph3	B-Ph4	B-Ph5	B-Ph6	B-Ph7	B-Ph8	B-Ph9	B-Ph10	B-Ph11	B-Ph12	B-Ph13	B-Ph14	B-Ph15	B-Ph16	aux-1	digaux	

987.725	1	1	0	256	0.28346	0.13167	0.21209	0.046921	0.099425	0.06429	0.24835	0.16295	0.12344	0.13486	0.34752	0.16984	0.073145	0.25247	0.11713	0.055341	-1.5187	-1.0292	-1.6792	-1.95	-1.0688	-1.9271	-1.3083	-1.5708	-1.8771	-1.2146	-2.0458	-1.8896	-1.2833	-2.1396	-1.4208	-1.5729	256.713	419.557	350.513	328.822	224.528	393.281	333.526	394.901	309.958	112.965	242.563	329.710	279.415	397.780	190.640	226.285	0.0006076	0.0005028	0.00015736	1330.1	5.1305e-06	4.3339e-06	1329.5	363.52	5.0366e-06	5.825e-06	422.59	140.51	120.7	41.952	5.5794e-06	52.094	0.00053247	0.00045259	0.00011988	1345.3	4.993e-06	4.775e-06	1351.9	370.74	4.8418e-06	5.006e-06	429.53	143.42	123.31	43.122	5.0995e-06	53.843	151.004	152.416	162.799	91.247	225.949	221.727	91.050	96.143	223.070	229.373	95.355	99.838	100.225	104.825	223.659	104.148	-8191	255	
987.821	1	1	0	0	0.27486	0.18095	0.085953	0.080587	0.099448	0.15671	0.243	0.35122	0.257	0.27397	0.127	0.21499	0.22883	0.089596	0.095583	0.1917	-1.6917	-1.1313	-1.6792	-2.1562	-1.1396	-1.9333	-1.7854	-1.5938	-2.0417	-1.2188	-1.7021	-1.9396	-1.2042	-2.0604	-1.3563	-1.4979	212.212	374.271	325.621	409.341	367.929	374.727	386.255	345.401	229.074	89.918	338.772	322.109	104.570	386.745	427.502	329.871	0.00059236	0.00048586	0.00014604	1327.9	5.513e-06	5.1734e-06	1331.4	363.2	5.7433e-06	4.9974e-06	419.9	140.85	120.74	41.865	4.5111e-06	52.194	0.00051674	0.00045207	0.00012208	1345.5	5.0366e-06	4.6424e-06	1352.5	370.57	4.9544e-06	5.0162e-06	428.88	143.6	123.23	43.091	5.0359e-06	53.808	152.878	171.671	180.746	91.137	221.604	229.713	90.930	95.852	215.400	222.476	95.720	99.575	100.403	104.902	221.808	104.141	-8191	255	
987.917	1	1	0	0	0.15885	0.046267	0.25173	0.2448	0.23209	0.097131	0.16001	0.41825	0.1044	0.17474	0.044846	0.18623	0.090965	0.097886	0.10356	0.12946	-1.6958	-1.25	-1.5875	-2.1958	-0.91042	-1.8	-1.8917	-1.4542	-1.8854	-1.2271	-1.5167	-2.0708	-1.2313	-1.9729	-1.5104	-1.5333	78.271	113.752	256.888	347.782	205.080	281.839	335.191	81.417	283.433	428.018	126.258	344.488	118.234	343.692	352.646	116.032	0.00058858	0.00038119	0.00015321	1329.2	4.9748e-06	4.8679e-06	1333.3	364.45	5.9097e-06	5.1326e-06	420.16	139.64	121.29	41.83	4.2597e-06	52.301	0.00052201	0.00045217	0.0001251	1345	4.8806e-06	4.6842e-06	1351.7	371.19	5.0102e-06	4.9929e-06	428.52	143.25	123.53	43.088	4.633e-06	53.841	150.305	173.564	147.946	91.197	229.089	229.818	91.058	95.955	223.251	231.019	95.324	99.714	100.558	104.750	230.108	104.039	-8191	255	
988.038	1	1	0	0	0.23723	0.15026	0.10077	0.25161	0.1093	0.22908	0.21378	0.1036	0.10084	0.16001	0.24803	0.14743	0.19961	0.12523	0.22926	0.36049	-1.5958	-1.2687	-1.3729	-2.1562	-1.2271	-1.8583	-2	-1.3542	-1.8479	-1.4854	-1.4354	-2.0667	-1.2938	-1.8792	-1.7708	-1.1854	187.344	263.461	315.591	401.608	425.813	435.917	383.336	356.247	320.625	259.075	391.220	356.049	364.288	254.576	145.925	367.971	0.00057804	0.00036769	0.00012589	1322.2	5.3654e-06	5.0836e-06	1332.8	364.04	5.0319e-06	4.3596e-06	419.29	140.31	120.37	41.982	5.7134e-06	52.459	0.00051444	0.00044612	0.00012655	1344	5.0414e-06	4.6824e-06	1352	370.34	4.8351e-06	4.9268e-06	427.68	143.14	123.21	43.143	4.8539e-06	53.998	148.140	162.496	175.774	91.062	226.503	237.867	90.993	95.744	223.855	225.383	95.368	99.734	100.130	104.991	226.220	103.997	-8191	255	
988.134	1	1	0	0	0.082476	0.25781	0.18144	0.15278	0.14985	0.097621	0.27792	0.078136	0.065333	0.11381	0.14219	0.17818	0.30134	0.18655	0.099923	0.20053	-1.5438	-1.3854	-1.3021	-2.2208	-1.275	-1.5292	-2.1208	-1.3021	-1.9396	-1.5875	-1.3813	-2.0833	-1.475	-1.6833	-1.6437	-1.2708	391.872	191.033	294.565	428.775	205.779	378.831	90.746	286.262	82.555	300.933	385.991	421.674	113.159	404.190	321.599	315.326	0.00062436	0.00050739	0.00011629	1327	4.7656e-06	4.3314e-06	1330.1	362.72	5.111e-06	5.5683e-06	419.17	140.87	121.18	42.122	5.9265e-06	52.625	0.00053732	0.00045602	0.00012135	1344.8	5.0414e-06	4.9076e-06	1352.7	370.98	5.1607e-06	5.0829e-06	427.88	143.55	123.2	43.209	5.1445e-06	53.887	149.645	154.823	173.124	91.182	228.270	214.867	91.069	95.955	227.926	225.775	95.144	99.710	100.332	104.947	222.202	103.982	-8191	255	
988.230	1	1	0	0	0.24515	0.20432	0.13526	0.38443	0.19447	0.18938	0.23918	0.2977	0.18794	0.18826	0.11704	0.082384	0.14855	0.26367	0.037108	0.10488	-1.3542	-1.6417	-1.1958	-2.0438	-1.1646	-1.4438	-2.1667	-1.4271	-1.8896	-1.7479	-1.275	-2.3167	-1.5667	-1.3292	-1.9625	-1.0542	238.865	341.338	97.081	400.304	145.120	263.113	385.260	336.430	256.992	103.342	432.377	180.257	248.576	290.462	236.713	368.678	0.00059808	0.00053619	0.0001743	1323.4	5.0296e-06	6.2049e-06	1333.1	363.28	5.6367e-06	5.3341e-06	419.91	140.75	120.68	41.971	5.4583e-06	52.45	0.00052374	0.0004537	0.00012746	1344.4	4.9988e-06	4.8987e-06	1353.1	370.29	5.0947e-06	5.0001e-06	428.68	143.37	123.38	43.124	5.0381e-06	53.94	151.119	153.043	160.941	91.324	229.990	209.132	91.042	95.855	222.377	214.576	95.458	99.663	100.348	104.929	220.640	104.314	-8191	255	
988.327	1	1	0	0	0.1784	0.11725	0.2266	0.05067	0.20359	0.047102	0.32083	0.36498	0.035317	0.27281	0.28209	0.16942	0.11898	0.10745	0.29415	0.17053	-1.4354	-1.7271	-1.0771	-2.1083	-1.2625	-1.3271	-2.05	-1.2771	-1.6708	-1.8708	-1.1313	-2.125	-1.5583	-1.5063	-2.0187	-1.2938	407.417	339.610	326.365	408.986	299.218	410.978	426.605	419.606	248.579	337.875	403.644	428.221	377.248	375.464	218.104	352.025	0.00058106	0.00052211	0.00014213	1323.4	5.5009e-06	5.7704e-06	1335.8	364.54	5.0039e-06	5.1476e-06	419.93	140.49	120.78	42.201	5.0919e-06	52.32	0.00053536	0.00044212	0.00013201	1345.2	5.0813e-06	4.7887e-06	1353	370.91	5.0619e-06	4.7933e-06	428.31	143.49	123.51	43.206	4.9707e-06	53.847	149.587	171.278	172.612	91.192	226.731	226.467	90.935	95.878	218.857	222.579	95.389	99.939	100.313	105.098	214.908	104.095	-8191	255	
988.423	1	1	0	0	0.37703	0.15848	0.16976	0.086147	0.12926	0.096586	0.4274	0.18486	0.22959	0.32684	0.42797	0.27654	0.20806	0.18437	0.12923	0.20452	-1.3438	-1.9771	-1.0208	-1.9125	-1.4104	-1.2833	-2.0854	-1.45	-1.5562	-1.8917	-1.3229	-2.0229	-1.6812	-1.125	-2.0958	-1.3292	221.410	295.103	268.671	304.500	425.418	113.047	426.256	121.988	222.022	387.771	308.655	303.331	128.267	343.244	209.319	143.176	0.00057859	0.000625	0.0001278	1322.8	5.3788e-06	4.6887e-06	1330.2	364.56	5.1731e-06	4.1508e-06	419.92	140.48	121.03	42.101	6.614e-06	52.374	0.00052731	0.0004378	0.00012691	1343	4.9589e-06	5.0289e-06	1351.2	370.7	5.1618e-06	4.6771e-06	428	143.33	123.46	43.114	4.8265e-06	53.799	150.094	170.824	152.658	91.193	221.921	219.768	91.227	95.945	228.140	218.084	95.268	99.797	100.276	104.974	218.829	103.940	-8191	255	
988.517	1	1	0	0	0.16326	0.088072	0.22799	0.26048	0.15722	0.11153	0.20876	0.14591	0.12442	0.12731	0.31809	0.12266	0.19491	0.19788	0.30863	0.18795	-1.0354	-1.95	-1.0812	-1.8958	-1.6688	-1.2	-2.1375	-1.5667	-1.3813	-1.8458	-1.3396	-2.0083	-1.8375	-1.2812	-2.0167	-1.6313	412.920	287.982	317.231	368.606	432.102	248.864	422.763	425.950	432.106	200.273	429.891	116.056	422.281	413.737	107.532	377.552	0.00059322	0.00050091	0.00014808	1326.5	5.2691e-06	5.1274e-06	1337.1	364.02	5.5027e-06	6.7757e-06	419.68	139.94	120.45	41.99	4.1653e-06	52.278	0.00052	0.00043612	0.00013124	1343.4	4.8638e-06	4.9578e-06	1353.1	370.36	5.0496e-06	4.8005e-06	428.15	143.2	123.12	43.02	4.8495e-06	53.739	149.980	169.813	184.628	91.299	227.364	229.291	91.128	95.855	219.571	224.333	95.429	99.690	100.496	104.703	235.639	104.129	-8191	255	
988.613	1	1	0	0	0.16379	0.13575	0.13385	0.30998	0.21941	0.26988	0.044371	0.14961	0.16558	0.17804	0.21575	0.12608	0.2607	0.069437	0.2866	0.18958	-0.84792	-1.8417	-1.1688	-1.8583	-1.8583	-1.2083	-2.1208	-1.7375	-1.3333	-1.9438	-1.4417	-1.9042	-2.0167	-1.1542	-1.9354	-1.6333	90.521	161.108	158.762	355.218	144.395	128.478	108.885	166.061	78.063	358.027	365.522	96.975	102.138	383.808	391.722	419.764	0.00058345	0.00056921	0.00013022	1321.7	3.8791e-06	4.6245e-06	1334.7	364.27	5.4163e-06	4.6982e-06	421.02	140.6	121.02	41.765	4.5736e-06	52.375	0.00052009	0.00044133	0.00012257	1342.4	4.9321e-06	4.8437e-06	1352.7	370.41	5.1044e-06	4.4894e-06	428.1	143.34	123.28	42.985	4.7771e-06	53.641	151.425	162.841	170.178	91.169	241.115	215.624	91.281	95.857	215.157	216.759	95.196	99.757	100.580	104.984	228.419	103.909	-8191	255	
988.711	1	1	0	0	0.074404	0.26319	0.19582	0.1977	0.10782	0.15358	0.12153	0.08391	0.18342	0.03564	0.10203	0.29682	0.15961	0.16051	0.05454	0.186	-0.77708	-2.0354	-1.1771	-1.7646	-1.7375	-1.2729	-1.9958	-1.7375	-1.2417	-2.0646	-1.4583	-1.6375	-1.9875	-1.1208	-1.9625	-1.7708	222.519	407.262	321.024	306.495	215.671	339.142	387.548	411.459	185.240	326.639	270.846	366.909	405.893	302.757	126.968	221.184	0.00055996	0.00047991	0.0001216	1320.4	5.4595e-06	5.3021e-06	1331.3	362.85	4.7311e-06	3.3503e-06	419.19	139.91	119.99	41.914	6.1928e-06	52.077	0.00052303	0.00041875	0.00011873	1341.5	4.8528e-06	4.9865e-06	1349.9	369.72	5.0752e-06	4.7021e-06	427.65	143.03	122.73	43.006	4.8599e-06	53.636	149.873	162.325	183.737	91.226	231.529	229.361	91.025	95.931	234.141	233.144	95.405	99.859	100.401	104.747	231.375	103.839	-8191	255	
988.830	1	1	0	0	0.24855	0.22653	0.21776	0.55573	0.16494	0.059991	0.37535	0.2499	0.15368	0.10494	0.52564	0.19692	0.13681	0.1524	0.22774	0.30777	-0.69792	-2.0625	-1.475	-1.4583	-2.0146	-1.2854	-1.9146	-2.0104	-1.0167	-2.0479	-1.5667	-1.6625	-2.1562	-1.325	-1.7417	-2.0333	373.153	89.934	209.762	393.408	300.311	208.031	356.936	404.322	411.653	299.112	378.696	341.772	394.413	111.630	393.898	381.753	0.00061329	0.0004464	0.00012915	1320.3	4.676e-06	4.2268e-06	1329.6	362.69	4.3879e-06	5.3881e-06	419.48	140.48	120.04	41.93	5.1412e-06	52.501	0.00053741	0.0004118	0.0001247	1340.9	4.805e-06	4.8867e-06	1349.1	369.49	4.8653e-06	4.4948e-06	426.99	143.02	122.85	43.052	4.9197e-06	53.835	154.066	164.641	173.753	91.299	214.763	214.033	91.071	95.945	214.035	218.568	95.408	99.663	100.274	105.242	236.791	104.234	-8191	255	
988.902	1	1	0	0	0.34564	0.17006	0.33301	0.33266	0.10323	0.16347	0.21747	0.10493	0.13287	0.14974	0.048938	0.21903	0.14594	0.19519	0.093009	0.16029	-0.63333	-1.9396	-1.4542	-1.4521	-1.8667	-1.4771	-1.875	-2.2375	-1.1187	-1.9646	-1.9104	-1.2188	-2.15	-1.4062	-1.4021	-1.9625	366.923	282.217	285.220	418.721	361.843	137.583	362.338	361.663	284.705	159.649	289.156	286.458	211.410	425.101	175.930	336.488	0.00057308	0.00041222	0.00013796	1320.2	6.347e-06	5.1738e-06	1326.7	362.96	6.3918e-06	5.892e-06	419.96	140.74	120.66	41.917	5.2812e-06	52.358	0.00051685	0.00040938	0.00012102	1339.1	4.9494e-06	4.9566e-06	1348.3	370.02	5.0778e-06	4.6503e-06	427.63	143.33	123.1	43.034	5.065e-06	53.789	150.400	177.757	164.589	91.118	225.046	220.263	91.313	95.823	215.372	231.120	95.397	99.709	100.423	104.851	230.354	104.110	-8191	255	
989.022	1	1	0	0	0.20658	0.14195	0.27642	0.35273	0.29399	0.15927	0.1818	0.23209	0.059151	0.14034	0.094418	0.14877	0.091639	0.13141	0.13398	0.31762	-0.83125	-1.775	-1.6521	-1.5458	-2.0354	-1.3354	-1.7542	-2.0979	-1.2542	-1.7875	-1.8208	-1.2938	-2.1229	-1.4667	-1.4167	-2.0646	336.054	413.109	260.045	393.501	253.523	343.244	352.757	374.242	400.387	112.523	164.472	346.008	136.169	329.457	142.692	391.186	0.00060109	0.00046049	0.00012296	1321.1	5.5524e-06	4.7053e-06	1332.9	363.69	4.8839e-06	4.2609e-06	419.4	140.35	120.24	41.711	5.0548e-06	52.275	0.00053409	0.00042959	0.000124	1342	4.8239e-06	4.7762e-06	1351	370.21	5.3112e-06	4.7391e-06	427.39	143.15	122.93	42.962	4.9257e-06	53.767	150.498	169.561	175.510	91.150	228.913	236.430	91.385	96.108	221.129	244.335	95.285	99.694	100.315	104.812	229.219	103.921	-8191	255	
989.118	1	1	0	0	0.23817	0.16773	0.1405	0.10924	0.23238	0.25043	0.16772	0.39889	0.16644	0.51012	0.059291	0.30376	0.31614	0.42268	0.4146	0.10159	-0.825	-1.5667	-1.5521	-1.3312	-1.8646	-1.5521	-1.3979	-2.2125	-1.3417	-1.5896	-2.025	-1.2354	-2.075	-1.6	-1.2375	-2.0979	325.614	271.612	408.656	107.946	280.576	212.362	107.171	374.204	217.841	299.646	247.612	397.274	363.929	395.257	154.452	364.734	0.00059198	0.00050057	0.00010274	1325.4	5.1937e-06	5.1161e-06	1329.9	363.75	5.7066e-06	4.1911e-06	418.77	140.12	120.62	41.953	5.1682e-06	52.499	0.00052388	0.00043338	0.00012318	1343.1	4.7971e-06	4.8073e-06	1352.2	369.91	5.0578e-06	4.6783e-06	427.43	143.01	123.19	43.01	4.9274e-06	53.876	152.276	177.747	160.953	91.124	230.579	229.724	91.366	95.829	224.804	209.506	95.229	99.543	100.474	104.700	228.837	104.194	-8191	255	
989.215	1	1	0	0	0.37891	0.11594	0.18553	0.14285	0.18738	0.24959	0.04337	0.22144	0.039635	0.22709	0.20721	0.067513	0.19719	0.098132	0.23867	0.18955	-0.84375	-1.3438	-1.7104	-1.3292	-1.6792	-1.5812	-1.3771	-2.2333	-1.2417	-1.4937	-2.0771	-1.1729	-2.0667	-1.7708	-1.2188	-2.0396	240.039	256.979	93.851	130.393	333.978	242.601	190.786	436.933	151.930	119.450	373.987	324.159	125.121	260.109	310.445	396.355	0.00056224	0.0005479	0.00010465	1327.2	5.255e-06	5.2714e-06	1333.9	362.88	5.2585e-06	5.0238e-06	418.7	140.67	120.44	41.854	6.2555e-06	52.085	0.00051804	0.00043854	0.00011983	1343.4	4.8155e-06	4.6878e-06	1351.8	369.97	5.1387e-06	4.9858e-06	427.47	143.3	123.18	43.052	5.1297e-06	53.725	149.991	165.971	169.389	91.144	235.137	208.528	91.221	95.813	227.721	247.848	95.430	99.860	100.495	104.806	220.946	104.272	-8191	255	
989.311	1	1	0	0	0.13643	0.277	0.093195	0.23761	0.18294	0.18039	0.14886	0.15301	0.18003	0.20936	0.18017	0.24372	0.21024	0.16972	0.038769	0.15681	-1.0312	-1.2917	-2.0208	-1.2979	-1.8125	-1.9521	-1.4708	-2.1458	-1.4771	-1.3979	-2.2313	-1.2667	-1.7958	-1.8521	-0.89167	-2.15	163.025	114.776	383.621	365.310	359.146	313.611	428.428	105.289	417.856	90.294	93.341	423.773	273.551	437.410	196.741	381.853	0.00057984	0.00049575	0.00012539	1326.6	5.1768e-06	5.6158e-06	1334.7	363.54	4.8657e-06	4.2256e-06	419.94	140.41	119.79	41.966	6.0758e-06	52.498	0.0005325	0.00043349	0.00011965	1345.4	4.8827e-06	4.588e-06	1353.6	370.32	5.0261e-06	4.9798e-06	427.95	143.11	123.14	43.09	4.9427e-06	53.856	149.589	169.770	167.192	91.110	229.355	227.300	91.042	95.851	214.448	224.036	95.452	99.635	100.149	104.875	230.337	104.301	-8191	255	
989.431	1	1	0	0	0.091332	0.1118	0.049895	0.16892	0.39506	0.15808	0.093058	0.17959	0.14556	0.34825	0.14236	0.12443	0.23233	0.14313	0.153	0.21816	-1.0021	-1.1042	-1.9271	-1.3521	-1.75	-1.8479	-1.2354	-2.05	-1.6354	-1.1229	-1.9667	-1.1625	-1.7958	-2.0667	-1.1625	-1.9354	429.980	96.602	361.769	429.926	344.502	397.426	386.994	323.786	239.189	102.897	278.845	397.385	430.463	432.361	144.180	381.465	0.0005958	0.00041213	0.00014052	1322.6	6.421e-06	4.6557e-06	1332.4	363.16	4.4636e-06	5.4323e-06	420.99	140.51	121.06	41.942	4.8334e-06	52.489	0.0005295	0.00045307	0.00012342	1344.6	5.2358e-06	4.7654e-06	1351.3	370.18	5.0205e-06	4.9625e-06	428.22	143.2	123.59	43.091	5.0452e-06	53.904	151.288	159.791	168.143	91.204	221.873	229.466	91.020	96.134	230.597	227.374	95.542	99.504	100.607	104.921	245.361	104.234	-8191	255	
