BOXY.EXE: ISS Imagent and Oximeter Data Acquisition Program Version 0.80
Ascii Record File

#ACQ INFORMATION
2  Detector Channels 
16  External MUX Channels 
1  Auxiliary Channels 
5000  Waveform (CCF) Frequency (Hz)
1  Waveforms Skipped 
30  Waveforms Averaged 
1  Cycles Averaged 
16  Acquisitions per Waveform 
10.0806  Updata Rate (Hz) 

#FILE INFORMATION
TRUE -- External MUX Channel results are PARSED.
FALSE -- AC DC and Phase are NOT grouped.
TRUE -- Companion Program Settings File CREATED.
FALSE -- AC data not excluded
FALSE -- DC data not excluded
FALSE -- Phase data not excluded
FALSE -- Auxillary Chn. data not excluded
Tab delimiters

#CALIBRATION STATE
TRUE -- Waveform Calibration Values APPLIED.


#AUX CALIBRATION VALUES
Val Type	aux-1	

Term	1.0000e+00	
Factor	0.0000e+00	


#WF CALIBRATION VALUES
A = Detector Channel
Val Type	A-AC1	A-AC2	A-AC3	A-AC4	A-AC5	A-AC6	A-AC7	A-AC8	A-AC9	A-AC10	A-AC11	A-AC12	A-AC13	A-AC14	A-AC15	A-AC16	A-DC1	A-DC2	A-DC3	A-DC4	A-DC5	A-DC6	A-DC7	A-DC8	A-DC9	A-DC10	A-DC11	A-DC12	A-DC13	A-DC14	A-DC15	A-DC16	A-Ph1	A-Ph2	A-Ph3	A-Ph4	A-Ph5	A-Ph6	A-Ph7	A-Ph8	A-Ph9	A-Ph10	A-Ph11	A-Ph12	A-Ph13	A-Ph14	A-Ph15	A-Ph16	

Term	0.00000e+00	0.00000e+00	0.00000e+00	0.00000e+00	0.00000e+00	0.00000e+00	0.00000e+00	0.00000e+00	0.00000e+00	0.00000e+00	0.00000e+00	0.00000e+00	0.00000e+00	0.00000e+00	0.00000e+00	0.00000e+00	0.00000e+00	0.00000e+00	0.00000e+00	0.00000e+00	0.00000e+00	0.00000e+00	0.00000e+00	0.00000e+00	0.00000e+00	0.00000e+00	0.00000e+00	0.00000e+00	0.00000e+00	0.00000e+00	0.00000e+00	0.00000e+00	0.00000e+00	0.00000e+00	0.00000e+00	0.00000e+00	0.00000e+00	0.00000e+00	0.00000e+00	0.00000e+00	0.00000e+00	0.00000e+00	0.00000e+00	0.00000e+00	0.00000e+00	0.00000e+00	0.00000e+00	0.00000e+00	
Factor	1.00000e+00	1.00000e+00	1.00000e+00	1.00000e+00	1.00000e+00	1.00000e+00	1.00000e+00	1.00000e+00	1.00000e+00	1.00000e+00	1.00000e+00	1.00000e+00	1.00000e+00	1.00000e+00	1.00000e+00	1.00000e+00	1.00000e+00	1.00000e+00	1.00000e+00	1.00000e+00	1.00000e+00	1.00000e+00	1.00000e+00	1.00000e+00	1.00000e+00	1.00000e+00	1.00000e+00	1.00000e+00	1.00000e+00	1.00000e+00	1.00000e+00	1.00000e+00	X	X	X	X	X	X	X	X	X	X	X	X	X	X	X	X	

B = Detector Channel
Val Type	B-AC1	B-AC2	B-AC3	B-AC4	B-AC5	B-AC6	B-AC7	B-AC8	B-AC9	B-AC10	B-AC11	B-AC12	B-AC13	B-AC14	B-AC15	B-AC16	B-DC1	B-DC2	B-DC3	B-DC4	B-DC5	B-DC6	B-DC7	B-DC8	B-DC9	B-DC10	B-DC11	B-DC12	B-DC13	B-DC14	B-DC15	B-DC16	B-Ph1	B-Ph2	B-Ph3	B-Ph4	B-Ph5	B-Ph6	B-Ph7	B-Ph8	B-Ph9	B-Ph10	B-Ph11	B-Ph12	B-Ph13	B-Ph14	B-Ph15	B-Ph16	

Term	0.00000e+00	0.00000e+00	0.00000e+00	0.00000e+00	0.00000e+00	0.00000e+00	0.00000e+00	0.00000e+00	0.00000e+00	0.00000e+00	0.00000e+00	0.00000e+00	0.00000e+00	0.00000e+00	0.00000e+00	0.00000e+00	0.00000e+00	0.00000e+00	0.00000e+00	0.00000e+00	0.00000e+00	0.00000e+00	0.00000e+00	0.00000e+00	0.00000e+00	0.00000e+00	0.00000e+00	0.00000e+00	0.00000e+00	0.00000e+00	0.00000e+00	0.00000e+00	-1.45959e+02	-1.30980e+02	-1.25157e+02	-1.82080e+02	-7.17741e+01	-6.95097e+01	-1.55766e+02	-1.62015e+02	-7.74156e+01	-6.88670e+01	-1.70942e+02	-1.70432e+02	-1.82993e+02	-1.76724e+02	-6.90137e+01	-1.49404e+02	
Factor	2.03209e-05	1.41488e-04	3.74525e-05	1.74853e-01	1.18439e-06	1.57894e-06	1.53863e-01	4.53265e-02	1.13898e-06	1.62005e-06	7.65132e-02	2.71161e-02	3.40376e-02	8.44743e-03	1.33393e-06	1.21964e-02	1.36066e-05	2.52670e-05	7.14622e-06	9.33528e-02	2.52174e-07	2.86787e-07	7.71164e-02	2.43145e-02	2.45725e-07	2.86025e-07	3.96700e-02	1.41238e-02	1.84396e-02	4.57171e-03	2.63143e-07	6.37821e-03	X	X	X	X	X	X	X	X	X	X	X	X	X	X	X	X	



#DISTANCE SETTINGS
A = Detector Channel
A-1	A-2	A-3	A-4	A-5	A-6	A-7	A-8	A-9	A-10	A-11	A-12	A-13	A-14	A-15	A-16	

2.5000e+00	3.0000e+00	2.5000e+00	3.0000e+00	2.0000e+00	3.0000e+00	1.5000e+00	3.0000e+00	3.0000e+00	3.0000e+00	3.0000e+00	3.0000e+00	3.0000e+00	3.0000e+00	1.5000e+00	3.0000e+00	

B = Detector Channel
B-1	B-2	B-3	B-4	B-5	B-6	B-7	B-8	B-9	B-10	B-11	B-12	B-13	B-14	B-15	B-16	

1.0000e+01	1.0000e+01	1.0000e+01	1.4400e+00	1.0000e+01	1.0000e+01	1.5100e+00	1.9400e+00	1.0000e+01	1.0000e+01	1.9900e+00	2.4900e+00	2.4100e+00	2.9000e+00	1.0000e+01	2.9800e+00	




#DATA BEGINS
time	group	step	mark	flag	A-AC1	A-AC2	A-AC3	A-AC4	A-AC5	A-AC6	A-AC7	A-AC8	A-AC9	A-AC10	A-AC11	A-AC12	A-AC13	A-AC14	A-AC15	A-AC16	A-DC1	A-DC2	A-DC3	A-DC4	A-DC5	A-DC6	A-DC7	A-DC8	A-DC9	A-DC10	A-DC11	A-DC12	A-DC13	A-DC14	A-DC15	A-DC16	A-Ph1	A-Ph2	A-Ph3	A-Ph4	A-Ph5	A-Ph6	A-Ph7	A-Ph8	A-Ph9	A-Ph10	A-Ph11	A-Ph12	A-Ph13	A-Ph14	A-Ph15	A-Ph16	B-AC1	B-AC2	B-AC3	B-AC4	B-AC5	B-AC6	B-AC7	B-AC8	B-AC9	B-AC10	B-AC11	B-AC12	B-AC13	B-AC14	B-AC15	B-AC16	B-DC1	B-DC2	B-DC3	B-DC4	B-DC5	B-DC6	B-DC7	B-DC8	B-DC9	B-DC10	B-DC11	B-DC12	B-DC13	B-DC14	B-DC15	B-DC16	B-Ph1	B-Ph2	B-Ph3	B-Ph4	B-Ph5	B-Ph6	B-Ph7	B-Ph8	B-Ph9	B-Ph10	B-Ph11	B-Ph12	B-Ph13	B-Ph14	B-Ph15	B-Ph16	aux-1	digaux	

1312.157	1	1	0	512	0.23577	0.11125	0.3342	0.16014	0.12167	0.1786	0.49016	0.13703	0.26025	0.26883	0.15936	0.13274	0.26593	0.063353	0.32489	0.37364	-1.6	-1.3729	-1.4583	-2.0458	-1.1229	-1.8104	-1.7729	-1.4188	-1.9688	-1.3875	-1.5438	-2.2083	-1.3563	-1.8	-1.9375	-1.2271	263.981	112.456	253.941	350.226	210.028	316.875	339.161	87.158	418.182	301.042	336.668	343.983	81.084	382.959	333.258	369.342	0.00092794	0.0006329	0.00027626	397.98	2.8861e-06	9.0381e-06	608.63	181.99	3.5761e-06	8.1699e-06	313.63	166.55	95.867	54.753	1.2712e-05	101.57	0.0039859	0.0065546	0.0018512	397.31	6.5316e-05	7.3775e-05	590.38	177.98	6.4337e-05	7.335e-05	304.28	161.29	95.229	53.458	6.7476e-05	98.518	143.415	375.142	213.925	82.814	225.906	221.215	81.903	87.771	253.522	227.026	85.718	89.437	91.670	95.247	190.070	92.048	-8191	255	
1312.278	1	1	0	0	0.17664	0.10659	0.042856	0.17478	0.17217	0.10716	0.19323	0.31009	0.070191	0.32946	0.14074	0.32285	0.26918	0.33126	0.12375	0.20559	-1.5458	-1.4958	-1.3125	-2.1396	-1.1063	-1.7292	-1.9417	-1.2271	-1.9125	-1.6	-1.3875	-2.1771	-1.3771	-1.6042	-1.8354	-1.3896	129.836	152.021	296.127	100.479	188.334	379.039	408.686	115.822	188.617	381.881	406.689	427.412	397.692	74.256	256.903	424.969	0.00092106	0.0013976	0.00029505	398.08	3.0497e-06	7.1086e-06	606.25	181.29	4.8258e-07	5.1479e-06	314.49	166.56	97.159	55.128	6.3381e-06	102.14	0.0039717	0.0064637	0.0018524	396.47	6.5185e-05	7.4127e-05	589.33	177.26	6.3691e-05	7.4107e-05	305	161.75	95.875	53.509	6.8325e-05	98.757	140.426	207.393	143.118	83.071	198.395	180.469	81.816	87.604	417.304	231.233	85.871	89.669	91.989	94.794	249.829	92.108	-8191	255	
1312.372	1	1	0	0	0.25593	0.15734	0.20142	0.065297	0.28168	0.33704	0.3814	0.21915	0.22108	0.23629	0.14171	0.14656	0.19254	0.20064	0.1329	0.18169	-1.5792	-1.6458	-1.0021	-1.9521	-1.2521	-1.4625	-2.0583	-1.1063	-1.7875	-1.5729	-1.3125	-2.05	-1.3687	-1.4021	-1.8583	-1.3125	244.923	126.084	259.474	188.474	372.682	263.901	392.118	387.148	270.822	98.569	374.411	409.983	169.718	141.772	395.342	184.727	0.0010243	0.00037142	0.00012231	402.04	5.2299e-06	1.407e-05	612.35	183.19	4.8773e-06	1.1653e-05	313.55	167.72	97.557	55.24	7.0506e-06	103.38	0.0040301	0.0064827	0.0018491	397.39	6.5105e-05	7.3638e-05	592.38	178.41	6.3112e-05	7.3154e-05	307.25	163.29	96.329	53.772	6.7453e-05	99.878	146.720	105.499	134.630	83.423	237.962	181.582	82.676	87.991	195.559	242.050	86.153	89.542	91.549	95.072	190.167	92.326	-8191	255	
1312.468	1	1	0	0	0.27758	0.34708	0.097689	0.24331	0.1143	0.23301	0.16083	0.34703	0.088213	0.2304	0.14646	0.23656	0.26476	0.29709	0.024035	0.38013	-1.4417	-1.6437	-1.1625	-2	-1.2896	-1.3833	-2.0375	-1.1667	-1.6917	-1.8271	-1.2313	-2.0479	-1.6125	-1.3813	-2.0563	-1.4021	238.714	253.647	215.310	158.069	222.946	415.132	335.312	408.904	312.617	178.816	331.405	386.770	85.226	375.177	304.291	366.179	0.0010418	0.00033914	0.00022567	401.47	5.1762e-06	6.8063e-06	614.76	182.06	8.9496e-06	6.3464e-06	313.89	168.53	97.221	55.262	1.0533e-05	102.38	0.0039677	0.0065009	0.0018634	398.36	6.6362e-05	7.3965e-05	593.14	178.08	6.4604e-05	7.3581e-05	307.86	163.73	96.53	53.748	6.8926e-05	99.073	146.494	219.202	216.823	82.425	196.459	258.776	82.771	87.652	183.321	220.851	85.715	89.490	91.269	95.086	220.683	92.089	-8191	255	
1312.564	1	1	0	0	0.040437	0.12599	0.14291	0.20153	0.1948	0.13442	0.17864	0.059659	0.28474	0.12042	0.10015	0.24698	0.045802	0.38243	0.050053	0.23805	-1.2188	-1.7896	-1.1729	-2.1354	-1.4729	-1.0042	-2.1063	-1.3062	-1.5854	-1.9479	-1.1562	-2.0292	-1.7979	-1.2042	-1.9833	-1.4646	148.746	172.830	249.660	94.878	146.085	71.544	329.344	322.622	135.476	108.150	363.523	405.244	314.323	377.470	424.400	334.482	0.00097241	0.0010168	0.00028867	398.63	3.8409e-06	1.2373e-05	603.87	181.98	3.5187e-06	9.4631e-06	312.46	166.96	97.826	54.74	1.0209e-05	100.92	0.0040555	0.0065331	0.0018412	396.34	6.491e-05	7.4489e-05	587.37	177.48	6.3515e-05	7.2944e-05	304.55	161.86	96.436	53.194	6.741e-05	97.864	148.364	141.011	181.579	82.939	253.925	250.906	82.179	87.432	225.027	218.701	86.234	89.797	91.822	94.924	201.565	92.258	-8191	255	
1312.685	1	1	0	0	0.055453	0.27185	0.15325	0.15612	0.2203	0.12806	0.3851	0.095116	0.21872	0.039865	0.36969	0.31039	0.10742	0.17295	0.12261	0.2896	-1.0958	-1.9271	-1.1021	-1.8542	-1.7229	-1.0479	-1.9229	-1.3729	-1.3375	-2.0521	-1.1417	-1.8479	-1.6958	-1.3375	-2.1063	-1.6417	366.888	151.396	366.344	105.782	342.419	380.692	353.893	234.369	262.224	286.010	373.927	424.363	147.053	72.052	295.706	364.869	0.001032	0.0009533	7.3795e-05	402.19	3.6287e-06	5.6719e-06	605.03	180.87	8.838e-06	4.6742e-06	313.6	166.73	97.99	54.198	8.0486e-06	100.71	0.0039521	0.0064936	0.0018443	398.26	6.5202e-05	7.4934e-05	587.05	177.18	6.3984e-05	7.3928e-05	305.52	161.93	96.734	52.945	6.8061e-05	97.642	150.797	186.473	190.604	82.820	246.333	225.987	81.999	87.703	179.748	155.583	85.526	89.463	91.627	95.189	211.229	92.045	-8191	255	
1312.757	1	1	0	0	0.13945	0.11399	0.098941	0.24352	0.074123	0.045374	0.083625	0.06012	0.079695	0.24171	0.18386	0.19651	0.12536	0.18991	0.15398	0.18713	-0.8625	-2.0958	-1.0854	-1.6792	-1.7958	-1.1271	-2.0667	-1.5958	-1.1354	-1.9396	-1.4583	-1.7417	-1.8771	-1.2667	-2.0146	-1.6542	379.121	233.413	391.093	105.619	342.350	221.283	332.568	426.208	318.732	363.880	160.669	399.617	344.900	396.009	295.511	418.811	0.000941	0.0011303	0.00026619	394.87	9.5113e-06	6.0855e-06	608.25	180.22	4.4196e-06	4.9313e-06	313.91	168.25	97.694	54.348	5.315e-06	101.64	0.0039916	0.0065079	0.0018399	396.06	6.4617e-05	7.3308e-05	590.58	176.55	6.4131e-05	7.5085e-05	305.38	162.65	96.787	53.08	6.8462e-05	98.235	147.376	138.342	170.660	82.708	250.322	235.156	82.498	87.347	250.234	220.775	86.056	89.509	91.613	94.978	195.044	92.245	-8191	255	
1312.853	1	1	0	0	0.022487	0.091206	0.24844	0.22129	0.052776	0.21935	0.21848	0.2817	0.20699	0.103	0.2228	0.35469	0.21258	0.24868	0.13376	0.26831	-0.71667	-1.9188	-1.2437	-1.5958	-1.825	-1.1896	-2.0417	-1.6146	-1.0979	-2.1208	-1.4604	-1.4979	-2.1167	-1.1104	-1.8833	-1.9104	131.575	197.788	371.087	135.320	411.340	237.790	154.610	234.592	297.230	170.939	85.301	69.937	85.516	371.418	400.457	368.870	0.00098749	0.00078033	0.00025232	401.28	1.2079e-05	5.7673e-06	610.15	182.31	8.9745e-06	6.8434e-06	315.25	167.58	97.2	54.714	6.4343e-06	100.88	0.0040399	0.0065661	0.0018577	399.31	6.5269e-05	7.3655e-05	591.61	177.73	6.3992e-05	7.3083e-05	306.89	162.69	96.796	53.16	6.7993e-05	97.827	143.638	148.374	216.302	82.979	246.681	199.426	82.418	87.636	165.152	200.940	85.465	89.660	91.810	94.998	219.172	92.204	-8191	255	
1312.949	1	1	0	0	0.072715	0.047408	0.028897	0.2454	0.15774	0.12868	0.083653	0.086771	0.14281	0.12349	0.2403	0.26743	0.1688	0.26713	0.15882	0.15431	-0.85833	-2.0312	-1.3229	-1.2771	-1.9771	-1.1938	-1.9083	-1.9937	-1.0479	-2.0854	-1.5187	-1.6458	-2.0833	-1.2437	-1.7	-2.1188	277.866	369.450	428.851	210.901	318.713	216.194	349.561	76.660	391.606	269.057	86.831	72.754	95.283	348.586	261.507	354.126	0.001016	0.0007002	0.00022751	401.02	1.0064e-05	1.1489e-06	607.8	181.06	5.6694e-06	8.8492e-06	310.59	165.76	95.818	54.133	9.2359e-06	99.717	0.0040309	0.0065359	0.0018555	396.92	6.4726e-05	7.4222e-05	589.92	176.07	6.2738e-05	7.2804e-05	303.62	160.25	95.673	52.619	6.8304e-05	96.752	154.649	187.552	207.675	83.425	198.763	117.199	82.405	87.794	228.219	244.382	85.773	89.996	91.738	94.961	206.407	92.358	-8191	255	
1313.070	1	1	0	0	0.090396	0.18412	0.10876	0.15093	0.13939	0.12244	0.17224	0.35509	0.10468	0.12516	0.31272	0.22055	0.38863	0.28618	0.17277	0.12822	-0.62292	-1.9604	-1.3208	-1.2708	-1.9396	-0.97708	-1.5771	-1.9146	-1.05	-1.8917	-1.7687	-1.3292	-2.0604	-1.4333	-1.4562	-2.0771	151.650	297.537	325.269	415.331	203.035	308.131	330.191	392.223	298.563	210.527	400.256	396.691	407.212	413.898	159.693	304.989	0.00090425	0.0014979	8.8132e-05	395.72	7.5249e-06	5.2779e-06	605.07	181.05	4.5537e-06	9.2254e-06	310.74	165.12	96.896	54.247	7.1561e-06	99.582	0.0039949	0.0065558	0.0018371	394.9	6.5607e-05	7.4317e-05	586.24	176.56	6.3001e-05	7.3917e-05	302.94	160.34	96.184	52.686	6.8414e-05	96.817	146.869	145.264	188.900	83.170	210.696	212.783	82.472	87.682	143.248	245.848	85.888	89.610	91.773	94.934	248.835	92.424	-8191	255	
1313.166	1	1	0	0	0.094621	0.27429	0.15266	0.13882	0.12328	0.14633	0.31927	0.10572	0.13979	0.047524	0.23889	0.33169	0.14528	0.16582	0.15967	0.32074	-0.70417	-1.7521	-1.6417	-1.0875	-1.7708	-1.2167	-1.5688	-2.075	-1.1667	-1.9896	-1.7188	-1.3104	-1.9479	-1.5333	-1.4896	-2.1437	222.483	80.670	164.938	99.270	116.709	402.466	82.521	90.276	132.904	313.966	373.892	85.050	324.693	415.494	206.760	327.863	0.0009109	0.00085513	0.00018784	398.26	3.8479e-06	5.9752e-06	602.2	180.6	3.839e-06	7.3785e-06	312.07	166.85	96.326	54.14	4.3645e-06	100.26	0.0039816	0.006543	0.0018629	395.65	6.4995e-05	7.284e-05	587.04	176.25	6.3998e-05	7.293e-05	303.52	160.97	95.678	52.562	6.8764e-05	97.209	142.882	194.065	118.067	83.049	227.392	114.073	82.206	87.664	261.461	176.715	85.954	89.497	91.996	95.066	342.867	92.363	-8191	255	
1313.260	1	1	0	0	0.35959	0.31342	0.11722	0.092233	0.46094	0.19705	0.33136	0.12398	0.18958	0.11232	0.073089	0.18498	0.072881	0.10096	0.29379	0.33066	-0.74792	-1.6208	-1.6979	-1.1292	-1.9937	-1.5688	-1.3604	-2.1604	-1.2437	-1.525	-1.8333	-1.1896	-1.9708	-1.6771	-1.2583	-2.1437	313.570	324.086	206.204	405.695	180.493	334.327	95.846	172.876	185.073	358.953	254.116	356.057	83.954	122.015	297.988	399.241	0.00095249	0.00084159	0.00021888	397.56	7.6493e-06	4.9479e-06	610.35	180.49	4.6983e-06	2.1251e-06	312.9	165.64	96.663	53.609	7.2071e-06	99.656	0.0040241	0.0065446	0.0018484	397.43	6.6239e-05	7.3971e-05	590.69	175.82	6.4462e-05	7.4072e-05	304.29	160.68	95.864	52.283	6.7597e-05	96.54	151.189	145.118	134.705	83.067	250.781	208.790	81.882	87.799	218.414	412.243	86.007	89.530	91.848	94.890	285.287	92.499	-8191	255	
1313.358	1	1	0	0	0.16111	0.32484	0.1606	0.048441	0.17529	0.22447	0.25599	0.3786	0.24032	0.23148	0.2376	0.18949	0.20322	0.35402	0.13636	0.24575	-0.78542	-1.6167	-1.8792	-1.1167	-1.9146	-1.7729	-1.2292	-2.2229	-1.3188	-1.4188	-2.1083	-1.3146	-1.9229	-2.0479	-1.2542	-2.2062	414.246	236.446	419.067	391.486	158.427	306.460	237.291	307.252	160.939	257.125	121.510	78.153	324.533	426.305	100.245	106.052	0.00097802	0.00052366	0.00014114	396.02	3.7728e-06	9.1003e-06	602.78	178.83	6.0225e-06	7.9271e-06	309.59	162.86	95.788	53.53	3.4614e-06	98.469	0.0040862	0.0066	0.0018598	394.7	6.5741e-05	7.4964e-05	585.9	174.89	6.4519e-05	7.4683e-05	300.75	158.63	94.779	51.978	6.8431e-05	95.462	138.775	129.056	180.681	83.197	218.161	297.432	82.248	87.458	252.190	220.873	86.005	89.553	91.628	95.127	400.233	92.200	-8191	255	
1313.452	1	1	0	0	0.17723	0.12579	0.042482	0.10382	0.21538	0.18395	0.22085	0.094248	0.07745	0.044758	0.19493	0.24498	0.096251	0.20836	0.17796	0.17997	-1.0104	-1.6688	-2.0458	-1.2417	-1.8417	-1.7625	-1.1167	-2.2438	-1.3042	-1.3896	-2.1104	-1.4937	-1.6417	-1.9292	-1.1583	-2.1708	331.588	379.105	216.092	74.963	385.649	350.326	337.848	309.307	276.648	314.262	168.892	334.466	335.236	408.755	125.665	337.438	0.00096183	0.00073571	0.00028816	399.58	7.4618e-06	2.4168e-06	601.38	177.97	5.725e-06	8.8348e-06	307.03	162.91	95.033	53.135	2.2975e-06	98.849	0.0039975	0.0065862	0.0018415	396.73	6.5393e-05	7.314e-05	583.4	174.35	6.3346e-05	7.2383e-05	300.32	158.23	94.435	51.868	6.7973e-05	95.588	150.043	147.489	128.086	82.862	201.668	69.632	82.284	87.525	256.954	232.065	86.190	89.275	92.070	95.060	171.326	92.533	-8191	255	
1313.549	1	1	0	0	0.061332	0.41073	0.19733	0.055566	0.039921	0.040808	0.057245	0.13528	0.1648	0.48022	0.11017	0.082146	0.12185	0.13464	0.19059	0.42747	-1.0771	-1.2542	-1.9792	-1.2667	-1.6354	-1.9833	-1.225	-1.9917	-1.5479	-1.1896	-2.0438	-1.4792	-1.675	-2.1437	-1.2979	-1.9312	324.751	132.595	267.293	412.638	348.406	161.116	426.204	419.736	268.858	337.670	408.606	406.394	270.706	310.246	236.165	332.781	0.0010258	0.0011284	0.0002618	397.05	1.1052e-05	3.6251e-06	602.27	178.43	8.1529e-06	1.7218e-06	309.18	164	95.779	53.395	1.6689e-06	99.237	0.0040002	0.0065137	0.001829	396.87	6.5175e-05	7.4624e-05	587.09	174.77	6.401e-05	7.4151e-05	300.58	158.93	95.092	52.061	6.8924e-05	96.08	143.032	146.025	154.032	83.089	220.944	250.999	82.515	87.618	116.910	241.706	86.122	89.649	92.246	95.373	243.917	92.605	-8191	255	
1313.645	1	1	0	0	0.12461	0.24387	0.33221	0.17874	0.16567	0.28006	0.18701	0.2	0.13948	0.24838	0.1915	0.42697	0.27742	0.26742	0.28294	0.28141	-1.3979	-1.275	-1.9104	-1.325	-1.4833	-2.1229	-1.4333	-2.1063	-1.7854	-1.3771	-2.05	-1.4854	-1.7354	-2.1813	-1.2792	-1.9042	100.377	233.882	319.446	327.223	172.949	409.084	367.244	286.440	305.835	310.399	401.249	381.330	168.633	71.816	288.719	371.015	0.0010971	0.00044732	0.00027045	397.39	6.0062e-06	1.1712e-05	604.48	179.94	5.3674e-06	2.07e-05	308.49	164.06	95.752	53.581	4.004e-06	99.305	0.0040434	0.0065007	0.0018544	395.38	6.516e-05	7.3949e-05	585.82	175.26	6.3871e-05	7.3963e-05	301.83	159.51	95.293	52.198	6.8234e-05	96.156	143.903	353.431	172.745	83.096	206.212	204.841	82.509	88.222	253.522	170.598	86.123	89.490	91.800	95.027	170.455	92.650	-8191	255	
1313.765	1	1	0	0	0.11468	0.16665	0.071766	0.11067	0.087692	0.3147	0.18302	0.28567	0.056308	0.11388	0.32964	0.14664	0.12867	0.12496	0.18734	0.30227	-1.3563	-1.0729	-2.0312	-1.3542	-1.3479	-2.15	-1.2896	-1.8167	-1.9562	-1.2083	-1.9667	-1.7146	-1.4167	-2.2438	-1.1104	-1.6375	158.732	94.258	102.324	388.642	95.922	410.078	365.012	356.014	311.374	230.373	346.677	386.373	317.956	230.313	348.217	375.541	0.0010163	0.00077652	0.00031524	398.36	6.389e-06	5.5034e-06	601	178.1	3.5249e-06	2.0046e-05	306.89	163.17	94.534	53.16	4.6523e-06	98.467	0.0039586	0.0066194	0.0018515	396.16	6.5592e-05	7.2871e-05	584.68	174.36	6.3513e-05	7.3572e-05	298.88	157.63	94.415	51.869	6.8737e-05	95.055	148.060	182.176	186.392	83.005	174.710	216.537	82.578	87.595	202.354	186.692	85.684	89.615	91.854	95.181	164.934	92.592	-8191	255	
1313.861	1	1	0	0	0.14573	0.3261	0.19765	0.16396	0.12359	0.17804	0.21136	0.13356	0.068896	0.14029	0.090046	0.27111	0.36879	0.20826	0.1024	0.17486	-1.3563	-0.95	-1.9375	-1.5562	-1.2062	-1.8917	-1.3583	-1.6083	-1.8563	-1.0979	-1.9083	-1.7313	-1.2167	-2.2292	-1.1208	-1.4292	364.597	285.448	384.178	410.830	323.536	317.806	335.464	243.814	91.787	270.698	319.905	335.850	365.174	376.424	280.698	114.878	0.0010506	0.00052417	0.00010589	395.12	4.1737e-06	8.9588e-06	594.26	177.28	7.1038e-06	7.4092e-06	303.69	162.18	95.211	53.083	3.228e-06	97.442	0.0039739	0.006372	0.001816	391.65	6.5903e-05	7.3562e-05	579.4	173.56	6.2819e-05	7.3786e-05	296.86	156.64	94.009	51.682	6.7363e-05	94.504	143.523	142.084	382.715	82.654	177.819	218.485	82.613	87.849	212.734	282.961	86.088	89.501	91.971	95.084	193.820	92.286	-8191	255	
