BOXY.EXE: ISS Imagent and Oximeter Data Acquisition Program Version 0.80
Ascii Record File

#ACQ INFORMATION
2  Detector Channels 
16  External MUX Channels 
1  Auxiliary Channels 
5000  Waveform (CCF) Frequency (Hz)
1  Waveforms Skipped 
30  Waveforms Averaged 
1  Cycles Averaged 
16  Acquisitions per Waveform 
10.0806  Updata Rate (Hz) 

#FILE INFORMATION
TRUE -- External MUX Channel results are PARSED.
FALSE -- AC DC and Phase are NOT grouped.
TRUE -- Companion Program Settings File CREATED.
FALSE -- AC data not excluded
FALSE -- DC data not excluded
FALSE -- Phase data not excluded
FALSE -- Auxillary Chn. data not excluded
Tab delimiters

#CALIBRATION STATE
TRUE -- Waveform Calibration Values APPLIED.


#AUX CALIBRATION VALUES
Val Type	aux-1	

Term	1.0000e+00	
Factor	0.0000e+00	


#WF CALIBRATION VALUES
A = Detector Channel
Val Type	A-AC1	A-AC2	A-AC3	A-AC4	A-AC5	A-AC6	A-AC7	A-AC8	A-AC9	A-AC10	A-AC11	A-AC12	A-AC13	A-AC14	A-AC15	A-AC16	A-DC1	A-DC2	A-DC3	A-DC4	A-DC5	A-DC6	A-DC7	A-DC8	A-DC9	A-DC10	A-DC11	A-DC12	A-DC13	A-DC14	A-DC15	A-DC16	A-Ph1	A-Ph2	A-Ph3	A-Ph4	A-Ph5	A-Ph6	A-Ph7	A-Ph8	A-Ph9	A-Ph10	A-Ph11	A-Ph12	A-Ph13	A-Ph14	A-Ph15	A-Ph16	

Term	0.00000e+00	0.00000e+00	0.00000e+00	0.00000e+00	0.00000e+00	0.00000e+00	0.00000e+00	0.00000e+00	0.00000e+00	0.00000e+00	0.00000e+00	0.00000e+00	0.00000e+00	0.00000e+00	0.00000e+00	0.00000e+00	0.00000e+00	0.00000e+00	0.00000e+00	0.00000e+00	0.00000e+00	0.00000e+00	0.00000e+00	0.00000e+00	0.00000e+00	0.00000e+00	0.00000e+00	0.00000e+00	0.00000e+00	0.00000e+00	0.00000e+00	0.00000e+00	0.00000e+00	0.00000e+00	0.00000e+00	0.00000e+00	0.00000e+00	0.00000e+00	0.00000e+00	0.00000e+00	0.00000e+00	0.00000e+00	0.00000e+00	0.00000e+00	0.00000e+00	0.00000e+00	0.00000e+00	0.00000e+00	
Factor	1.00000e+00	1.00000e+00	1.00000e+00	1.00000e+00	1.00000e+00	1.00000e+00	1.00000e+00	1.00000e+00	1.00000e+00	1.00000e+00	1.00000e+00	1.00000e+00	1.00000e+00	1.00000e+00	1.00000e+00	1.00000e+00	1.00000e+00	1.00000e+00	1.00000e+00	1.00000e+00	1.00000e+00	1.00000e+00	1.00000e+00	1.00000e+00	1.00000e+00	1.00000e+00	1.00000e+00	1.00000e+00	1.00000e+00	1.00000e+00	1.00000e+00	1.00000e+00	X	X	X	X	X	X	X	X	X	X	X	X	X	X	X	X	

B = Detector Channel
Val Type	B-AC1	B-AC2	B-AC3	B-AC4	B-AC5	B-AC6	B-AC7	B-AC8	B-AC9	B-AC10	B-AC11	B-AC12	B-AC13	B-AC14	B-AC15	B-AC16	B-DC1	B-DC2	B-DC3	B-DC4	B-DC5	B-DC6	B-DC7	B-DC8	B-DC9	B-DC10	B-DC11	B-DC12	B-DC13	B-DC14	B-DC15	B-DC16	B-Ph1	B-Ph2	B-Ph3	B-Ph4	B-Ph5	B-Ph6	B-Ph7	B-Ph8	B-Ph9	B-Ph10	B-Ph11	B-Ph12	B-Ph13	B-Ph14	B-Ph15	B-Ph16	

Term	0.00000e+00	0.00000e+00	0.00000e+00	0.00000e+00	0.00000e+00	0.00000e+00	0.00000e+00	0.00000e+00	0.00000e+00	0.00000e+00	0.00000e+00	0.00000e+00	0.00000e+00	0.00000e+00	0.00000e+00	0.00000e+00	0.00000e+00	0.00000e+00	0.00000e+00	0.00000e+00	0.00000e+00	0.00000e+00	0.00000e+00	0.00000e+00	0.00000e+00	0.00000e+00	0.00000e+00	0.00000e+00	0.00000e+00	0.00000e+00	0.00000e+00	0.00000e+00	-1.46573e+02	-1.30403e+02	-1.37663e+02	-1.82827e+02	-7.22735e+01	-6.30001e+01	-1.58910e+02	-1.62015e+02	-7.72400e+01	-6.72005e+01	-1.71070e+02	-1.70740e+02	-1.82889e+02	-1.76704e+02	-6.79015e+01	-1.49758e+02	
Factor	2.11726e-05	1.42107e-04	4.06141e-05	1.78644e-01	1.31213e-06	1.57184e-06	1.76680e-01	4.86151e-02	1.17736e-06	1.44838e-06	9.37926e-02	2.76980e-02	2.41818e-02	8.94260e-03	1.48299e-06	1.30437e-02	5.47952e-06	6.70541e-06	1.89136e-06	9.01438e-02	7.13655e-08	7.35607e-08	8.41523e-02	2.47218e-02	7.09250e-08	7.32396e-08	4.60402e-02	1.36710e-02	1.23919e-02	4.56909e-03	7.18436e-08	6.45217e-03	X	X	X	X	X	X	X	X	X	X	X	X	X	X	X	X	



#DISTANCE SETTINGS
A = Detector Channel
A-1	A-2	A-3	A-4	A-5	A-6	A-7	A-8	A-9	A-10	A-11	A-12	A-13	A-14	A-15	A-16	

2.5000e+00	3.0000e+00	2.5000e+00	3.0000e+00	2.0000e+00	3.0000e+00	1.5000e+00	3.0000e+00	3.0000e+00	3.0000e+00	3.0000e+00	3.0000e+00	3.0000e+00	3.0000e+00	1.5000e+00	3.0000e+00	

B = Detector Channel
B-1	B-2	B-3	B-4	B-5	B-6	B-7	B-8	B-9	B-10	B-11	B-12	B-13	B-14	B-15	B-16	

1.0000e+01	1.0000e+01	1.0000e+01	1.4400e+00	1.0000e+01	1.0000e+01	1.5100e+00	1.9400e+00	1.0000e+01	1.0000e+01	1.9900e+00	2.4900e+00	2.4100e+00	2.9000e+00	1.0000e+01	2.9800e+00	




#DATA BEGINS
time	group	step	mark	flag	A-AC1	A-AC2	A-AC3	A-AC4	A-AC5	A-AC6	A-AC7	A-AC8	A-AC9	A-AC10	A-AC11	A-AC12	A-AC13	A-AC14	A-AC15	A-AC16	A-DC1	A-DC2	A-DC3	A-DC4	A-DC5	A-DC6	A-DC7	A-DC8	A-DC9	A-DC10	A-DC11	A-DC12	A-DC13	A-DC14	A-DC15	A-DC16	A-Ph1	A-Ph2	A-Ph3	A-Ph4	A-Ph5	A-Ph6	A-Ph7	A-Ph8	A-Ph9	A-Ph10	A-Ph11	A-Ph12	A-Ph13	A-Ph14	A-Ph15	A-Ph16	B-AC1	B-AC2	B-AC3	B-AC4	B-AC5	B-AC6	B-AC7	B-AC8	B-AC9	B-AC10	B-AC11	B-AC12	B-AC13	B-AC14	B-AC15	B-AC16	B-DC1	B-DC2	B-DC3	B-DC4	B-DC5	B-DC6	B-DC7	B-DC8	B-DC9	B-DC10	B-DC11	B-DC12	B-DC13	B-DC14	B-DC15	B-DC16	B-Ph1	B-Ph2	B-Ph3	B-Ph4	B-Ph5	B-Ph6	B-Ph7	B-Ph8	B-Ph9	B-Ph10	B-Ph11	B-Ph12	B-Ph13	B-Ph14	B-Ph15	B-Ph16	aux-1	digaux	

2349.844	1	1	0	256	0.11372	0.25392	0.11324	0.36314	0.30311	0.21553	0.15729	0.17008	0.18654	0.11556	0.21571	0.33856	0.12787	0.11132	0.11903	0.14154	-2.3146	-2.7417	-2.9062	-2.7208	-3.0563	-2.7708	-2.5521	-3.1708	-2.6542	-2.8354	-3.0917	-2.8604	-2.8208	-3.0083	-2.7104	-3.1208	239.849	202.099	78.953	96.240	233.502	352.847	264.984	166.516	221.945	381.804	423.172	347.515	320.373	428.631	132.348	76.971	0.00069729	0.00049944	0.00014184	350.65	1.2647e-05	7.5468e-06	533.78	162.1	9.2789e-06	5.6963e-06	291.25	141.96	81.977	39.415	5.3782e-06	70.636	0.003252	0.0039681	0.0011143	410.77	4.182e-05	4.2525e-05	596.78	181.48	4.0403e-05	4.3355e-05	325.36	154.24	91.528	43.654	4.19e-05	76.778	147.399	212.866	205.901	89.195	221.467	240.156	88.968	93.614	226.992	324.089	92.216	95.361	96.776	100.627	293.544	99.243	-8191	255	
2349.940	1	1	0	0	0.099435	0.27007	0.13849	0.32384	0.30439	0.11118	0.12067	0.15668	0.16027	0.20863	0.24077	0.079081	0.04837	0.24649	0.20141	0.29709	-2.275	-2.9062	-2.9458	-2.7521	-2.9062	-2.9417	-2.8542	-3.0167	-2.875	-2.6937	-3.1479	-2.8354	-2.9708	-2.9917	-2.5333	-3.1896	255.165	240.671	266.050	411.194	236.924	98.737	424.282	155.544	105.584	246.467	135.750	163.973	137.803	321.391	367.121	427.632	0.00077222	0.00017907	0.00033336	351.7	3.5157e-06	7.0692e-06	533.68	163.08	2.0746e-06	4.9771e-06	289.29	140.5	81.374	39.359	5.8524e-06	70.007	0.0032708	0.0039935	0.0011037	410.8	4.2178e-05	4.2977e-05	593.45	181.32	4.0312e-05	4.3162e-05	322.19	152.6	90.8	43.391	4.0083e-05	76.211	159.483	360.636	195.428	89.227	211.937	233.297	88.953	93.621	195.930	207.664	92.211	95.500	96.586	100.785	183.453	99.164	-8191	255	
2350.060	1	1	0	0	0.29403	0.15207	0.12014	0.081327	0.094337	0.36452	0.26909	0.056527	0.26417	0.15171	0.13592	0.049646	0.23466	0.06655	0.13539	0.27259	-2.3729	-2.6042	-2.8417	-2.7687	-2.7562	-2.9292	-2.7313	-3.0604	-2.8042	-2.7479	-2.9771	-2.9104	-2.8937	-2.9521	-2.8146	-3.0083	194.000	302.124	163.327	399.819	338.275	342.909	307.309	379.612	136.491	210.310	294.392	316.453	382.054	189.847	171.607	385.538	0.00084898	0.00081548	7.9027e-05	353.78	6.1904e-06	6.5157e-06	535.89	161.26	5.6886e-06	3.4174e-06	287.82	140.87	80.691	39.149	5.491e-06	69.852	0.0032507	0.0039041	0.0010737	412.23	4.1341e-05	4.2435e-05	594.87	180.27	4.0347e-05	4.2081e-05	320.31	151.82	90.091	43.245	3.9407e-05	75.867	147.765	146.636	135.844	88.977	204.122	233.500	88.702	93.484	210.098	193.196	92.389	95.753	96.688	100.884	221.246	99.399	-8191	255	
2350.156	1	1	0	0	0.067844	0.2704	0.071121	0.21086	0.057475	0.18743	0.16008	0.17026	0.1106	0.16545	0.056603	0.29829	0.14395	0.25485	0.15615	0.27741	-2.4646	-2.7188	-2.9292	-2.7708	-2.9062	-3	-2.8104	-2.9917	-2.8521	-2.6479	-3.1708	-2.7875	-2.9604	-3.2188	-2.7812	-3.0542	254.149	315.784	84.586	350.839	163.937	218.334	99.015	266.359	372.620	409.641	116.202	144.995	246.652	374.281	211.339	288.749	0.00078432	0.00014762	0.00017818	358.7	6.4337e-06	5.1647e-06	541.05	160.3	7.9084e-06	4.3844e-06	281.2	137.06	78.875	38.647	4.7374e-06	69.318	0.0032993	0.0038732	0.00107	416.88	4.1936e-05	4.2798e-05	597.71	179.22	4.1471e-05	4.2597e-05	315.54	149.1	88.458	42.858	4.1185e-05	75.397	147.481	428.896	232.722	88.974	225.855	82.860	88.671	93.523	186.597	193.933	92.646	95.677	96.722	101.069	232.662	99.341	-8191	255	
2350.253	1	1	0	0	0.27685	0.094202	0.26767	0.12105	0.16298	0.16823	0.042721	0.13896	0.315	0.31953	0.17997	0.30487	0.27241	0.14429	0.12285	0.15879	-2.5792	-2.5104	-2.8438	-2.8375	-2.7583	-2.9313	-2.5292	-2.8812	-2.9104	-2.8604	-3.0604	-2.9833	-2.7979	-3.1125	-2.675	-2.9417	135.329	393.217	236.544	321.721	308.852	183.857	110.199	267.756	262.609	425.961	343.150	338.489	343.273	109.018	217.568	363.753	0.00081789	0.00013975	0.00032487	361.82	3.0198e-06	8.7454e-06	541	157.53	7.5918e-06	5.8383e-06	277.57	133.87	76.939	38.428	4.7279e-06	68.397	0.003423	0.0039096	0.0011133	423.87	4.3533e-05	4.377e-05	601.58	177.16	4.2934e-05	4.2879e-05	312.45	146.3	86.838	42.457	4.2018e-05	74.629	150.282	150.220	121.006	89.078	211.637	216.498	88.909	93.662	189.439	266.055	92.412	95.920	97.109	101.032	179.675	99.539	-8191	255	
2350.349	1	1	0	0	0.16391	0.11755	0.11859	0.071776	0.14104	0.10476	0.23106	0.16448	0.081709	0.22126	0.041255	0.076327	0.15935	0.1034	0.076227	0.18918	-2.5542	-2.7188	-3	-2.9938	-2.6979	-2.8979	-2.6813	-2.8937	-2.7958	-2.75	-3.0438	-2.8375	-2.5312	-3.1937	-2.7833	-3.0812	264.841	308.721	305.142	136.646	315.012	345.931	317.103	373.646	255.826	150.880	377.953	375.351	409.628	169.701	384.915	405.183	0.0006781	0.0014454	7.8529e-05	368.43	4.8713e-06	5.5991e-06	543.13	154.28	3.3281e-06	4.4374e-06	268.61	128.75	73.64	37.375	1.1361e-05	66.409	0.0034954	0.0039127	0.001153	430.88	4.395e-05	4.4335e-05	605.46	173.94	4.4355e-05	4.3624e-05	304.49	141.25	83.92	41.676	4.382e-05	72.585	147.031	155.771	102.465	89.103	200.677	206.221	88.467	93.940	143.519	190.975	92.535	95.943	97.489	101.297	192.046	99.717	-8191	255	
2350.445	1	1	0	0	0.17057	0.028318	0.19476	0.33533	0.16699	0.23165	0.19914	0.10703	0.045687	0.040911	0.12062	0.23015	0.21036	0.13475	0.30845	0.35744	-2.775	-2.6188	-2.9083	-2.8	-2.7625	-2.975	-2.8083	-3.0104	-2.9333	-2.6958	-3.075	-3.0083	-2.7521	-3.0625	-2.8167	-2.9125	133.676	139.026	365.579	404.622	103.095	371.909	346.283	332.587	110.159	344.242	244.793	404.607	413.437	351.986	395.742	319.356	0.00071227	0.00016971	0.00023701	373.58	5.7399e-06	8.3542e-06	541.93	152.05	1.1164e-05	1.0692e-05	263.24	126.26	73.071	37.142	6.6044e-06	65.411	0.0035713	0.0040074	0.0011921	435.59	4.441e-05	4.5382e-05	607.59	172.2	4.4735e-05	4.3847e-05	300.12	139	82.652	41.43	4.4656e-05	71.953	144.192	186.502	164.657	88.974	209.157	322.706	88.555	94.123	209.026	253.145	92.584	96.180	97.494	101.155	193.980	99.618	-8191	255	
2350.541	1	1	0	0	0.20025	0.29701	0.076821	0.10011	0.23916	0.20764	0.11942	0.16587	0.22825	0.11163	0.15419	0.14437	0.15613	0.2096	0.28374	0.11967	-2.8021	-2.5646	-2.8167	-2.8771	-2.7229	-3.0354	-2.9062	-2.8563	-2.9583	-2.7479	-2.8646	-3.0771	-2.7896	-2.7396	-2.7708	-2.9938	200.022	395.781	210.485	400.225	114.831	247.774	352.420	412.518	120.730	114.967	433.473	345.339	198.169	82.241	350.118	295.053	0.00061655	2.4631e-05	5.6652e-05	368.91	7.8205e-07	2.5818e-06	540.96	150.74	6.1939e-06	2.6725e-06	262.7	125.35	72.456	37.21	1.0147e-05	65.454	0.0035891	0.0040715	0.0012128	436.09	4.3996e-05	4.7062e-05	606.95	171.27	4.5092e-05	4.5568e-05	299.16	138.33	82.132	41.451	4.6148e-05	72.106	149.710	377.128	197.670	89.166	253.740	376.956	88.496	94.045	262.125	282.870	92.863	95.929	97.340	101.449	249.909	99.543	-8191	255	
2350.637	1	1	0	0	0.028943	0.30981	0.0679	0.047077	0.13951	0.22159	0.23783	0.16939	0.01717	0.21114	0.27529	0.24707	0.26316	0.20441	0.08401	0.40379	-2.7354	-2.6833	-2.7958	-2.8333	-2.4958	-3.025	-3.0458	-2.7646	-2.9792	-2.9458	-2.8896	-3.0792	-2.5833	-3.0187	-2.9437	-2.875	114.597	320.032	218.672	371.116	163.662	240.497	125.784	111.558	331.872	306.560	299.030	424.216	392.431	350.624	179.592	350.362	0.00084324	0.00039784	0.00017688	369.96	5.8716e-06	7.6055e-06	539.77	151.51	3.6442e-06	1.2289e-06	263.54	126.29	72.848	37.355	8.4729e-06	65.847	0.0036097	0.0041965	0.0012351	436.34	4.4084e-05	4.7505e-05	607.11	171.42	4.4887e-05	4.5979e-05	300.16	139.18	82.422	41.627	4.65e-05	72.467	143.188	211.425	90.653	89.017	226.727	222.710	88.605	93.674	201.112	271.644	92.680	96.089	97.335	100.997	167.334	99.658	-8191	255	
2350.758	1	1	0	0	0.33502	0.10013	0.075155	0.072485	0.21869	0.16866	0.12073	0.062348	0.099663	0.15308	0.12463	0.21651	0.39238	0.10189	0.16585	0.19577	-2.6167	-2.7042	-2.7771	-3.1167	-2.7208	-3.1104	-3.0292	-2.8479	-2.9542	-2.8625	-2.8521	-3.2292	-2.65	-2.9958	-3.0812	-2.7729	89.436	385.544	173.454	76.501	404.321	328.410	195.844	175.446	350.469	241.507	311.022	113.340	382.783	381.332	324.094	190.931	0.00080385	0.00057366	9.4949e-05	368.17	3.0834e-06	5.5933e-06	539.87	150.59	7.1032e-06	6.435e-06	262.08	125.63	72.471	37.171	9.0381e-06	65.531	0.0036418	0.0042535	0.0012439	435.76	4.4322e-05	4.8348e-05	609.3	171.08	4.5958e-05	4.7079e-05	299.39	138.49	82.262	41.552	4.7296e-05	71.833	146.996	177.745	191.842	89.042	249.604	330.245	88.859	93.806	249.791	286.715	92.509	95.934	97.202	101.068	183.500	99.566	-8191	255	
2350.852	1	1	0	0	0.23368	0.14285	0.37476	0.061201	0.060471	0.38792	0.14841	0.097874	0.1552	0.11685	0.23855	0.12535	0.15876	0.2684	0.054331	0.1679	-2.5792	-2.6979	-2.6417	-2.9562	-2.8208	-2.9188	-2.9417	-2.6437	-3.0354	-2.9	-2.8229	-3.1479	-2.8583	-3.025	-3.0458	-2.7771	377.166	87.804	342.702	170.797	112.774	100.584	326.799	87.159	335.269	426.418	142.790	390.284	83.875	397.328	234.912	380.611	0.00066498	0.00043903	0.00010999	368.42	1.0251e-05	6.7938e-06	534.19	149.91	2.8468e-06	2.135e-06	260.58	124.63	72.346	37.006	1.0871e-05	65.191	0.0036829	0.0043499	0.00125	434.3	4.5154e-05	4.8599e-05	603.2	169.87	4.6247e-05	4.7675e-05	297.31	137.4	82.16	41.393	4.7269e-05	71.463	149.468	123.758	183.414	89.028	275.077	255.140	88.832	93.854	196.379	299.695	92.682	96.164	97.304	101.117	213.694	99.638	-8191	255	
2350.948	1	1	0	0	0.22534	0.20016	0.093516	0.26296	0.17424	0.14094	0.25654	0.20941	0.25796	0.34893	0.13691	0.18023	0.25797	0.22573	0.17194	0.38367	-2.55	-2.7812	-2.8104	-3.0396	-2.8396	-2.7687	-2.9521	-2.8125	-3.0563	-2.9333	-2.7604	-2.8771	-2.8875	-2.9021	-2.8625	-2.725	375.853	285.183	137.192	155.741	240.086	347.869	418.519	214.955	268.834	265.793	418.802	414.041	332.471	167.938	208.366	380.484	0.00071553	0.00036585	0.00026247	365.34	5.5686e-06	6.9369e-06	532.4	150.48	4.3308e-06	8.8937e-07	259.45	124.45	72.117	36.792	7.1576e-06	64.909	0.0037225	0.0043765	0.0012366	431.62	4.5421e-05	4.85e-05	597.91	169.89	4.6507e-05	4.7954e-05	296.21	136.94	82.051	41.24	4.6931e-05	71.212	155.149	96.051	192.844	88.996	190.272	210.202	88.637	94.003	173.382	179.353	92.896	95.770	97.166	101.226	208.602	99.494	-8191	255	
2351.045	1	1	0	0	0.074596	0.040784	0.083508	0.09831	0.19594	0.061457	0.18879	0.267	0.069632	0.20487	0.042735	0.17955	0.080647	0.0046353	0.30268	0.17674	-2.3958	-2.9146	-2.6562	-3.0021	-2.6792	-2.8937	-3.175	-2.6208	-2.9354	-2.8563	-2.6958	-3.1437	-2.7146	-2.7542	-3.2083	-2.65	87.322	378.999	186.441	235.488	306.538	207.410	319.694	260.668	323.009	315.872	229.102	373.137	398.310	118.949	364.471	415.549	0.0007345	8.2293e-05	0.00014647	364.92	5.2056e-06	1.0309e-05	532.86	149.74	8.1277e-06	9.5227e-06	261.04	125.3	72.333	37.001	9.6442e-06	65.272	0.0037279	0.0043983	0.0012046	430.04	4.5931e-05	4.842e-05	595.58	169.31	4.6448e-05	4.7916e-05	295.95	138.04	82.286	41.261	4.6147e-05	71.492	157.175	138.524	127.856	88.891	227.719	211.686	88.868	93.904	289.906	245.027	92.743	95.879	97.017	101.254	286.429	99.425	-8191	255	
2351.141	1	1	0	0	0.012343	0.094768	0.08597	0.23353	0.12583	0.090951	0.17588	0.22379	0.19496	0.079261	0.19547	0.26976	0.26075	0.32274	0.13278	0.078925	-2.4437	-2.7812	-2.6021	-2.9854	-2.6792	-2.6375	-3.1	-2.9062	-2.8729	-2.8563	-2.8521	-3.0458	-2.8271	-2.7542	-2.8271	-2.925	361.681	353.147	411.429	352.627	297.933	157.168	76.552	290.678	253.734	181.169	367.062	398.558	382.677	396.842	92.010	100.777	0.00074345	0.00021857	0.00021678	359.51	1.1085e-05	1.1392e-06	527.28	149.23	5.3841e-06	6.5927e-06	261.04	125.8	72.951	37.021	5.8993e-06	65.48	0.0037223	0.0043907	0.0011725	425.38	4.6343e-05	4.8001e-05	591.3	168.9	4.7141e-05	4.8446e-05	296.37	138.85	83.074	41.41	4.6616e-05	71.955	152.883	210.141	146.412	89.181	267.689	217.472	88.634	93.820	199.949	214.784	92.372	96.096	97.149	101.056	160.715	99.429	-8191	255	
2351.237	1	1	0	0	0.014675	0.16794	0.24619	0.30554	0.093205	0.1041	0.11625	0.025516	0.23776	0.075877	0.27628	0.28669	0.082914	0.21721	0.23225	0.16554	-2.2167	-2.8521	-2.5438	-2.8271	-2.8104	-2.6	-2.9188	-2.8771	-2.6979	-2.9417	-2.6417	-3.1	-2.8104	-2.6167	-2.6813	-2.9854	102.377	228.494	347.798	257.583	428.741	191.664	287.021	350.177	321.080	286.629	378.162	102.215	82.755	399.826	77.227	417.029	0.00074691	0.00099732	9.4948e-05	352.37	4.9958e-06	7.3255e-06	522.44	148.21	4.0553e-06	3.7468e-06	261.18	125.98	73.021	36.96	5.456e-06	65.231	0.0037705	0.0044502	0.0011892	421.09	4.674e-05	4.7151e-05	585.6	168.07	4.6427e-05	4.7864e-05	294.89	138.71	82.959	41.19	4.5617e-05	71.542	151.806	212.299	218.256	88.827	96.515	133.865	89.040	94.122	205.047	195.545	92.749	95.650	97.170	101.149	214.970	99.364	-8191	255	
2351.357	1	1	0	0	0.24844	0.17719	0.093988	0.12321	0.22987	0.088499	0.27032	0.10104	0.16783	0.1376	0.082385	0.074892	0.22389	0.40724	0.21623	0.20476	-2.4833	-2.9271	-2.5896	-3.1708	-2.9292	-2.75	-3.0687	-2.8667	-2.7917	-3.1708	-2.575	-2.9125	-2.9125	-2.7667	-3.0896	-2.9958	385.746	382.887	368.451	369.668	185.948	214.939	286.493	163.620	365.329	139.409	88.575	358.363	311.928	390.612	425.412	291.224	0.00075484	0.00031459	0.0002605	350.46	2.0532e-06	7.3216e-06	514.21	148.12	3.7576e-06	3.8144e-06	259.26	126.83	73.284	37.109	4.1106e-06	65.324	0.0036741	0.004285	0.001162	416.31	4.641e-05	4.5623e-05	579.77	168.06	4.5747e-05	4.6446e-05	294.96	139.24	83.174	41.204	4.546e-05	71.747	153.085	394.497	174.500	89.092	137.509	194.148	88.703	93.883	246.347	271.318	92.442	95.932	97.012	101.142	247.705	99.367	-8191	255	
2351.454	1	1	0	0	0.20465	0.086571	0.20141	0.073494	0.15998	0.063926	0.077341	0.26398	0.19305	0.064281	0.10603	0.095939	0.058262	0.11353	0.11386	0.28881	-2.2646	-2.9938	-2.7271	-2.8563	-2.8979	-2.6271	-3.1021	-2.8708	-2.6292	-2.9104	-2.85	-2.9167	-2.9542	-2.6896	-3.1813	-2.9604	221.173	261.072	109.176	397.014	104.980	238.684	429.305	310.946	81.396	297.527	379.115	312.217	317.585	97.458	166.530	405.984	0.00068843	0.00026609	0.00021833	349.07	6.9819e-06	9.5041e-06	512.96	148.59	2.5926e-06	5.1254e-06	263.79	127.71	73.648	37.195	1.1833e-05	65.719	0.0035924	0.0041535	0.0011539	414.02	4.5369e-05	4.3734e-05	577.79	168.77	4.4083e-05	4.5005e-05	297.34	140.31	83.592	41.226	4.4754e-05	72.082	160.760	80.083	81.336	89.337	198.266	303.196	88.735	93.720	271.826	310.643	92.849	95.851	97.180	100.890	253.595	99.735	-8191	255	
2351.550	1	1	0	0	0.13852	0.26975	0.078459	0.16997	0.062835	0.17456	0.17577	0.31757	0.19094	0.48967	0.15432	0.053632	0.15754	0.023236	0.18072	0.13296	-2.1771	-3.0708	-2.6937	-2.7771	-3.1458	-2.7083	-2.9188	-3.0062	-2.65	-3.0812	-2.8021	-2.8	-3	-2.9062	-2.9083	-3.1583	156.059	211.709	281.230	85.852	245.287	114.684	87.187	211.967	80.633	284.003	390.369	392.105	284.897	332.566	279.441	398.687	0.00065036	0.00026151	0.00011901	347.33	1.2037e-06	6.3201e-06	517.35	149.99	4.3313e-06	2.3376e-06	264.44	129.1	74.782	37.468	1.0835e-05	66.444	0.0034552	0.0040853	0.0011428	412.18	4.3997e-05	4.3089e-05	577.97	169.16	4.2118e-05	4.4112e-05	299.02	141.44	84.348	41.481	4.3935e-05	72.868	156.845	297.212	89.810	89.294	176.274	281.266	89.008	93.814	254.548	211.038	92.548	95.831	97.095	100.939	247.301	99.299	-8191	255	
