BOXY.EXE: ISS Imagent and Oximeter Data Acquisition Program Version 0.80
Ascii Record File

#ACQ INFORMATION
2  Detector Channels 
16  External MUX Channels 
1  Auxiliary Channels 
5000  Waveform (CCF) Frequency (Hz)
1  Waveforms Skipped 
30  Waveforms Averaged 
1  Cycles Averaged 
16  Acquisitions per Waveform 
10.0806  Updata Rate (Hz) 

#FILE INFORMATION
TRUE -- External MUX Channel results are PARSED.
FALSE -- AC DC and Phase are NOT grouped.
TRUE -- Companion Program Settings File CREATED.
FALSE -- AC data not excluded
FALSE -- DC data not excluded
FALSE -- Phase data not excluded
FALSE -- Auxillary Chn. data not excluded
Tab delimiters

#CALIBRATION STATE
TRUE -- Waveform Calibration Values APPLIED.


#AUX CALIBRATION VALUES
Val Type	aux-1	

Term	1.0000e+00	
Factor	0.0000e+00	


#WF CALIBRATION VALUES
A = Detector Channel
Val Type	A-AC1	A-AC2	A-AC3	A-AC4	A-AC5	A-AC6	A-AC7	A-AC8	A-AC9	A-AC10	A-AC11	A-AC12	A-AC13	A-AC14	A-AC15	A-AC16	A-DC1	A-DC2	A-DC3	A-DC4	A-DC5	A-DC6	A-DC7	A-DC8	A-DC9	A-DC10	A-DC11	A-DC12	A-DC13	A-DC14	A-DC15	A-DC16	A-Ph1	A-Ph2	A-Ph3	A-Ph4	A-Ph5	A-Ph6	A-Ph7	A-Ph8	A-Ph9	A-Ph10	A-Ph11	A-Ph12	A-Ph13	A-Ph14	A-Ph15	A-Ph16	

Term	0.00000e+00	0.00000e+00	0.00000e+00	0.00000e+00	0.00000e+00	0.00000e+00	0.00000e+00	0.00000e+00	0.00000e+00	0.00000e+00	0.00000e+00	0.00000e+00	0.00000e+00	0.00000e+00	0.00000e+00	0.00000e+00	0.00000e+00	0.00000e+00	0.00000e+00	0.00000e+00	0.00000e+00	0.00000e+00	0.00000e+00	0.00000e+00	0.00000e+00	0.00000e+00	0.00000e+00	0.00000e+00	0.00000e+00	0.00000e+00	0.00000e+00	0.00000e+00	0.00000e+00	0.00000e+00	0.00000e+00	0.00000e+00	0.00000e+00	0.00000e+00	0.00000e+00	0.00000e+00	0.00000e+00	0.00000e+00	0.00000e+00	0.00000e+00	0.00000e+00	0.00000e+00	0.00000e+00	0.00000e+00	
Factor	1.00000e+00	1.00000e+00	1.00000e+00	1.00000e+00	1.00000e+00	1.00000e+00	1.00000e+00	1.00000e+00	1.00000e+00	1.00000e+00	1.00000e+00	1.00000e+00	1.00000e+00	1.00000e+00	1.00000e+00	1.00000e+00	1.00000e+00	1.00000e+00	1.00000e+00	1.00000e+00	1.00000e+00	1.00000e+00	1.00000e+00	1.00000e+00	1.00000e+00	1.00000e+00	1.00000e+00	1.00000e+00	1.00000e+00	1.00000e+00	1.00000e+00	1.00000e+00	X	X	X	X	X	X	X	X	X	X	X	X	X	X	X	X	

B = Detector Channel
Val Type	B-AC1	B-AC2	B-AC3	B-AC4	B-AC5	B-AC6	B-AC7	B-AC8	B-AC9	B-AC10	B-AC11	B-AC12	B-AC13	B-AC14	B-AC15	B-AC16	B-DC1	B-DC2	B-DC3	B-DC4	B-DC5	B-DC6	B-DC7	B-DC8	B-DC9	B-DC10	B-DC11	B-DC12	B-DC13	B-DC14	B-DC15	B-DC16	B-Ph1	B-Ph2	B-Ph3	B-Ph4	B-Ph5	B-Ph6	B-Ph7	B-Ph8	B-Ph9	B-Ph10	B-Ph11	B-Ph12	B-Ph13	B-Ph14	B-Ph15	B-Ph16	

Term	0.00000e+00	0.00000e+00	0.00000e+00	0.00000e+00	0.00000e+00	0.00000e+00	0.00000e+00	0.00000e+00	0.00000e+00	0.00000e+00	0.00000e+00	0.00000e+00	0.00000e+00	0.00000e+00	0.00000e+00	0.00000e+00	0.00000e+00	0.00000e+00	0.00000e+00	0.00000e+00	0.00000e+00	0.00000e+00	0.00000e+00	0.00000e+00	0.00000e+00	0.00000e+00	0.00000e+00	0.00000e+00	0.00000e+00	0.00000e+00	0.00000e+00	0.00000e+00	-1.46573e+02	-1.30403e+02	-1.37663e+02	-1.82827e+02	-7.22735e+01	-6.30001e+01	-1.58910e+02	-1.62015e+02	-7.72400e+01	-6.72005e+01	-1.71070e+02	-1.70740e+02	-1.82889e+02	-1.76704e+02	-6.79015e+01	-1.49758e+02	
Factor	2.11726e-05	1.42107e-04	4.06141e-05	1.78644e-01	1.31213e-06	1.57184e-06	1.76680e-01	4.86151e-02	1.17736e-06	1.44838e-06	9.37926e-02	2.76980e-02	2.41818e-02	8.94260e-03	1.48299e-06	1.30437e-02	5.47952e-06	6.70541e-06	1.89136e-06	9.01438e-02	7.13655e-08	7.35607e-08	8.41523e-02	2.47218e-02	7.09250e-08	7.32396e-08	4.60402e-02	1.36710e-02	1.23919e-02	4.56909e-03	7.18436e-08	6.45217e-03	X	X	X	X	X	X	X	X	X	X	X	X	X	X	X	X	



#DISTANCE SETTINGS
A = Detector Channel
A-1	A-2	A-3	A-4	A-5	A-6	A-7	A-8	A-9	A-10	A-11	A-12	A-13	A-14	A-15	A-16	

2.5000e+00	3.0000e+00	2.5000e+00	3.0000e+00	2.0000e+00	3.0000e+00	1.5000e+00	3.0000e+00	3.0000e+00	3.0000e+00	3.0000e+00	3.0000e+00	3.0000e+00	3.0000e+00	1.5000e+00	3.0000e+00	

B = Detector Channel
B-1	B-2	B-3	B-4	B-5	B-6	B-7	B-8	B-9	B-10	B-11	B-12	B-13	B-14	B-15	B-16	

1.0000e+01	1.0000e+01	1.0000e+01	1.4400e+00	1.0000e+01	1.0000e+01	1.5100e+00	1.9400e+00	1.0000e+01	1.0000e+01	1.9900e+00	2.4900e+00	2.4100e+00	2.9000e+00	1.0000e+01	2.9800e+00	




#DATA BEGINS
time	group	step	mark	flag	A-AC1	A-AC2	A-AC3	A-AC4	A-AC5	A-AC6	A-AC7	A-AC8	A-AC9	A-AC10	A-AC11	A-AC12	A-AC13	A-AC14	A-AC15	A-AC16	A-DC1	A-DC2	A-DC3	A-DC4	A-DC5	A-DC6	A-DC7	A-DC8	A-DC9	A-DC10	A-DC11	A-DC12	A-DC13	A-DC14	A-DC15	A-DC16	A-Ph1	A-Ph2	A-Ph3	A-Ph4	A-Ph5	A-Ph6	A-Ph7	A-Ph8	A-Ph9	A-Ph10	A-Ph11	A-Ph12	A-Ph13	A-Ph14	A-Ph15	A-Ph16	B-AC1	B-AC2	B-AC3	B-AC4	B-AC5	B-AC6	B-AC7	B-AC8	B-AC9	B-AC10	B-AC11	B-AC12	B-AC13	B-AC14	B-AC15	B-AC16	B-DC1	B-DC2	B-DC3	B-DC4	B-DC5	B-DC6	B-DC7	B-DC8	B-DC9	B-DC10	B-DC11	B-DC12	B-DC13	B-DC14	B-DC15	B-DC16	B-Ph1	B-Ph2	B-Ph3	B-Ph4	B-Ph5	B-Ph6	B-Ph7	B-Ph8	B-Ph9	B-Ph10	B-Ph11	B-Ph12	B-Ph13	B-Ph14	B-Ph15	B-Ph16	aux-1	digaux	

2332.294	1	1	0	256	0.093924	0.072854	0.25105	0.11338	0.11553	0.27415	0.23687	0.13999	0.3076	0.13227	0.12624	0.15202	0.02377	0.2304	0.059982	0.11665	-2.5312	-3.1125	-2.7083	-2.9979	-3.125	-2.8167	-3.3146	-2.975	-2.7479	-3.0417	-2.9604	-3.2104	-3.1229	-3.025	-3.1625	-2.9271	161.849	269.820	401.626	425.908	374.137	312.517	424.425	165.884	331.140	306.429	315.389	386.331	351.734	219.520	213.628	87.142	0.00068461	0.0012128	0.00036893	501.56	1.5823e-05	5.7809e-06	685.44	178.75	1.4535e-05	6.3726e-06	288.48	126.8	76.341	36.8	1.1563e-05	66.86	0.0086433	0.010434	0.0027605	648.82	0.00011175	0.00011324	825.75	220.97	0.00011135	0.00011346	363.06	151.71	97.986	45.172	0.00010669	79.053	162.571	211.284	134.458	89.099	182.088	379.501	88.726	93.429	199.129	430.280	92.230	95.849	97.364	101.211	193.469	99.393	-8191	255	
2332.390	1	1	0	0	0.23808	0.1266	0.2546	0.1161	0.090752	0.16288	0.32216	0.33443	0.10834	0.2641	0.040447	0.27627	0.087235	0.05036	0.077185	0.22955	-2.5187	-3.0292	-2.6688	-2.8979	-2.9542	-2.7896	-2.8625	-2.975	-2.6875	-2.975	-2.6937	-2.9875	-3.1021	-2.8042	-3.1396	-2.8896	276.484	234.733	351.565	119.534	327.140	99.826	320.239	392.337	348.039	124.001	422.020	378.355	231.709	158.217	155.758	406.364	0.0007523	0.00043606	0.0001366	505.89	7.7744e-06	1.2174e-05	689.83	179.28	7.0596e-06	2.6673e-06	290.52	128.93	77.081	37.577	6.2313e-06	67.926	0.0088025	0.010233	0.0027663	654.87	0.00011302	0.00011029	829.25	222.65	0.00011123	0.00011052	365.47	153.87	99.096	45.88	0.00010748	80.539	160.748	175.805	168.039	89.285	330.217	166.039	88.650	93.312	256.304	268.964	92.466	95.969	97.141	101.233	301.286	99.253	-8191	255	
2332.510	1	1	0	0	0.13173	0.13333	0.12225	0.25487	0.12181	0.18372	0.32047	0.31087	0.20338	0.14176	0.0814	0.15597	0.10524	0.17058	0.20234	0.14003	-2.4062	-2.9229	-2.8396	-2.9042	-2.8979	-2.7417	-2.9813	-2.8521	-2.6729	-3.2146	-2.975	-3.0542	-3.0792	-2.8688	-3.0125	-2.925	317.293	89.338	141.431	131.220	106.498	374.818	353.483	259.706	345.889	340.238	411.031	351.838	426.353	403.327	290.296	134.972	0.00071994	0.00071768	0.00037398	493.82	4.346e-06	1.039e-05	676.26	178.1	9.3947e-06	6.8868e-06	290.9	130.23	78.051	38.232	1.5282e-05	69.312	0.0087195	0.010031	0.0028017	647.88	0.00011284	0.00010817	819.39	222.5	0.00010998	0.00010864	367.17	155.97	99.628	46.409	0.00010901	82.014	150.007	115.024	91.312	89.452	138.832	191.561	88.503	93.434	170.291	209.150	92.490	96.030	97.042	101.144	172.940	99.528	-8191	255	
2332.582	1	1	0	0	0.15452	0.089005	0.19536	0.16181	0.025032	0.19707	0.31449	0.10232	0.21872	0.059707	0.14156	0.052617	0.32744	0.058247	0.13358	0.24053	-2.3187	-3.1417	-2.9875	-2.9417	-2.9417	-2.6646	-2.9354	-3	-2.5854	-2.9833	-2.8833	-2.8771	-3.05	-2.9042	-2.9604	-3.2396	156.567	290.461	165.066	252.859	230.467	279.297	418.942	126.137	185.683	432.468	305.659	403.107	426.729	359.391	108.240	322.370	0.00062221	0.00032254	5.7773e-05	489.5	4.5864e-06	2.0241e-06	667.23	177.8	2.8104e-06	1.5571e-05	290.56	130.81	77.746	38.523	1.0006e-05	69.677	0.0085605	0.009935	0.0028522	643.13	0.00011048	0.0001077	815.23	222.41	0.00010746	0.00010887	368.76	156.61	99.105	46.594	0.00011247	82.486	154.521	272.063	278.648	89.504	284.343	144.649	88.752	93.435	339.429	231.734	92.505	96.189	97.084	101.287	230.034	99.273	-8191	255	
2332.678	1	1	0	0	0.027506	0.063804	0.06598	0.32292	0.37998	0.2277	0.27096	0.19087	0.15139	0.15056	0.17254	0.11999	0.12494	0.12175	0.11748	0.3144	-2.2	-3.0271	-2.9146	-2.9188	-2.9625	-2.7292	-2.9583	-2.8875	-2.8604	-2.9875	-3.0521	-2.95	-2.975	-2.9625	-2.8771	-3.1375	126.060	419.372	144.999	383.682	141.304	407.529	371.316	331.333	112.526	149.552	390.956	370.946	433.014	101.860	255.915	369.569	0.00061792	0.0005581	0.00018364	482.83	4.9392e-06	1.3881e-05	661.23	173.7	1.0143e-05	2.5053e-06	285.4	129.5	76.363	38.111	1.2682e-05	69.867	0.0085206	0.010239	0.0029696	640.17	0.00010987	0.00011086	809.06	219.43	0.00010676	0.00011245	365.22	155.24	97.328	46.439	0.00011361	82.752	139.477	221.237	108.305	89.597	413.114	185.132	88.645	93.276	299.956	257.747	92.075	96.085	97.106	101.177	204.696	99.229	-8191	255	
2332.774	1	1	0	0	0.061235	0.12269	0.098492	0.081772	0.22117	0.22301	0.28858	0.099629	0.058578	0.095667	0.17531	0.30989	0.036563	0.034075	0.094614	0.20416	-2.3958	-2.8542	-2.8438	-2.5979	-3.2771	-2.7687	-2.8937	-3.0271	-2.6125	-2.9354	-2.9542	-2.85	-3.0542	-2.8563	-2.9062	-3.1063	367.348	144.626	87.252	173.991	107.273	353.521	385.928	216.457	428.725	414.640	93.626	373.870	283.769	366.720	234.205	374.382	0.00079527	0.00093381	0.00019909	455.11	5.8571e-06	1.1727e-05	628.76	167	5.6932e-06	1.3982e-05	280.13	130.52	76.386	39.098	1.342e-05	71.434	0.0082994	0.010263	0.0030019	610.2	0.00010748	0.00011144	778.38	210.6	0.0001044	0.00011211	360.78	156.22	96.905	47.469	0.00011416	84.319	141.388	242.210	161.266	89.312	136.338	245.779	88.839	93.682	371.934	227.941	92.476	95.837	97.178	101.003	242.996	99.127	-8191	255	
2332.895	1	1	0	0	0.1203	0.14192	0.075418	0.15092	0.073836	0.059447	0.16679	0.18078	0.17366	0.2591	0.12866	0.33287	0.14506	0.14641	0.085354	0.1467	-2.1771	-2.8021	-2.8896	-2.675	-2.9083	-3.0458	-2.8604	-2.9625	-2.6396	-2.8896	-2.8833	-2.6792	-3.1333	-2.6604	-2.6688	-3.1875	134.549	275.366	351.289	157.823	209.689	281.238	420.506	300.319	198.396	275.427	318.023	348.558	80.073	329.652	190.415	388.140	0.00077611	0.001036	0.0002107	434.88	3.1484e-06	7.3674e-06	615.83	162.31	4.4326e-06	1.0675e-05	277.6	128.72	74.888	38.56	1.0876e-05	70.265	0.0082166	0.010397	0.0030424	586.67	0.00010736	0.000114	765.26	206.09	0.0001061	0.00011603	359.7	154.18	96.388	47.215	0.00011767	83.064	156.645	164.498	130.235	89.470	226.967	294.781	88.588	93.304	287.515	157.979	92.292	96.098	97.015	101.054	176.862	98.979	-8191	255	
2332.991	1	1	0	0	0.084992	0.1219	0.13748	0.13978	0.17012	0.18124	0.14119	0.31738	0.015698	0.43894	0.15734	0.13413	0.23024	0.1842	0.24213	0.2392	-2.3354	-2.7167	-2.9917	-2.9125	-2.9458	-2.9313	-2.9521	-3.0938	-2.95	-2.9813	-3.1792	-2.8667	-3.0771	-3.1937	-2.9333	-3.1958	263.286	316.166	337.906	389.096	210.714	80.609	385.676	379.881	145.783	298.194	405.557	384.481	431.553	255.068	243.149	398.017	0.00085042	0.00022861	0.00014571	442.13	8.6118e-06	3.7368e-06	620.91	164.42	6.437e-06	1.3621e-05	275.57	128.22	75.502	38.402	4.0427e-06	70.029	0.008552	0.010884	0.0031428	594.33	0.00011275	0.00012099	775.37	208.26	0.0001124	0.00012264	361.75	154.32	97.806	47.67	0.00012173	83.45	147.576	183.274	208.142	89.386	267.725	183.385	88.505	93.611	225.281	227.094	92.329	95.717	96.809	100.937	156.654	99.128	-8191	255	
2333.087	1	1	0	0	0.23063	0.16991	0.055242	0.11603	0.22929	0.18434	0.14706	0.11215	0.05056	0.12005	0.035302	0.039267	0.24141	0.15545	0.21767	0.11958	-2.4458	-2.9771	-3.1729	-2.7687	-3.1042	-2.9521	-2.9375	-2.9771	-2.8937	-2.9583	-3.0333	-2.8688	-2.9083	-2.9354	-2.5271	-3.1917	320.052	87.572	317.720	356.705	165.410	258.982	372.296	102.906	349.545	316.120	250.925	115.439	420.425	430.992	382.399	304.100	0.0008794	0.0010275	9.2848e-05	442.06	1.3065e-05	1.6624e-05	610.82	162.64	6.4752e-06	8.6244e-06	276.87	131.31	76.389	39.082	6.8438e-06	71.936	0.0091514	0.011569	0.0032703	597.95	0.00012059	0.00012924	772.83	208.7	0.00012016	0.00013001	364.23	157.64	100.03	48.871	0.00012433	85.662	155.466	154.475	207.090	89.187	145.593	284.995	88.819	93.363	194.981	259.101	92.217	95.792	97.167	100.946	300.685	99.175	-8191	255	
2333.183	1	1	0	0	0.17566	0.31685	0.17766	0.091133	0.25244	0.25914	0.24732	0.12331	0.22361	0.095186	0.066276	0.17124	0.12663	0.1293	0.051078	0.27207	-2.2771	-2.7667	-3.0875	-2.7333	-2.8833	-2.8771	-2.7229	-3.0625	-2.825	-2.675	-3.0958	-2.8812	-2.9062	-3.0417	-2.8958	-3.2417	109.019	223.851	271.687	290.307	291.723	326.824	342.698	341.476	319.405	419.952	381.532	299.061	310.109	284.251	267.820	389.928	0.00082736	0.0015443	0.00012957	425.61	1.4813e-05	4.6999e-06	600.29	161.4	5.5567e-06	3.3698e-06	279.29	134.11	77.624	40.025	1.0031e-05	73.975	0.009731	0.012089	0.0033077	586.37	0.0001259	0.00013308	757.88	208.12	0.0001238	0.00013102	365.41	161.06	101.82	49.778	0.00011997	87.356	160.673	172.022	181.561	88.902	187.776	253.047	88.299	93.573	158.259	316.361	92.586	95.759	96.961	100.782	197.821	99.097	-8191	255	
2333.278	1	1	0	0	0.20495	0.32623	0.047389	0.067742	0.14671	0.26863	0.16523	0.11776	0.1858	0.072106	0.29984	0.063601	0.15676	0.1803	0.12135	0.14588	-2.3125	-2.7208	-2.9062	-2.8958	-2.9979	-2.9458	-3.0187	-3.0542	-2.925	-2.8854	-3.0563	-2.9333	-2.9208	-3.1521	-2.7083	-3.0667	140.458	397.659	369.026	300.972	318.323	257.658	278.606	175.118	354.849	345.907	295.111	353.174	319.147	412.989	139.699	330.558	0.00081098	0.00073781	0.00042001	423.08	6.8103e-06	1.3504e-05	602.29	164.61	1.2432e-05	1.2551e-05	283.02	134.31	78.204	40.344	6.1982e-06	73.363	0.0097303	0.011853	0.0031757	584.71	0.00012587	0.00013003	758.21	210.46	0.00012475	0.00012774	367.15	162.07	102.23	49.913	0.00011808	87.441	150.284	87.186	228.959	89.188	308.325	243.658	88.717	93.538	226.483	235.204	92.501	95.746	97.212	100.898	224.442	98.945	-8191	255	
2333.374	1	1	0	0	0.18519	0.21046	0.14243	0.13771	0.080869	0.11087	0.19892	0.28649	0.15713	0.24024	0.36039	0.10847	0.12765	0.018337	0.20338	0.42103	-2.4938	-2.5958	-2.9938	-2.9521	-2.85	-3.0292	-3.0208	-3.1208	-2.8458	-2.7958	-3.0187	-2.9146	-2.85	-3.2313	-2.7917	-3.2542	337.586	349.677	315.648	392.882	91.083	243.383	201.321	374.702	367.120	401.210	408.384	98.817	323.856	366.085	395.956	371.706	0.00062483	7.3532e-05	0.00019661	434.7	1.1462e-05	1.2369e-05	613.07	166.1	9.5977e-06	1.0218e-05	283.84	134.27	77.932	40.165	9.6911e-06	73.376	0.0098348	0.01155	0.0031442	596.62	0.00012602	0.00012722	765.79	213.89	0.00012525	0.00012306	367.8	161.6	102.17	49.389	0.00011636	86.895	158.131	389.930	111.246	89.266	197.426	276.952	88.686	93.664	198.018	223.233	92.497	95.914	97.157	101.064	279.022	99.297	-8191	255	
2333.470	1	1	0	0	0.3333	0.35506	0.022544	0.12266	0.11144	0.15617	0.21286	0.20881	0.19988	0.21876	0.26866	0.12828	0.14083	0.052583	0.32163	0.17544	-2.4208	-2.6417	-3.0542	-2.9917	-2.9	-3.0979	-2.8979	-3.1667	-3.0812	-2.6958	-2.9021	-2.8292	-2.9833	-3.3354	-2.7708	-3.1292	294.314	409.986	209.593	187.767	224.722	140.186	323.660	377.260	433.068	420.789	341.847	362.533	396.065	417.460	356.756	351.329	0.00091234	0.0009739	0.00050115	446.25	4.5179e-06	1.2828e-05	626.69	168.89	1.9826e-05	1.128e-05	282.66	132.66	77.008	39.923	5.1405e-06	72.857	0.0096862	0.011005	0.0031066	609.64	0.00012353	0.00012172	777.95	215.45	0.00012329	0.00011876	367.26	160.52	101.09	48.892	0.00011876	86.672	153.958	110.731	140.783	89.376	434.772	222.574	88.600	93.593	208.567	271.479	92.388	95.691	97.300	101.200	214.321	99.207	-8191	255	
2333.591	1	1	0	0	0.2529	0.30313	0.1288	0.057739	0.24327	0.083951	0.10426	0.25113	0.32973	0.059567	0.16134	0.13302	0.13145	0.22803	0.12785	0.097448	-2.6458	-2.6125	-2.9625	-2.975	-2.7042	-3.1	-2.9521	-2.9917	-2.9375	-2.7375	-3.1021	-3.0083	-2.7229	-3.1354	-2.6375	-2.9917	333.815	117.922	431.514	334.913	107.478	127.507	311.769	329.204	212.919	249.171	287.596	427.400	382.614	367.995	332.404	388.761	0.00082563	0.00040149	0.00028152	439.78	6.922e-06	1.6629e-05	617.31	166.52	3.6805e-06	6.0553e-06	283.02	133.71	77.871	39.844	8.8097e-06	73.404	0.0096801	0.01085	0.0031664	605.61	0.00012196	0.00011959	770.19	213.36	0.00012044	0.00011647	368.07	161.72	100.84	48.845	0.00011915	87.17	137.335	408.265	136.592	89.209	198.317	199.852	88.658	93.588	362.230	193.569	92.701	95.672	97.065	100.994	141.416	99.181	-8191	255	
2333.687	1	1	0	0	0.029897	0.22042	0.062422	0.20376	0.18866	0.13366	0.21384	0.17692	0.20383	0.25712	0.12339	0.25273	0.1195	0.059231	0.10525	0.034346	-2.6208	-2.8042	-3.0229	-2.9104	-2.7125	-3.1521	-2.9313	-2.975	-2.9417	-2.8	-3.1396	-2.9583	-2.7271	-2.9958	-2.8021	-2.9104	150.563	140.572	226.202	411.247	152.398	134.682	395.468	326.878	146.966	93.914	345.695	402.451	88.876	323.036	374.338	240.537	0.00081914	0.00066838	0.00026357	443.06	6.2208e-06	7.6073e-06	621.31	166.36	3.7822e-06	9.6851e-06	283.9	134.41	77.666	40.278	4.4666e-06	73.732	0.0093845	0.010764	0.0031999	610.26	0.00011867	0.00012058	780.66	214.87	0.00011923	0.00011956	371.9	163.07	100.68	49.327	0.00012324	87.854	159.450	102.592	155.463	89.395	420.101	237.004	88.898	93.670	347.200	226.695	92.357	95.901	96.940	100.999	421.160	99.086	-8191	255	
2333.783	1	1	0	0	0.22333	0.057284	0.16334	0.27195	0.34629	0.15766	0.10232	0.25879	0.21461	0.11924	0.23868	0.243	0.23499	0.04772	0.33746	0.14079	-2.3646	-2.7771	-2.7917	-2.6937	-2.5875	-3.0146	-2.9458	-2.8	-3.1104	-2.8771	-2.8438	-3.0271	-2.9583	-3.1104	-3.1604	-2.8729	207.991	84.183	328.161	243.181	378.085	323.692	75.594	89.656	343.396	255.881	181.182	86.002	419.055	198.414	230.077	140.373	0.00069802	0.0018642	0.00032312	438.81	1.7677e-06	1.0029e-05	615.66	165.47	7.8182e-06	4.2864e-06	281.45	132.67	77.133	39.71	5.5446e-06	72.552	0.0092952	0.011018	0.0032745	605.44	0.00011632	0.00012241	776.56	213.32	0.00011707	0.0001213	369.36	160.98	99.506	48.786	0.00012546	86.369	140.635	178.322	161.749	88.995	397.186	314.069	88.493	93.539	364.073	163.047	92.998	95.868	97.165	101.103	272.603	98.977	-8191	255	
2333.879	1	1	0	0	0.038475	0.11926	0.22757	0.23664	0.061285	0.17593	0.2755	0.087067	0.20007	0.054381	0.32897	0.13674	0.23185	0.12088	0.15391	0.27455	-2.6688	-2.6562	-2.7625	-3.075	-2.7333	-2.9917	-2.8479	-2.7792	-3.2458	-2.8979	-2.7771	-3.1521	-2.6833	-3.0438	-2.9313	-2.7833	161.921	112.155	189.343	420.444	322.942	422.402	339.018	403.353	238.419	251.655	164.353	392.299	426.193	96.232	291.810	344.527	0.00076346	0.0010731	0.00031825	434.15	3.8359e-06	8.3809e-06	609.65	160.98	7.2991e-06	4.6247e-06	276.16	129.95	75.387	38.907	4.6541e-06	71.737	0.0092524	0.011288	0.0033327	602.31	0.00011595	0.00012562	772.16	208.55	0.00011796	0.00012481	364.55	157.75	97.732	48.226	0.00012698	85.19	155.830	163.190	141.332	88.958	296.424	168.028	88.621	93.543	229.732	240.360	92.560	95.762	97.198	100.980	212.379	99.125	-8191	255	
2333.975	1	1	0	0	0.10285	0.20266	0.074955	0.072298	0.11327	0.22311	0.23917	0.1905	0.30645	0.015162	0.12375	0.25779	0.19913	0.12486	0.23836	0.1169	-2.6646	-2.9542	-2.6875	-3.1375	-2.6958	-2.8479	-2.9125	-2.7292	-2.9125	-2.7188	-2.975	-3.0979	-2.6667	-2.9708	-2.8667	-2.7417	353.910	402.040	161.020	199.842	82.946	131.867	359.421	431.303	302.982	177.991	136.857	433.565	76.856	389.264	427.980	134.018	0.00076756	0.00050692	0.00021794	425.67	9.4903e-06	8.4928e-06	604.12	158.52	1.18e-05	1.1834e-05	272.52	128.72	75.341	38.51	9.6422e-06	71.18	0.0092625	0.011509	0.0033399	592.8	0.00011818	0.00012712	769.91	205	0.00011906	0.00012725	362.11	156.29	97.803	48.143	0.00012912	84.627	142.944	84.278	177.387	89.219	195.810	167.939	88.679	93.904	215.895	228.065	92.325	95.638	97.072	100.879	186.359	99.243	-8191	255	
