BOXY.EXE: ISS Imagent and Oximeter Data Acquisition Program Version 0.80
Ascii Record File

#ACQ INFORMATION
2  Detector Channels 
16  External MUX Channels 
1  Auxiliary Channels 
5000  Waveform (CCF) Frequency (Hz)
1  Waveforms Skipped 
30  Waveforms Averaged 
1  Cycles Averaged 
16  Acquisitions per Waveform 
10.0806  Updata Rate (Hz) 

#FILE INFORMATION
TRUE -- External MUX Channel results are PARSED.
FALSE -- AC DC and Phase are NOT grouped.
TRUE -- Companion Program Settings File CREATED.
FALSE -- AC data not excluded
FALSE -- DC data not excluded
FALSE -- Phase data not excluded
FALSE -- Auxillary Chn. data not excluded
Tab delimiters

#CALIBRATION STATE
TRUE -- Waveform Calibration Values APPLIED.


#AUX CALIBRATION VALUES
Val Type	aux-1	

Term	1.0000e+00	
Factor	0.0000e+00	


#WF CALIBRATION VALUES
A = Detector Channel
Val Type	A-AC1	A-AC2	A-AC3	A-AC4	A-AC5	A-AC6	A-AC7	A-AC8	A-AC9	A-AC10	A-AC11	A-AC12	A-AC13	A-AC14	A-AC15	A-AC16	A-DC1	A-DC2	A-DC3	A-DC4	A-DC5	A-DC6	A-DC7	A-DC8	A-DC9	A-DC10	A-DC11	A-DC12	A-DC13	A-DC14	A-DC15	A-DC16	A-Ph1	A-Ph2	A-Ph3	A-Ph4	A-Ph5	A-Ph6	A-Ph7	A-Ph8	A-Ph9	A-Ph10	A-Ph11	A-Ph12	A-Ph13	A-Ph14	A-Ph15	A-Ph16	

Term	0.00000e+00	0.00000e+00	0.00000e+00	0.00000e+00	0.00000e+00	0.00000e+00	0.00000e+00	0.00000e+00	0.00000e+00	0.00000e+00	0.00000e+00	0.00000e+00	0.00000e+00	0.00000e+00	0.00000e+00	0.00000e+00	0.00000e+00	0.00000e+00	0.00000e+00	0.00000e+00	0.00000e+00	0.00000e+00	0.00000e+00	0.00000e+00	0.00000e+00	0.00000e+00	0.00000e+00	0.00000e+00	0.00000e+00	0.00000e+00	0.00000e+00	0.00000e+00	0.00000e+00	0.00000e+00	0.00000e+00	0.00000e+00	0.00000e+00	0.00000e+00	0.00000e+00	0.00000e+00	0.00000e+00	0.00000e+00	0.00000e+00	0.00000e+00	0.00000e+00	0.00000e+00	0.00000e+00	0.00000e+00	
Factor	1.00000e+00	1.00000e+00	1.00000e+00	1.00000e+00	1.00000e+00	1.00000e+00	1.00000e+00	1.00000e+00	1.00000e+00	1.00000e+00	1.00000e+00	1.00000e+00	1.00000e+00	1.00000e+00	1.00000e+00	1.00000e+00	1.00000e+00	1.00000e+00	1.00000e+00	1.00000e+00	1.00000e+00	1.00000e+00	1.00000e+00	1.00000e+00	1.00000e+00	1.00000e+00	1.00000e+00	1.00000e+00	1.00000e+00	1.00000e+00	1.00000e+00	1.00000e+00	X	X	X	X	X	X	X	X	X	X	X	X	X	X	X	X	

B = Detector Channel
Val Type	B-AC1	B-AC2	B-AC3	B-AC4	B-AC5	B-AC6	B-AC7	B-AC8	B-AC9	B-AC10	B-AC11	B-AC12	B-AC13	B-AC14	B-AC15	B-AC16	B-DC1	B-DC2	B-DC3	B-DC4	B-DC5	B-DC6	B-DC7	B-DC8	B-DC9	B-DC10	B-DC11	B-DC12	B-DC13	B-DC14	B-DC15	B-DC16	B-Ph1	B-Ph2	B-Ph3	B-Ph4	B-Ph5	B-Ph6	B-Ph7	B-Ph8	B-Ph9	B-Ph10	B-Ph11	B-Ph12	B-Ph13	B-Ph14	B-Ph15	B-Ph16	

Term	0.00000e+00	0.00000e+00	0.00000e+00	0.00000e+00	0.00000e+00	0.00000e+00	0.00000e+00	0.00000e+00	0.00000e+00	0.00000e+00	0.00000e+00	0.00000e+00	0.00000e+00	0.00000e+00	0.00000e+00	0.00000e+00	0.00000e+00	0.00000e+00	0.00000e+00	0.00000e+00	0.00000e+00	0.00000e+00	0.00000e+00	0.00000e+00	0.00000e+00	0.00000e+00	0.00000e+00	0.00000e+00	0.00000e+00	0.00000e+00	0.00000e+00	0.00000e+00	-5.53345e+01	-1.27015e+02	-1.27340e+02	-1.81716e+02	-4.47746e+01	-6.81240e+01	-1.57128e+02	-1.62015e+02	-4.21788e+01	-6.97516e+01	-1.72142e+02	-1.70362e+02	-1.80059e+02	-1.77178e+02	-5.13089e+01	-1.50265e+02	
Factor	1.80857e-05	1.60277e-04	4.48908e-05	1.58796e-01	1.75125e-06	1.97752e-06	1.70809e-01	6.08193e-02	1.37557e-06	1.84322e-06	8.34618e-02	2.77414e-02	2.97006e-02	8.95166e-03	1.69608e-06	1.25925e-02	1.30705e-05	2.57931e-05	7.13724e-06	8.02894e-02	2.50439e-07	2.91465e-07	8.12663e-02	3.08636e-02	2.52611e-07	2.90207e-07	4.12275e-02	1.37531e-02	1.53383e-02	4.59568e-03	2.66348e-07	6.24348e-03	X	X	X	X	X	X	X	X	X	X	X	X	X	X	X	X	



#DISTANCE SETTINGS
A = Detector Channel
A-1	A-2	A-3	A-4	A-5	A-6	A-7	A-8	A-9	A-10	A-11	A-12	A-13	A-14	A-15	A-16	

2.5000e+00	3.0000e+00	2.5000e+00	3.0000e+00	2.0000e+00	3.0000e+00	1.5000e+00	3.0000e+00	3.0000e+00	3.0000e+00	3.0000e+00	3.0000e+00	3.0000e+00	3.0000e+00	1.5000e+00	3.0000e+00	

B = Detector Channel
B-1	B-2	B-3	B-4	B-5	B-6	B-7	B-8	B-9	B-10	B-11	B-12	B-13	B-14	B-15	B-16	

1.0000e+01	1.0000e+01	1.0000e+01	1.4400e+00	1.0000e+01	1.0000e+01	1.5100e+00	1.9400e+00	1.0000e+01	1.0000e+01	1.9900e+00	2.4900e+00	2.4100e+00	2.9000e+00	1.0000e+01	2.9800e+00	




#DATA BEGINS
time	group	step	mark	flag	A-AC1	A-AC2	A-AC3	A-AC4	A-AC5	A-AC6	A-AC7	A-AC8	A-AC9	A-AC10	A-AC11	A-AC12	A-AC13	A-AC14	A-AC15	A-AC16	A-DC1	A-DC2	A-DC3	A-DC4	A-DC5	A-DC6	A-DC7	A-DC8	A-DC9	A-DC10	A-DC11	A-DC12	A-DC13	A-DC14	A-DC15	A-DC16	A-Ph1	A-Ph2	A-Ph3	A-Ph4	A-Ph5	A-Ph6	A-Ph7	A-Ph8	A-Ph9	A-Ph10	A-Ph11	A-Ph12	A-Ph13	A-Ph14	A-Ph15	A-Ph16	B-AC1	B-AC2	B-AC3	B-AC4	B-AC5	B-AC6	B-AC7	B-AC8	B-AC9	B-AC10	B-AC11	B-AC12	B-AC13	B-AC14	B-AC15	B-AC16	B-DC1	B-DC2	B-DC3	B-DC4	B-DC5	B-DC6	B-DC7	B-DC8	B-DC9	B-DC10	B-DC11	B-DC12	B-DC13	B-DC14	B-DC15	B-DC16	B-Ph1	B-Ph2	B-Ph3	B-Ph4	B-Ph5	B-Ph6	B-Ph7	B-Ph8	B-Ph9	B-Ph10	B-Ph11	B-Ph12	B-Ph13	B-Ph14	B-Ph15	B-Ph16	aux-1	digaux	

2142.547	1	1	0	768	0.2779	0.1774	0.033902	0.043403	0.15729	0.019662	0.132	0.11146	0.043552	0.17301	0.27228	0.2771	0.22786	0.14515	0.30537	0.18735	-2.2292	-2.9021	-2.5146	-3.0792	-2.75	-2.7208	-3.0625	-2.6229	-2.7979	-2.9583	-2.5625	-2.8688	-2.7229	-2.5833	-2.8875	-2.5646	246.059	389.956	426.797	392.653	224.366	153.910	324.791	134.423	405.973	389.406	381.255	438.558	269.885	441.179	377.711	302.954	0.0010995	0.0027806	0.00096093	1022.9	4.2749e-05	3.1942e-05	1079.2	258.81	8.288e-06	2.7861e-05	343.09	146.67	87.747	35.353	1.1826e-05	71.556	0.071093	0.14108	0.039152	1397.7	0.0013591	0.0015825	1453.7	410.55	0.0013764	0.0015962	550.18	215.16	168.11	59.541	0.0014888	102.67	278.232	273.218	372.175	126.664	253.390	127.663	126.506	132.132	419.677	138.386	131.138	136.614	136.952	140.262	246.349	139.263	-8191	255	
2142.642	1	1	0	0	0.21786	0.031124	0.23712	0.34993	0.22328	0.14276	0.28731	0.061223	0.1874	0.14791	0.23244	0.12015	0.075451	0.20595	0.14389	0.31254	-2.2375	-2.7604	-2.4792	-2.9313	-2.65	-2.3896	-3.0312	-2.5625	-2.6021	-2.9896	-2.5667	-2.9042	-2.8688	-2.6625	-2.9688	-2.6271	394.735	297.816	172.458	415.880	277.653	291.242	385.157	243.724	345.353	378.233	407.704	295.241	115.640	378.769	452.438	385.746	0.00069083	0.002137	0.00043419	1031.7	2.4326e-05	6.2458e-05	1083.3	261.39	1.9873e-05	6.1902e-05	340.86	148.13	88.461	36.199	4.2371e-05	72.387	0.07266	0.14317	0.039524	1406.3	0.0013811	0.00162	1465.6	417.03	0.0014074	0.0016167	555.09	216.48	168.61	59.952	0.0014741	103.4	254.908	114.180	178.718	126.675	259.753	411.396	126.787	132.030	363.296	249.147	131.389	136.284	137.374	140.093	406.536	139.702	-8191	255	
2142.738	1	1	0	0	0.075943	0.079339	0.19909	0.22188	0.037299	0.18564	0.15932	0.078545	0.15443	0.24288	0.062765	0.067435	0.19484	0.29185	0.10742	0.059665	-2.1854	-2.9042	-2.5021	-3.0812	-2.9042	-2.4229	-2.9	-2.7667	-2.4729	-2.9396	-2.5	-2.7771	-2.8458	-2.6188	-2.8917	-3.0458	393.697	154.663	464.405	382.705	223.204	313.200	446.152	442.567	275.758	142.708	128.293	157.268	428.649	372.208	392.267	416.249	0.00046731	0.0046247	0.0002998	1028.6	3.2206e-06	7.2496e-06	1082.6	260.78	1.5389e-05	2.9341e-05	343.55	147.93	89.123	36.017	2.1823e-05	72.201	0.072236	0.14212	0.039184	1407	0.0013573	0.0015706	1452.5	411.3	0.0013391	0.0015325	541.31	212.12	163.18	58.035	0.0013532	100.63	278.088	167.775	214.990	126.950	176.865	453.494	126.647	131.957	176.690	137.005	131.502	136.669	137.252	140.710	410.047	139.568	-8191	255	
2142.836	1	1	0	0	0.12122	0.17443	0.30582	0.051515	0.11287	0.12086	0.27929	0.1653	0.23293	0.24307	0.21735	0.3916	0.046621	0.19062	0.06421	0.33967	-2.1833	-2.9625	-2.4667	-2.8625	-2.7188	-2.4	-3.075	-3.0042	-2.575	-3.0021	-2.6875	-2.575	-2.9396	-2.5729	-2.6083	-3	249.813	275.337	472.475	357.618	341.844	446.650	407.793	135.707	149.597	457.245	219.167	422.721	429.851	123.420	441.641	430.933	0.0006493	0.002188	0.00054641	1033.4	2.0158e-05	9.7489e-06	1087.2	264.35	1.1877e-05	2.7165e-05	343.74	149.24	89.51	36.089	3.1963e-05	72.369	0.066225	0.12972	0.035605	1368.9	0.0012324	0.0014351	1419.5	399.41	0.0012417	0.0014315	528.74	208.47	158.94	57.17	0.0012959	99.568	238.644	115.246	283.434	126.466	121.276	444.260	126.791	132.024	262.395	238.503	131.114	136.556	137.420	140.130	349.529	139.415	-8191	255	
2142.930	1	1	0	0	0.21991	0.16553	0.22883	0.15391	0.14707	0.21079	0.43804	0.2023	0.24492	0.050218	0.24306	0.18232	0.19064	0.099349	0.1537	0.30498	-1.9875	-3.0792	-2.5354	-2.625	-2.7854	-2.2146	-3.0021	-2.7583	-2.4396	-2.9875	-2.675	-2.625	-2.8396	-2.5812	-2.7417	-2.8021	467.966	211.219	159.742	396.926	186.731	162.727	423.404	430.530	230.805	382.642	397.007	412.919	303.718	428.577	405.651	391.724	0.0010378	0.002304	0.00026419	1040.9	1.6133e-05	1.5192e-05	1090.4	266.12	2.52e-05	4.2761e-05	347.72	150.6	89.575	36.068	1.2419e-05	72.765	0.064173	0.12577	0.034933	1367.4	0.0012346	0.0014462	1430.1	403.49	0.0012803	0.0014915	541.34	213.24	163.66	58.286	0.0013815	101.68	246.189	138.036	114.854	126.796	303.322	257.804	126.708	132.000	282.557	471.904	131.247	136.882	137.433	140.121	225.960	139.409	-8191	255	
2143.026	1	1	0	0	0.34527	0.12579	0.064198	0.26679	0.19725	0.13839	0.049656	0.14247	0.30347	0.3455	0.19343	0.16883	0.12624	0.23197	0.081282	0.23319	-2.1292	-2.8	-2.3917	-2.5646	-2.7562	-2.425	-2.6813	-2.8896	-2.5479	-2.9188	-2.8042	-2.6188	-2.9604	-2.8	-2.6208	-2.7729	159.524	450.196	254.159	412.891	324.931	114.329	396.104	183.462	176.426	261.351	345.129	387.511	407.993	387.145	211.706	400.365	0.00095476	0.0023899	0.00091784	1040.4	1.4979e-05	1.6626e-05	1106.6	266.26	1.5044e-05	3.9408e-05	351.58	150.54	89.501	36.675	1.4435e-05	73.934	0.068279	0.1335	0.036976	1396.2	0.0013077	0.0015181	1457.4	411.49	0.0013223	0.0015061	544.39	214.18	163.94	58.255	0.0013525	102.08	241.300	175.754	415.094	126.732	466.859	392.013	126.688	132.169	305.445	262.886	131.504	136.666	137.429	140.191	378.832	139.766	-8191	255	
2143.147	1	1	0	0	0.21396	0.15311	0.15772	0.057342	0.072418	0.27731	0.21612	0.22413	0.21297	0.12791	0.26993	0.12729	0.28025	0.29209	0.27597	0.26439	-2.0604	-2.8771	-2.6125	-2.4979	-2.9938	-2.5521	-2.8063	-2.8229	-2.4938	-2.7792	-2.7292	-2.5979	-2.8458	-2.6854	-2.4833	-2.9938	172.020	235.761	378.285	351.681	414.817	152.164	442.992	312.163	414.676	443.847	368.704	469.058	434.965	347.703	245.412	391.707	0.00076969	0.0022914	0.00075468	1052.7	3.0817e-05	3.1937e-05	1101.8	264.62	1.4762e-05	3.9299e-05	346.81	150.28	90.695	36.798	3.7721e-05	73.034	0.06643	0.12991	0.036043	1392.1	0.0012682	0.0014718	1446.1	407.5	0.0012776	0.0014678	539.54	212.64	163.65	58.537	0.0013752	102.13	248.881	363.646	253.242	126.714	262.392	218.439	126.547	131.990	351.758	257.123	131.435	136.509	136.991	140.659	441.247	139.840	-8191	255	
2143.243	1	1	0	0	0.16458	0.17866	0.17698	0.16082	0.10649	0.15914	0.15861	0.26998	0.13653	0.13491	0.22026	0.10798	0.061979	0.15243	0.13486	0.16234	-1.9667	-2.6333	-2.6958	-2.5354	-2.8063	-2.7042	-2.7396	-3.0229	-2.6521	-3.0167	-3.0542	-2.5312	-2.9792	-2.85	-2.4562	-3.05	320.846	195.576	219.372	409.673	294.136	238.843	405.937	414.475	311.725	263.895	423.584	404.624	274.553	440.537	159.728	150.537	0.00056488	0.0010588	0.0011769	1047.8	3.4525e-05	1.7068e-05	1098.9	263.24	1.9338e-05	1.8884e-05	346.54	149.35	90.385	36.911	1.0677e-05	73.543	0.068296	0.13361	0.036878	1395.9	0.0012782	0.0014899	1446	407.96	0.0012918	0.0014895	540.22	212.48	163.06	58.305	0.0013498	101.43	245.440	198.670	220.770	126.395	303.446	242.840	126.551	131.923	187.282	191.754	131.561	136.417	137.821	140.447	311.459	139.830	-8191	255	
2143.339	1	1	0	0	0.044784	0.18531	0.17963	0.46868	0.30119	0.39607	0.30776	0.12614	0.17164	0.18722	0.088401	0.21631	0.27892	0.094977	0.16455	0.20332	-2.1146	-2.7896	-2.8271	-2.4417	-2.9958	-2.8438	-2.675	-2.9875	-2.475	-2.7938	-2.75	-2.5938	-2.9125	-2.8646	-2.6271	-3.0146	386.852	240.635	438.621	450.958	340.108	316.446	465.610	178.924	268.096	450.962	158.753	138.552	377.303	455.171	384.987	396.853	0.001022	0.00098675	0.0014397	1046.9	2.1737e-06	1.2378e-05	1103.8	265.99	1.3553e-05	2.8013e-05	349.19	150.47	91.173	36.355	4.5301e-05	73.438	0.066181	0.12981	0.036148	1390.3	0.0012561	0.00146	1442.6	403.55	0.0012329	0.0014169	530.16	209.69	160.01	57.236	0.0013159	100.64	256.447	249.736	183.774	126.631	318.566	178.060	126.638	132.452	157.884	211.002	131.445	136.212	137.081	140.662	243.164	140.458	-8191	255	
2143.435	1	1	0	0	0.097527	0.24794	0.18548	0.13091	0.25552	0.22768	0.14063	0.051042	0.16722	0.019369	0.042492	0.18273	0.071563	0.3062	0.24673	0.22099	-2.1667	-2.7167	-2.875	-2.7125	-2.8479	-2.7771	-2.6688	-2.8812	-2.6437	-2.8792	-3.0958	-2.6708	-2.925	-2.6958	-2.4875	-3.0604	242.608	444.437	223.237	400.257	423.205	319.318	170.271	119.786	463.047	426.411	425.094	296.462	465.190	423.847	358.677	434.736	0.0010292	0.0022622	0.00074955	1052.2	2.839e-05	2.5012e-05	1111.9	266.49	2.9896e-05	3.1484e-05	352.89	152.15	91.788	36.886	2.5354e-05	74.167	0.064453	0.12586	0.035051	1376.1	0.0012053	0.0013993	1427.7	397.11	0.0011928	0.0013674	525.76	208.76	156.8	56.474	0.0012431	99.533	247.438	145.149	167.555	126.677	271.485	190.842	126.786	132.281	252.237	370.796	131.446	137.021	137.682	140.368	397.618	139.771	-8191	255	
2143.531	1	1	0	0	0.14618	0.13711	0.056472	0.32382	0.21282	0.26293	0.068014	0.21909	0.092852	0.21458	0.15672	0.19127	0.10083	0.23791	0.13977	0.24416	-2.2438	-2.55	-2.775	-2.6875	-2.725	-2.8646	-2.5187	-2.9833	-2.5604	-2.5438	-2.9521	-2.5417	-2.8333	-2.8563	-2.3792	-2.9917	164.004	452.415	282.752	444.990	327.974	227.343	311.667	472.956	329.931	148.809	398.308	385.075	117.248	386.083	342.382	400.198	0.00066784	0.0030257	0.00050188	1054.6	1.5848e-05	2.4419e-05	1117.1	269.01	3.3026e-05	2.4748e-05	353.28	151.05	90.921	36.878	1.9458e-05	73.852	0.060899	0.11961	0.033185	1359.7	0.0011488	0.0013377	1416.2	392.83	0.0011504	0.0013312	521.79	207.16	156.92	56.583	0.0012507	99.525	279.841	162.478	433.303	126.926	231.250	209.692	126.533	132.205	267.649	188.181	131.275	136.826	137.139	140.934	349.884	139.787	-8191	255	
2143.628	1	1	0	0	0.039258	0.099898	0.20366	0.14628	0.26078	0.11801	0.12834	0.14925	0.25476	0.24749	0.038855	0.25842	0.22036	0.1898	0.070147	0.18145	-2.2396	-2.4313	-2.9688	-2.6646	-2.7208	-2.8958	-2.6729	-2.9521	-2.6125	-2.5396	-2.9729	-2.4979	-2.7	-2.6958	-2.3042	-3.0792	187.800	238.736	265.368	454.685	155.393	310.509	368.037	352.519	183.881	261.044	236.790	372.372	432.484	117.975	444.106	409.912	0.00066845	0.0020041	0.00083213	1050.7	1.7906e-05	1.371e-05	1111	268.31	2.3337e-06	9.9027e-06	348.89	150.21	89.724	36.622	3.6907e-05	72.829	0.061878	0.12224	0.033803	1364.7	0.0011827	0.0013868	1424.5	398.26	0.0012173	0.0014183	531.28	210.43	161.33	57.965	0.0013341	100.77	262.234	166.623	222.115	126.575	354.518	255.149	126.132	132.209	151.108	295.738	131.701	136.706	137.185	140.489	220.872	139.476	-8191	255	
2143.724	1	1	0	0	0.11182	0.099593	0.087485	0.31203	0.31038	0.12384	0.10755	0.18545	0.071913	0.20689	0.22619	0.25682	0.14125	0.11667	0.019457	0.12564	-2.4479	-2.4958	-2.6854	-2.5875	-2.625	-2.8479	-2.7958	-2.7229	-2.6229	-2.4417	-2.9375	-2.5812	-2.5833	-3.0667	-2.6125	-2.9104	249.538	290.633	197.824	448.848	429.212	287.952	426.027	337.232	413.609	441.982	473.214	466.806	255.726	267.727	373.413	413.473	0.00074072	0.0030203	0.00064029	1052.3	1.3638e-05	5.0587e-05	1099.7	265.45	5.8598e-06	1.9426e-05	346.39	149.81	90.039	36.446	3.2219e-05	72.995	0.065529	0.12912	0.035548	1382.4	0.001246	0.0014563	1441.1	403.49	0.0012668	0.0014693	537.85	212.77	163.38	58.478	0.0013771	101.8	278.721	351.339	455.355	126.830	387.493	185.006	126.709	131.890	303.364	152.959	131.033	136.460	137.261	140.248	317.635	139.797	-8191	255	
2143.843	1	1	0	0	0.21937	0.11705	0.063187	0.17505	0.25119	0.056245	0.26365	0.11087	0.25112	0.30489	0.10322	0.16467	0.081341	0.16531	0.093839	0.11935	-2.3167	-2.1667	-2.8771	-2.85	-2.4958	-2.9396	-2.6437	-2.8792	-2.9458	-2.5687	-2.8333	-2.8125	-2.6521	-2.8438	-2.5167	-2.6771	463.751	446.086	336.248	300.108	173.345	120.195	374.199	387.893	341.325	246.007	156.692	114.649	411.289	341.200	354.893	422.806	0.0004568	0.00091664	0.00046133	1051.6	4.4158e-05	1.3749e-05	1106.8	266.89	1.1027e-05	1.2329e-05	348.18	152.09	89.795	36.701	4.8397e-05	73.218	0.068687	0.13546	0.037532	1409.9	0.0013211	0.0015467	1470	414.65	0.0013439	0.0015462	548.49	216.75	167.13	59.273	0.0013979	102.7	243.360	194.609	372.796	126.598	144.342	445.188	126.535	132.082	208.412	461.274	131.532	136.338	137.034	140.195	385.349	139.441	-8191	255	
2143.939	1	1	0	0	0.083615	0.22877	0.29278	0.13355	0.034146	0.17918	0.069728	0.087799	0.15233	0.15032	0.27128	0.16358	0.32037	0.050847	0.39654	0.25442	-2.6396	-2.5542	-2.6792	-2.7021	-2.3354	-3.0396	-2.425	-2.6208	-2.9104	-2.3521	-2.8604	-2.7375	-2.6479	-2.9292	-2.4938	-2.7042	310.983	207.261	298.591	435.001	456.427	245.227	379.953	355.873	396.216	425.184	176.095	467.070	458.005	462.157	343.704	117.660	0.00059004	0.00085059	0.00049041	1050.1	3.5648e-05	2.9464e-05	1110	266.8	2.4224e-05	3.9794e-05	347.57	150.24	90.825	36.613	2.246e-05	73.095	0.068683	0.13451	0.036978	1408.5	0.0012983	0.0015012	1459.9	409.51	0.0012886	0.0014749	537.95	211.93	161.75	57.841	0.0013161	100.66	256.366	439.724	417.756	126.000	267.496	157.676	126.407	132.183	213.518	318.827	131.391	136.504	136.570	139.802	293.655	139.489	-8191	255	
2144.035	1	1	0	0	0.22401	0.21769	0.226	0.065335	0.091773	0.20417	0.28415	0.15509	0.21963	0.23117	0.13366	0.18899	0.1343	0.33269	0.18337	0.11809	-2.5042	-2.4271	-2.6667	-2.8042	-2.5	-2.775	-2.5917	-2.6875	-2.8583	-2.4479	-2.9042	-3.025	-2.5187	-2.9979	-2.7188	-2.4833	344.646	224.669	227.617	405.295	382.323	295.786	220.780	341.982	445.455	144.146	138.969	360.482	192.928	125.449	221.719	187.922	0.00040039	0.0030522	0.00038549	1051	2.0534e-05	4.248e-05	1109.9	265.91	8.3331e-06	3.0129e-05	348.54	149.9	91.181	36.896	2.0756e-05	72.851	0.064705	0.12579	0.034684	1378.5	0.0012161	0.0014043	1431.4	399.48	0.0012164	0.0013914	525.86	208.89	158.33	56.734	0.0012519	99.243	248.474	251.639	243.301	127.231	272.004	175.161	126.451	131.858	262.972	332.228	131.447	136.291	137.256	140.563	295.572	139.773	-8191	255	
2144.131	1	1	0	0	0.15791	0.1555	0.13922	0.15799	0.15556	0.27456	0.24363	0.15442	0.078818	0.1672	0.14822	0.18105	0.17381	0.21296	0.042861	0.057191	-2.4208	-2.55	-2.6042	-2.8146	-2.6271	-2.9104	-2.8208	-2.4813	-2.8271	-2.5521	-2.8375	-2.8708	-2.3688	-2.8042	-2.6396	-2.5146	168.672	282.047	369.121	436.844	295.785	363.015	386.372	360.993	432.107	315.851	276.735	422.651	399.831	131.079	286.396	299.770	0.0010228	0.0012597	0.00056622	1045.1	2.3479e-05	2.4932e-05	1106.3	267.48	1.2597e-05	3.3749e-05	348.87	150.18	90.302	36.137	8.6831e-06	72.8	0.061286	0.1185	0.032426	1349.8	0.0011252	0.0012989	1400.4	388.92	0.0011305	0.001299	515	205.17	154.32	55.364	0.0012001	97.993	232.191	175.967	183.513	126.783	252.655	412.642	126.677	132.278	286.929	321.716	130.873	136.603	136.901	140.523	242.709	139.521	-8191	255	
2144.227	1	1	0	0	0.072894	0.33397	0.071804	0.11896	0.21177	0.086579	0.11648	0.20817	0.26834	0.17425	0.20904	0.10123	0.14005	0.054529	0.082351	0.043564	-2.575	-2.6188	-2.675	-2.8583	-2.5375	-2.8563	-2.8042	-2.4833	-3.0604	-2.6271	-2.6813	-3.1104	-2.4292	-2.7792	-2.7708	-2.5812	241.808	381.264	384.949	359.421	350.350	145.924	297.613	375.923	219.931	469.236	406.146	185.753	284.697	331.027	403.455	134.062	0.00088847	0.0038162	0.00029076	1043.8	1.2631e-06	4.3224e-05	1102.5	263.83	6.8604e-06	3.8656e-05	346.31	151.4	88.866	36.41	2.7706e-05	73.036	0.059071	0.11618	0.032228	1348.5	0.0011485	0.0013334	1409	393	0.0011658	0.001343	519.62	207.57	156.02	56.106	0.0012606	99.312	253.242	164.320	433.692	126.929	343.669	338.924	126.357	132.017	422.960	123.736	131.564	136.796	137.215	140.047	257.632	139.686	-8191	255	
