BOXY.EXE: ISS Imagent and Oximeter Data Acquisition Program Version 0.80
Ascii Record File

#ACQ INFORMATION
2  Detector Channels 
16  External MUX Channels 
1  Auxiliary Channels 
5000  Waveform (CCF) Frequency (Hz)
1  Waveforms Skipped 
30  Waveforms Averaged 
1  Cycles Averaged 
16  Acquisitions per Waveform 
10.0806  Updata Rate (Hz) 

#FILE INFORMATION
TRUE -- External MUX Channel results are PARSED.
FALSE -- AC DC and Phase are NOT grouped.
TRUE -- Companion Program Settings File CREATED.
FALSE -- AC data not excluded
FALSE -- DC data not excluded
FALSE -- Phase data not excluded
FALSE -- Auxillary Chn. data not excluded
Tab delimiters

#CALIBRATION STATE
TRUE -- Waveform Calibration Values APPLIED.


#AUX CALIBRATION VALUES
Val Type	aux-1	

Term	1.0000e+00	
Factor	0.0000e+00	


#WF CALIBRATION VALUES
A = Detector Channel
Val Type	A-AC1	A-AC2	A-AC3	A-AC4	A-AC5	A-AC6	A-AC7	A-AC8	A-AC9	A-AC10	A-AC11	A-AC12	A-AC13	A-AC14	A-AC15	A-AC16	A-DC1	A-DC2	A-DC3	A-DC4	A-DC5	A-DC6	A-DC7	A-DC8	A-DC9	A-DC10	A-DC11	A-DC12	A-DC13	A-DC14	A-DC15	A-DC16	A-Ph1	A-Ph2	A-Ph3	A-Ph4	A-Ph5	A-Ph6	A-Ph7	A-Ph8	A-Ph9	A-Ph10	A-Ph11	A-Ph12	A-Ph13	A-Ph14	A-Ph15	A-Ph16	

Term	0.00000e+00	0.00000e+00	0.00000e+00	0.00000e+00	0.00000e+00	0.00000e+00	0.00000e+00	0.00000e+00	0.00000e+00	0.00000e+00	0.00000e+00	0.00000e+00	0.00000e+00	0.00000e+00	0.00000e+00	0.00000e+00	0.00000e+00	0.00000e+00	0.00000e+00	0.00000e+00	0.00000e+00	0.00000e+00	0.00000e+00	0.00000e+00	0.00000e+00	0.00000e+00	0.00000e+00	0.00000e+00	0.00000e+00	0.00000e+00	0.00000e+00	0.00000e+00	0.00000e+00	0.00000e+00	0.00000e+00	0.00000e+00	0.00000e+00	0.00000e+00	0.00000e+00	0.00000e+00	0.00000e+00	0.00000e+00	0.00000e+00	0.00000e+00	0.00000e+00	0.00000e+00	0.00000e+00	0.00000e+00	
Factor	1.00000e+00	1.00000e+00	1.00000e+00	1.00000e+00	1.00000e+00	1.00000e+00	1.00000e+00	1.00000e+00	1.00000e+00	1.00000e+00	1.00000e+00	1.00000e+00	1.00000e+00	1.00000e+00	1.00000e+00	1.00000e+00	1.00000e+00	1.00000e+00	1.00000e+00	1.00000e+00	1.00000e+00	1.00000e+00	1.00000e+00	1.00000e+00	1.00000e+00	1.00000e+00	1.00000e+00	1.00000e+00	1.00000e+00	1.00000e+00	1.00000e+00	1.00000e+00	X	X	X	X	X	X	X	X	X	X	X	X	X	X	X	X	

B = Detector Channel
Val Type	B-AC1	B-AC2	B-AC3	B-AC4	B-AC5	B-AC6	B-AC7	B-AC8	B-AC9	B-AC10	B-AC11	B-AC12	B-AC13	B-AC14	B-AC15	B-AC16	B-DC1	B-DC2	B-DC3	B-DC4	B-DC5	B-DC6	B-DC7	B-DC8	B-DC9	B-DC10	B-DC11	B-DC12	B-DC13	B-DC14	B-DC15	B-DC16	B-Ph1	B-Ph2	B-Ph3	B-Ph4	B-Ph5	B-Ph6	B-Ph7	B-Ph8	B-Ph9	B-Ph10	B-Ph11	B-Ph12	B-Ph13	B-Ph14	B-Ph15	B-Ph16	

Term	0.00000e+00	0.00000e+00	0.00000e+00	0.00000e+00	0.00000e+00	0.00000e+00	0.00000e+00	0.00000e+00	0.00000e+00	0.00000e+00	0.00000e+00	0.00000e+00	0.00000e+00	0.00000e+00	0.00000e+00	0.00000e+00	0.00000e+00	0.00000e+00	0.00000e+00	0.00000e+00	0.00000e+00	0.00000e+00	0.00000e+00	0.00000e+00	0.00000e+00	0.00000e+00	0.00000e+00	0.00000e+00	0.00000e+00	0.00000e+00	0.00000e+00	0.00000e+00	-5.59862e+01	-1.37165e+02	-1.09869e+02	-1.83892e+02	-6.46307e+01	-7.36611e+01	-1.56891e+02	-1.62015e+02	-4.00765e+01	-6.46858e+01	-1.74830e+02	-1.70829e+02	-1.79669e+02	-1.77438e+02	-3.40695e+01	-1.50113e+02	
Factor	2.00826e-05	1.16048e-04	2.50199e-05	2.01756e-01	1.04398e-06	1.05918e-06	1.68114e-01	5.33662e-02	9.36267e-07	1.40336e-06	1.25515e-01	3.06584e-02	2.97817e-02	1.00133e-02	1.07325e-06	1.43431e-02	9.95168e-07	1.02890e-06	2.87747e-07	1.00126e-01	1.12210e-08	1.12741e-08	7.94418e-02	2.67727e-02	1.12170e-08	1.12980e-08	5.87010e-02	1.47241e-02	1.47267e-02	4.94447e-03	1.13127e-08	6.80183e-03	X	X	X	X	X	X	X	X	X	X	X	X	X	X	X	X	



#DISTANCE SETTINGS
A = Detector Channel
A-1	A-2	A-3	A-4	A-5	A-6	A-7	A-8	A-9	A-10	A-11	A-12	A-13	A-14	A-15	A-16	

2.5000e+00	3.0000e+00	2.5000e+00	3.0000e+00	2.0000e+00	3.0000e+00	1.5000e+00	3.0000e+00	3.0000e+00	3.0000e+00	3.0000e+00	3.0000e+00	3.0000e+00	3.0000e+00	1.5000e+00	3.0000e+00	

B = Detector Channel
B-1	B-2	B-3	B-4	B-5	B-6	B-7	B-8	B-9	B-10	B-11	B-12	B-13	B-14	B-15	B-16	

1.0000e+01	1.0000e+01	1.0000e+01	1.4400e+00	1.0000e+01	1.0000e+01	1.5100e+00	1.9400e+00	1.0000e+01	1.0000e+01	1.9900e+00	2.4900e+00	2.4100e+00	2.9000e+00	1.0000e+01	2.9800e+00	




#DATA BEGINS
time	group	step	mark	flag	A-AC1	A-AC2	A-AC3	A-AC4	A-AC5	A-AC6	A-AC7	A-AC8	A-AC9	A-AC10	A-AC11	A-AC12	A-AC13	A-AC14	A-AC15	A-AC16	A-DC1	A-DC2	A-DC3	A-DC4	A-DC5	A-DC6	A-DC7	A-DC8	A-DC9	A-DC10	A-DC11	A-DC12	A-DC13	A-DC14	A-DC15	A-DC16	A-Ph1	A-Ph2	A-Ph3	A-Ph4	A-Ph5	A-Ph6	A-Ph7	A-Ph8	A-Ph9	A-Ph10	A-Ph11	A-Ph12	A-Ph13	A-Ph14	A-Ph15	A-Ph16	B-AC1	B-AC2	B-AC3	B-AC4	B-AC5	B-AC6	B-AC7	B-AC8	B-AC9	B-AC10	B-AC11	B-AC12	B-AC13	B-AC14	B-AC15	B-AC16	B-DC1	B-DC2	B-DC3	B-DC4	B-DC5	B-DC6	B-DC7	B-DC8	B-DC9	B-DC10	B-DC11	B-DC12	B-DC13	B-DC14	B-DC15	B-DC16	B-Ph1	B-Ph2	B-Ph3	B-Ph4	B-Ph5	B-Ph6	B-Ph7	B-Ph8	B-Ph9	B-Ph10	B-Ph11	B-Ph12	B-Ph13	B-Ph14	B-Ph15	B-Ph16	aux-1	digaux	

7281.693	1	1	0	768	0.15112	0.026255	0.26025	0.28883	0.094463	0.025227	0.18175	0.056437	0.081115	0.15399	0.13152	0.20312	0.12162	0.14143	0.047064	0.13381	-2.5271	-3.4021	-3.7729	-2.9146	-3.7708	-3.2729	-3.175	-3.8167	-3.1104	-3.2958	-3.7958	-2.8542	-3.5729	-3.2542	-2.9104	-3.7396	102.652	87.885	58.320	192.426	306.182	102.374	292.236	327.467	126.888	192.050	242.187	283.547	300.940	349.834	271.989	295.795	0.0012707	0.001327	0.00018194	356.28	4.5248e-05	1.5074e-05	631.86	133.81	2.0113e-05	4.2343e-05	264.7	117.49	55.651	25.259	2.623e-05	59.053	0.012062	0.01262	0.0034013	1457.2	0.00013699	0.00013889	1517.8	434.44	0.00013873	0.00013831	938.04	277.49	234.74	84.313	0.00013299	133.65	210.080	279.572	231.084	44.860	242.319	317.082	43.157	50.236	216.610	353.920	47.433	52.755	55.095	57.646	115.040	55.904	-8191	255	
7281.789	1	1	0	0	0.06732	0.12864	0.14248	0.17622	0.23395	0.1096	0.13916	0.14712	0.15718	0.036194	0.10894	0.097593	0.07409	0.088911	0.2413	0.059607	-2.6167	-3.0917	-3.6021	-2.7521	-3.4562	-3.4292	-3.0687	-3.8083	-3.1583	-3.2875	-3.8896	-3.0396	-3.6125	-3.6042	-2.9833	-3.8063	128.312	168.743	266.773	241.954	133.020	321.491	333.871	132.738	281.270	146.589	390.077	294.752	171.152	360.474	365.681	356.205	0.0012108	0.00075702	0.0014255	361.38	3.4145e-05	2.8564e-05	639.66	136.15	3.0292e-05	3.6787e-05	263.27	119.25	55.064	24.691	1.1397e-05	59.885	0.012598	0.012583	0.0034308	1502.5	0.00014223	0.00013774	1517.3	441.91	0.00014109	0.00013519	918.56	282.21	234.44	82.519	0.00012911	135.87	197.181	241.947	252.481	44.582	268.597	342.440	43.563	49.326	208.755	56.345	46.340	52.576	54.928	57.562	222.123	55.768	-8191	255	
7281.886	1	1	0	0	0.17096	0.067671	0.087833	0.098291	0.14069	0.16356	0.20298	0.16248	0.29236	0.092464	0.15609	0.14513	0.076056	0.13129	0.16478	0.26146	-2.7979	-3.2229	-3.7812	-2.8354	-3.3167	-3.3729	-2.9917	-3.7938	-3.3708	-3.0312	-3.7687	-2.9625	-3.4229	-3.6312	-2.9146	-3.6917	31.986	350.430	60.626	58.678	95.621	123.069	257.553	153.120	173.057	175.490	313.598	364.908	248.282	129.778	90.428	325.605	0.00057351	0.0020096	0.00071243	360.33	3.9549e-05	3.1615e-05	632.24	135.9	2.0914e-05	1.1315e-05	263.15	117.92	55.172	25.131	3.6724e-05	59.145	0.01248	0.012208	0.0033247	1537.4	0.00014005	0.00013634	1506.6	456.42	0.00014086	0.00013417	917.4	289.93	233	82.168	0.0001298	138.67	388.477	102.247	309.277	45.632	371.905	315.236	43.915	49.668	360.170	388.028	47.534	53.327	54.173	56.990	366.713	55.498	-8191	255	
7281.982	1	1	0	0	0.098213	0.15655	0.060906	0.10196	0.18449	0.026041	0.26184	0.13853	0.17317	0.25863	0.29411	0.14948	0.10391	0.17982	0.19915	0.20075	-3.1479	-3.1104	-3.6771	-3.0792	-3.3771	-3.8229	-2.7917	-3.4729	-3.4104	-2.8417	-3.8542	-3.2292	-3.3688	-3.8229	-3.0125	-3.6979	74.311	386.839	38.875	339.324	225.386	324.530	351.776	305.427	37.649	127.548	74.944	178.903	309.259	347.133	128.821	290.286	0.00035111	0.0016309	0.00041894	358	1.8402e-05	2.5683e-05	633.07	134.26	3.5571e-05	3.4339e-05	263.55	116.96	54.144	24.854	8.0201e-05	59.186	0.012433	0.012132	0.0033431	1574.1	0.00013741	0.00013407	1508.4	462.76	0.00013866	0.00013227	927.1	294.57	229.39	81.536	0.00013327	140.84	367.433	92.820	124.577	43.968	347.432	61.060	43.937	48.869	40.975	377.519	47.460	51.222	54.803	57.531	295.127	55.925	-8191	255	
7282.078	1	1	0	0	0.089453	0.13605	0.19182	0.062781	0.0043787	0.25996	0.060844	0.093874	0.17407	0.097876	0.14041	0.014084	0.2687	0.33237	0.099459	0.17058	-3.0292	-2.6917	-3.6104	-3.0854	-3.1979	-3.7417	-2.9542	-3.6854	-3.4896	-2.7458	-3.5875	-3.3688	-3.2458	-3.975	-2.9375	-3.35	169.952	330.840	218.968	179.840	282.837	369.927	347.412	75.261	35.271	351.697	198.006	196.923	53.569	333.627	286.501	255.181	0.0001795	0.0016459	0.0010398	348.41	3.1313e-06	3.0421e-05	630.04	136.76	2.6118e-05	2.1916e-05	264.6	116.26	55.042	25.205	2.1681e-05	59.779	0.012273	0.012102	0.003474	1618.8	0.00013677	0.00013441	1552.3	468.69	0.00013781	0.00013217	960.69	297.65	228.7	81.333	0.00014	141.32	386.518	382.579	198.363	43.112	267.431	136.314	43.884	48.084	39.612	135.390	48.073	51.973	54.999	57.312	230.920	54.996	-8191	255	
7282.174	1	1	0	0	0.1338	0.08639	0.30061	0.25679	0.03464	0.14806	0.12305	0.13204	0.15391	0.3153	0.21254	0.22651	0.14001	0.028884	0.32178	0.22539	-3.1875	-2.9396	-3.8083	-3.4146	-3.1521	-3.6771	-3.1292	-3.3812	-3.6958	-2.9688	-3.5687	-3.4688	-2.9375	-3.8438	-3.0312	-3.3625	292.476	375.800	64.272	112.057	312.960	345.105	341.799	297.499	194.750	60.738	104.089	374.924	312.576	90.809	81.390	346.625	0.00025483	0.0021186	0.00098635	349	2.9759e-05	3.7523e-06	637.47	134.67	1.7986e-05	9.1769e-06	266.83	117.44	54.74	24.963	2.6226e-05	59.134	0.012226	0.012006	0.003612	1607.8	0.00013573	0.00013309	1600	463.6	0.00013624	0.00013109	979.62	293.56	225.28	81.234	0.00014324	138.25	179.834	123.337	199.780	43.224	315.209	160.458	44.510	49.229	212.754	59.066	48.964	51.600	54.645	58.183	286.449	55.043	-8191	255	
7282.295	1	1	0	0	0.1826	0.12218	0.27359	0.091642	0.32809	0.097444	0.15073	0.11785	0.2037	0.14992	0.008345	0.23636	0.34592	0.14022	0.20299	0.1309	-3.3771	-2.7917	-3.5208	-3.4688	-2.9396	-3.9	-3.0917	-3.3125	-3.6479	-3.0125	-3.625	-3.4125	-2.8312	-3.8312	-3.1188	-3.4583	152.109	300.434	311.862	367.637	136.810	385.349	302.431	43.836	148.259	236.413	118.927	372.776	308.852	49.458	111.807	106.399	0.00068835	0.0038234	0.00086023	344.97	6.0043e-05	2.0254e-05	630.58	131.58	2.7147e-05	7.9784e-05	259.04	116.93	53.697	24.992	2.4188e-05	57.929	0.011954	0.01207	0.0036647	1571.5	0.00013225	0.00013385	1605.1	453.47	0.00013398	0.00013466	988.14	290.51	222.73	82.884	0.00014649	137.23	220.793	191.536	185.247	44.230	34.969	240.740	43.553	47.493	83.275	195.785	47.198	51.931	53.962	57.957	269.307	55.426	-8191	255	
7282.389	1	1	0	0	0.11994	0.2239	0.14617	0.16927	0.070298	0.1154	0.16283	0.15415	0.2044	0.21905	0.1965	0.12569	0.18754	0.18858	0.064695	0.33115	-3.275	-2.9542	-3.2917	-3.4333	-2.9104	-3.7271	-3.2854	-3.0208	-3.8083	-3.0375	-3.5667	-3.4562	-2.9042	-3.6479	-3.2104	-3.1667	154.738	340.432	32.647	126.633	35.779	46.487	32.737	286.560	56.304	356.206	256.753	346.237	153.165	149.104	223.150	347.946	9.127e-05	0.0068234	0.00020993	347.67	1.8264e-05	5.3833e-05	629.97	137.2	5.7955e-06	6.919e-05	254.59	116.28	55.035	24.883	2.874e-05	59.661	0.011908	0.012585	0.0037225	1569.8	0.00013248	0.00014076	1628.2	454.6	0.00013444	0.00014243	996.22	291.71	224.95	86.223	0.00014718	137.92	141.702	125.685	362.444	44.444	125.200	219.559	43.864	48.578	104.057	215.448	47.218	51.334	54.072	57.917	72.954	55.171	-8191	255	
7282.485	1	1	0	0	0.15614	0.063333	0.20611	0.098305	0.10999	0.089236	0.50245	0.15971	0.13159	0.040735	0.1529	0.13367	0.46494	0.091435	0.017679	0.11179	-3.4229	-3.0292	-3.3625	-3.4813	-2.7854	-3.7687	-3.3917	-2.9104	-3.6667	-3.2354	-3.3812	-3.8	-3.0021	-3.5604	-3.3875	-2.8979	380.410	233.731	141.926	147.004	235.988	39.586	83.515	52.829	318.422	251.390	226.502	323.762	384.596	211.109	54.212	384.080	0.00057606	0.0052804	0.00071292	349.03	3.4824e-05	1.7223e-05	638.33	134.69	1.1177e-05	6.8223e-05	265.24	116.68	56.385	25.178	3.455e-05	59.267	0.011982	0.013295	0.003716	1580	0.00013427	0.00014727	1625.8	454.27	0.00013622	0.00014833	985.83	290.19	227.71	87.997	0.00014461	136.66	211.883	129.138	299.100	44.732	293.587	218.166	43.448	48.975	184.988	219.352	45.865	51.656	55.749	57.484	46.270	55.064	-8191	255	
7282.581	1	1	0	0	0.14269	0.051606	0.089586	0.12071	0.45691	0.11312	0.11066	0.052235	0.19753	0.16616	0.22991	0.20282	0.12682	0.15427	0.29044	0.15129	-3.2646	-3.1333	-3.0396	-3.6875	-2.7667	-3.4375	-3.4313	-3.0187	-3.9188	-3.1083	-3.0667	-3.7542	-2.9167	-3.6125	-3.5333	-3	371.178	273.261	197.576	237.757	36.680	275.393	252.105	279.885	189.204	174.673	62.594	148.947	215.389	105.593	312.658	324.610	0.00085775	0.0045111	0.00037032	347.16	3.1353e-05	5.3459e-06	631.83	135.41	2.3586e-05	3.5845e-05	258.62	117	55.341	24.974	1.8368e-05	58.97	0.012162	0.013467	0.0036059	1545.7	0.00013682	0.00014689	1593.9	444.11	0.00013838	0.00014697	961.5	284.33	230.67	86.452	0.00013888	133.29	212.989	198.232	63.943	42.192	236.848	195.924	43.238	48.785	268.042	113.457	47.873	51.536	55.224	57.227	97.150	54.981	-8191	255	
7282.678	1	1	0	0	0.16695	0.21551	0.05946	0.10212	0.1649	0.12575	0.25818	0.21114	0.09814	0.26596	0.2038	0.3017	0.22599	0.22893	0.16919	0.2521	-3.2104	-3.1917	-2.8187	-3.7062	-2.9646	-3.4354	-3.7146	-2.8063	-3.7625	-3.1958	-3.0979	-3.7979	-3.1375	-3.5292	-3.7104	-2.8979	75.237	35.298	329.420	87.566	313.124	68.949	358.372	377.650	137.041	79.294	340.547	203.324	147.010	370.136	155.444	242.619	0.0010654	0.0050422	0.0004691	346.56	7.3423e-05	4.0394e-05	637.09	134.25	3.3115e-05	5.3094e-05	263.88	118.95	55.473	24.887	9.0395e-06	58.834	0.012277	0.013146	0.0034523	1499	0.00013819	0.00014163	1554.7	435.58	0.00014047	0.0001433	942.49	281.98	237.26	85.549	0.00013804	134.11	223.469	319.889	135.301	43.751	218.504	391.173	43.479	49.264	259.476	78.583	47.301	52.011	54.289	57.021	326.909	56.152	-8191	255	
7282.774	1	1	0	0	0.21123	0.28352	0.32229	0.19368	0.23491	0.15162	0.12264	0.15606	0.09041	0.1356	0.048424	0.1301	0.098619	0.092897	0.1157	0.10222	-3.2062	-3.2042	-2.8979	-3.7562	-3.2354	-3.3542	-3.9083	-3.0604	-3.5229	-3.4271	-3.0062	-3.7812	-3.0708	-3.1562	-3.675	-3.0187	201.344	138.767	243.681	347.427	358.414	330.242	193.936	274.491	284.587	93.811	99.113	334.023	120.806	386.440	329.708	140.961	0.0013853	0.0025696	0.0009302	352.35	5.6183e-05	1.3813e-05	635.35	135.61	1.8324e-05	1.3299e-05	261.27	116.84	55.815	25.193	4.9563e-05	60.403	0.01274	0.013018	0.0034595	1522	0.0001444	0.00014115	1556.9	444.59	0.00014501	0.00014212	939.38	288.4	242.49	84.844	0.00013752	138.26	212.822	344.148	336.975	43.398	179.874	43.741	43.363	49.588	297.836	109.783	47.165	52.465	53.940	57.166	339.573	55.903	-8191	255	
7282.894	1	1	0	0	0.11758	0.075853	0.11649	0.19547	0.16622	0.045068	0.15557	0.051706	0.091639	0.12809	0.22457	0.06464	0.092314	0.20954	0.16566	0.21517	-3.0292	-3.2562	-2.8875	-3.7854	-3.2021	-3.0854	-3.775	-2.9271	-3.3688	-3.475	-2.925	-3.6188	-3.1521	-3.1375	-3.8063	-2.875	200.828	123.987	192.209	205.819	189.748	355.841	51.766	49.182	209.244	133.572	215.182	331.767	256.316	328.120	285.931	245.341	0.0002972	0.0027148	0.0011461	360.21	2.3262e-05	3.2152e-05	636.74	137.01	7.3529e-06	2.7407e-05	266.16	119.5	56.615	25.054	2.0377e-05	60.33	0.013031	0.012983	0.0034408	1578.3	0.00014717	0.00014052	1560.6	461.45	0.00014618	0.00014251	943.95	297.85	244.42	84.74	0.000137	141.88	206.071	305.606	314.182	44.673	213.175	52.889	43.380	49.219	142.377	326.623	47.232	52.707	54.918	57.354	346.157	55.481	-8191	255	
7282.990	1	1	0	0	0.13894	0.19647	0.25182	0.20605	0.22215	0.14206	0.24978	0.20699	0.15426	0.09899	0.14709	0.20946	0.064264	0.063004	0.049353	0.29553	-2.8896	-3.4792	-2.8479	-3.6688	-3.3229	-3.0042	-3.9562	-2.8563	-3.2958	-3.6708	-3.0208	-3.4479	-3.3229	-2.9375	-3.8	-3.175	250.795	242.737	206.477	365.029	74.120	105.962	156.537	79.274	34.568	115.573	172.284	386.520	391.022	343.755	152.402	154.066	0.0004072	0.0018828	0.00066287	352.27	3.5866e-05	1.9156e-05	633.43	136.76	1.188e-05	2.7011e-05	267.46	118.45	54.979	24.956	2.6588e-05	59.814	0.012928	0.012892	0.0034363	1619.5	0.00014561	0.00013856	1560	474.12	0.00014405	0.00014062	941.79	301.61	239.82	83.6	0.00013729	143.66	76.290	290.663	156.559	45.002	355.397	152.862	43.625	50.236	146.819	338.517	48.296	52.553	54.117	57.254	312.077	56.109	-8191	255	
7283.087	1	1	0	0	0.050904	0.24207	0.13819	0.074086	0.14891	0.18385	0.22229	0.0936	0.12991	0.11617	0.065641	0.194	0.24625	0.039493	0.18324	0.23842	-2.8354	-3.7958	-2.7771	-3.475	-3.2729	-2.8042	-3.7938	-2.9625	-2.975	-3.7625	-2.9688	-3.5458	-3.4083	-2.8521	-3.6146	-3.3917	300.649	100.092	363.288	230.322	64.030	183.167	370.931	335.899	308.122	114.436	375.480	340.042	102.737	368.029	358.404	225.217	0.00074305	0.0047065	0.001257	356.92	5.063e-05	2.7653e-05	637.45	135.34	2.3906e-05	3.0648e-05	260.51	117.28	54.694	25.195	3.4303e-05	59.177	0.012566	0.012597	0.0034734	1642.8	0.00014218	0.0001363	1573.6	479.07	0.00014017	0.00013863	962.1	302.13	236.14	82.086	0.00014135	144.14	146.980	282.742	151.197	43.695	38.480	378.858	45.033	49.596	63.597	77.217	48.285	52.408	54.705	58.198	257.339	55.117	-8191	255	
7283.183	1	1	0	0	0.14427	0.030593	0.21418	0.23665	0.22231	0.079249	0.18798	0.067788	0.10485	0.098066	0.1002	0.1534	0.18971	0.243	0.16609	0.22098	-2.625	-3.6833	-2.9813	-3.3563	-3.5833	-2.8458	-3.6854	-3.2104	-3.2125	-3.8	-3.0021	-3.4708	-3.6667	-3.0375	-3.6312	-3.3208	183.777	381.259	378.921	131.083	215.839	96.677	34.939	269.076	224.310	101.444	72.191	96.452	144.566	167.352	239.336	364.378	0.00027295	0.0020673	0.00069464	349.19	2.9893e-05	1.7621e-05	640.96	134.43	2.5035e-05	2.3587e-06	265.91	119.01	55.711	24.962	1.6098e-05	60.447	0.012452	0.012507	0.0036343	1639.4	0.00014146	0.00013478	1612.7	477.39	0.0001385	0.000136	987.91	299.43	233.85	81.941	0.0001454	142.66	322.118	301.206	173.971	44.216	44.281	42.001	44.475	48.338	322.723	239.933	48.004	52.269	53.499	58.571	252.252	55.563	-8191	255	
7283.254	1	1	0	0	0.22479	0.12938	0.067772	0.14003	0.25389	0.20404	0.15353	0.10785	0.088997	0.11561	0.15616	0.22631	0.3177	0.26489	0.12554	0.32789	-2.6417	-3.8688	-2.9042	-3.225	-3.5854	-2.9708	-3.7083	-3.2	-2.9813	-3.6167	-3.1542	-3.1312	-3.5771	-2.875	-3.5667	-3.65	47.664	232.733	312.040	362.061	331.503	333.584	364.333	265.139	333.815	179.652	297.858	384.346	351.485	354.059	233.267	344.165	0.00084762	0.0020391	0.00114	356.51	1.8745e-05	1.1233e-05	641.72	136.67	2.4427e-05	0.00010145	269.13	119.53	56.847	25.295	5.148e-05	59.866	0.01217	0.012419	0.0037409	1616.8	0.00013917	0.0001357	1642.7	471.84	0.00013709	0.0001384	1012.4	296.52	232.12	83.189	0.00014844	141.03	234.049	151.846	93.346	43.969	42.217	173.480	44.423	48.234	85.066	208.473	47.362	52.151	55.408	58.252	273.777	55.672	-8191	255	
7283.373	1	1	0	0	0.1372	0.088996	0.10766	0.086231	0.15833	0.048278	0.20589	0.04657	0.19782	0.030983	0.10703	0.13647	0.11859	0.081834	0.039518	0.13498	-2.5917	-3.6458	-2.8937	-3.0354	-3.7208	-2.9958	-3.5667	-3.5333	-2.8875	-3.5667	-3.2687	-3.1375	-3.8167	-2.9313	-3.3104	-3.5375	243.308	303.516	193.564	266.472	317.376	92.464	329.978	86.720	207.309	275.950	135.061	35.998	43.783	373.720	372.827	360.261	0.0004332	0.00448	0.00057183	348.13	2.9874e-05	3.6225e-05	638.18	133.21	2.2525e-05	4.1016e-05	261.93	118.64	56.033	25.745	1.8144e-05	58.95	0.01195	0.01261	0.0037647	1578.3	0.00013643	0.00013889	1636.3	461.62	0.00013284	0.00014051	1000.8	289.57	226.84	85.061	0.00014541	138.91	270.502	133.558	352.032	42.677	82.294	183.354	43.837	49.417	124.837	304.681	48.049	52.003	54.389	58.190	312.245	55.664	-8191	255	
