BOXY.EXE: ISS Imagent and Oximeter Data Acquisition Program Version 0.80
Ascii Record File

#ACQ INFORMATION
2  Detector Channels 
16  External MUX Channels 
1  Auxiliary Channels 
5000  Waveform (CCF) Frequency (Hz)
1  Waveforms Skipped 
30  Waveforms Averaged 
1  Cycles Averaged 
16  Acquisitions per Waveform 
10.0806  Updata Rate (Hz) 

#FILE INFORMATION
TRUE -- External MUX Channel results are PARSED.
FALSE -- AC DC and Phase are NOT grouped.
TRUE -- Companion Program Settings File CREATED.
FALSE -- AC data not excluded
FALSE -- DC data not excluded
FALSE -- Phase data not excluded
FALSE -- Auxillary Chn. data not excluded
Tab delimiters

#CALIBRATION STATE
TRUE -- Waveform Calibration Values APPLIED.


#AUX CALIBRATION VALUES
Val Type	aux-1	

Term	1.0000e+00	
Factor	0.0000e+00	


#WF CALIBRATION VALUES
A = Detector Channel
Val Type	A-AC1	A-AC2	A-AC3	A-AC4	A-AC5	A-AC6	A-AC7	A-AC8	A-AC9	A-AC10	A-AC11	A-AC12	A-AC13	A-AC14	A-AC15	A-AC16	A-DC1	A-DC2	A-DC3	A-DC4	A-DC5	A-DC6	A-DC7	A-DC8	A-DC9	A-DC10	A-DC11	A-DC12	A-DC13	A-DC14	A-DC15	A-DC16	A-Ph1	A-Ph2	A-Ph3	A-Ph4	A-Ph5	A-Ph6	A-Ph7	A-Ph8	A-Ph9	A-Ph10	A-Ph11	A-Ph12	A-Ph13	A-Ph14	A-Ph15	A-Ph16	

Term	0.00000e+00	0.00000e+00	0.00000e+00	0.00000e+00	0.00000e+00	0.00000e+00	0.00000e+00	0.00000e+00	0.00000e+00	0.00000e+00	0.00000e+00	0.00000e+00	0.00000e+00	0.00000e+00	0.00000e+00	0.00000e+00	0.00000e+00	0.00000e+00	0.00000e+00	0.00000e+00	0.00000e+00	0.00000e+00	0.00000e+00	0.00000e+00	0.00000e+00	0.00000e+00	0.00000e+00	0.00000e+00	0.00000e+00	0.00000e+00	0.00000e+00	0.00000e+00	0.00000e+00	0.00000e+00	0.00000e+00	0.00000e+00	0.00000e+00	0.00000e+00	0.00000e+00	0.00000e+00	0.00000e+00	0.00000e+00	0.00000e+00	0.00000e+00	0.00000e+00	0.00000e+00	0.00000e+00	0.00000e+00	
Factor	1.00000e+00	1.00000e+00	1.00000e+00	1.00000e+00	1.00000e+00	1.00000e+00	1.00000e+00	1.00000e+00	1.00000e+00	1.00000e+00	1.00000e+00	1.00000e+00	1.00000e+00	1.00000e+00	1.00000e+00	1.00000e+00	1.00000e+00	1.00000e+00	1.00000e+00	1.00000e+00	1.00000e+00	1.00000e+00	1.00000e+00	1.00000e+00	1.00000e+00	1.00000e+00	1.00000e+00	1.00000e+00	1.00000e+00	1.00000e+00	1.00000e+00	1.00000e+00	X	X	X	X	X	X	X	X	X	X	X	X	X	X	X	X	

B = Detector Channel
Val Type	B-AC1	B-AC2	B-AC3	B-AC4	B-AC5	B-AC6	B-AC7	B-AC8	B-AC9	B-AC10	B-AC11	B-AC12	B-AC13	B-AC14	B-AC15	B-AC16	B-DC1	B-DC2	B-DC3	B-DC4	B-DC5	B-DC6	B-DC7	B-DC8	B-DC9	B-DC10	B-DC11	B-DC12	B-DC13	B-DC14	B-DC15	B-DC16	B-Ph1	B-Ph2	B-Ph3	B-Ph4	B-Ph5	B-Ph6	B-Ph7	B-Ph8	B-Ph9	B-Ph10	B-Ph11	B-Ph12	B-Ph13	B-Ph14	B-Ph15	B-Ph16	

Term	0.00000e+00	0.00000e+00	0.00000e+00	0.00000e+00	0.00000e+00	0.00000e+00	0.00000e+00	0.00000e+00	0.00000e+00	0.00000e+00	0.00000e+00	0.00000e+00	0.00000e+00	0.00000e+00	0.00000e+00	0.00000e+00	0.00000e+00	0.00000e+00	0.00000e+00	0.00000e+00	0.00000e+00	0.00000e+00	0.00000e+00	0.00000e+00	0.00000e+00	0.00000e+00	0.00000e+00	0.00000e+00	0.00000e+00	0.00000e+00	0.00000e+00	0.00000e+00	-5.59862e+01	-1.37165e+02	-1.09869e+02	-1.83892e+02	-6.46307e+01	-7.36611e+01	-1.56891e+02	-1.62015e+02	-4.00765e+01	-6.46858e+01	-1.74830e+02	-1.70829e+02	-1.79669e+02	-1.77438e+02	-3.40695e+01	-1.50113e+02	
Factor	2.00826e-05	1.16048e-04	2.50199e-05	2.01756e-01	1.04398e-06	1.05918e-06	1.68114e-01	5.33662e-02	9.36267e-07	1.40336e-06	1.25515e-01	3.06584e-02	2.97817e-02	1.00133e-02	1.07325e-06	1.43431e-02	9.95168e-07	1.02890e-06	2.87747e-07	1.00126e-01	1.12210e-08	1.12741e-08	7.94418e-02	2.67727e-02	1.12170e-08	1.12980e-08	5.87010e-02	1.47241e-02	1.47267e-02	4.94447e-03	1.13127e-08	6.80183e-03	X	X	X	X	X	X	X	X	X	X	X	X	X	X	X	X	



#DISTANCE SETTINGS
A = Detector Channel
A-1	A-2	A-3	A-4	A-5	A-6	A-7	A-8	A-9	A-10	A-11	A-12	A-13	A-14	A-15	A-16	

2.5000e+00	3.0000e+00	2.5000e+00	3.0000e+00	2.0000e+00	3.0000e+00	1.5000e+00	3.0000e+00	3.0000e+00	3.0000e+00	3.0000e+00	3.0000e+00	3.0000e+00	3.0000e+00	1.5000e+00	3.0000e+00	

B = Detector Channel
B-1	B-2	B-3	B-4	B-5	B-6	B-7	B-8	B-9	B-10	B-11	B-12	B-13	B-14	B-15	B-16	

1.0000e+01	1.0000e+01	1.0000e+01	1.4400e+00	1.0000e+01	1.0000e+01	1.5100e+00	1.9400e+00	1.0000e+01	1.0000e+01	1.9900e+00	2.4900e+00	2.4100e+00	2.9000e+00	1.0000e+01	2.9800e+00	




#DATA BEGINS
time	group	step	mark	flag	A-AC1	A-AC2	A-AC3	A-AC4	A-AC5	A-AC6	A-AC7	A-AC8	A-AC9	A-AC10	A-AC11	A-AC12	A-AC13	A-AC14	A-AC15	A-AC16	A-DC1	A-DC2	A-DC3	A-DC4	A-DC5	A-DC6	A-DC7	A-DC8	A-DC9	A-DC10	A-DC11	A-DC12	A-DC13	A-DC14	A-DC15	A-DC16	A-Ph1	A-Ph2	A-Ph3	A-Ph4	A-Ph5	A-Ph6	A-Ph7	A-Ph8	A-Ph9	A-Ph10	A-Ph11	A-Ph12	A-Ph13	A-Ph14	A-Ph15	A-Ph16	B-AC1	B-AC2	B-AC3	B-AC4	B-AC5	B-AC6	B-AC7	B-AC8	B-AC9	B-AC10	B-AC11	B-AC12	B-AC13	B-AC14	B-AC15	B-AC16	B-DC1	B-DC2	B-DC3	B-DC4	B-DC5	B-DC6	B-DC7	B-DC8	B-DC9	B-DC10	B-DC11	B-DC12	B-DC13	B-DC14	B-DC15	B-DC16	B-Ph1	B-Ph2	B-Ph3	B-Ph4	B-Ph5	B-Ph6	B-Ph7	B-Ph8	B-Ph9	B-Ph10	B-Ph11	B-Ph12	B-Ph13	B-Ph14	B-Ph15	B-Ph16	aux-1	digaux	

7217.190	1	1	0	512	0.11742	0.089073	0.31589	0.058634	0.0090515	0.050909	0.11329	0.093059	0.19078	0.13031	0.25069	0.22076	0.064873	0.13788	0.083999	0.080925	-2.1688	-3.1583	-2.5062	-2.9833	-2.9188	-2.4417	-3.2542	-2.6688	-2.8667	-3.4375	-2.4917	-3.0542	-2.8354	-2.4042	-3.2521	-2.7417	279.525	423.401	351.884	355.203	338.034	333.121	101.064	282.080	232.300	303.737	385.938	84.515	176.498	355.220	376.360	264.910	0.00021634	0.00072099	0.00020433	200.45	1.5522e-05	1.0523e-05	369.04	88.188	9.2158e-06	5.9237e-06	165.41	68.623	37.468	19.795	1.5233e-05	37.898	0.004213	0.0042683	0.0011865	627.08	4.7538e-05	4.6626e-05	688.37	201.65	4.7357e-05	4.674e-05	397.46	128.93	97.214	39.45	4.6998e-05	65.199	195.760	364.797	172.290	94.127	168.925	339.155	92.747	99.496	283.238	394.731	96.559	102.003	104.636	108.207	184.723	104.518	-8191	255	
7217.285	1	1	0	0	0.20529	0.26842	0.066215	0.21847	0.15741	0.027706	0.18622	0.20953	0.080887	0.2165	0.26608	0.06458	0.16656	0.13768	0.10033	0.092896	-2.2917	-3.1229	-2.425	-2.9	-2.9479	-2.4208	-3.2854	-2.7667	-2.6104	-3.2854	-2.6188	-2.9667	-2.9625	-2.4667	-3.3271	-2.8875	277.303	344.293	412.321	146.809	273.400	390.945	131.195	280.561	311.117	409.127	400.710	384.290	425.822	94.756	166.182	326.895	0.00037621	0.00088742	0.00019248	203.93	1.6471e-05	1.8337e-05	369.91	87.886	1.3498e-05	6.295e-06	166.85	67.689	37.276	20.067	6.0304e-06	37.969	0.0041498	0.0042113	0.0012056	627.81	4.707e-05	4.606e-05	693.18	200.56	4.6861e-05	4.6194e-05	402.58	128.11	96.287	39.342	4.8055e-05	64.708	254.807	286.608	174.764	94.488	222.688	404.748	93.566	99.082	354.347	429.180	97.878	101.514	105.245	107.307	204.915	104.671	-8191	255	
7217.383	1	1	0	0	0.22935	0.23097	0.21527	0.18621	0.1484	0.23025	0.030323	0.27822	0.11169	0.066994	0.18018	0.11188	0.10806	0.15599	0.30067	0.17804	-1.925	-3.4167	-2.5896	-2.7354	-3.075	-2.2875	-3.1354	-2.7083	-2.5563	-3.4604	-2.4958	-2.7812	-3.3542	-2.3854	-3.0229	-3.0687	183.364	132.514	222.304	180.567	364.606	418.040	97.395	213.325	82.277	217.980	144.678	84.235	333.811	120.986	197.720	381.045	0.00036688	0.0018648	0.00010639	199.43	8.2273e-06	1.5603e-05	369.89	87.672	2.4314e-06	6.9788e-06	165.18	68.603	37.3	19.913	1.0216e-05	37.614	0.0041239	0.0041732	0.0012159	612.98	4.5953e-05	4.5332e-05	692.44	196.75	4.5362e-05	4.5535e-05	401.75	126.5	95.332	39.325	4.8179e-05	64.298	213.944	171.473	293.590	95.193	245.398	111.339	94.422	100.199	228.124	197.379	97.798	102.017	104.400	107.319	402.441	105.612	-8191	255	
7217.477	1	1	0	0	0.19125	0.23241	0.29422	0.12634	0.092234	0.13855	0.17956	0.2372	0.22455	0.10899	0.12612	0.16193	0.28112	0.17129	0.22804	0.29676	-1.9688	-3.3	-2.6063	-2.7021	-3.2875	-2.4479	-2.8604	-2.9792	-2.4188	-3.2646	-2.6458	-2.7708	-3.3042	-2.4646	-3.1188	-3.025	164.540	350.705	248.812	140.620	330.938	127.051	429.984	315.581	184.197	232.250	361.267	319.014	424.660	186.560	171.989	395.579	6.2382e-05	0.00040182	0.00019878	200.4	3.8944e-06	2.7418e-05	367.31	87.744	5.0524e-06	3.8822e-05	168.12	69.286	37.548	20.295	2.6284e-05	37.936	0.0040631	0.0042314	0.0012289	609.26	4.5523e-05	4.6282e-05	694.17	196.17	4.5044e-05	4.6509e-05	403.62	126.59	95.048	39.819	4.7761e-05	64.125	92.455	354.388	315.247	93.867	372.585	227.655	93.236	99.879	227.396	213.276	97.606	101.830	105.169	107.910	158.252	105.131	-8191	255	
7217.573	1	1	0	0	0.19253	0.10711	0.10235	0.15857	0.40737	0.083329	0.062978	0.14624	0.16608	0.20391	0.12087	0.21323	0.088738	0.15373	0.33007	0.06318	-2.0521	-3.2958	-2.6021	-2.7208	-3.2021	-2.425	-2.9396	-3.325	-2.4437	-3.25	-3.0479	-2.6229	-3.1417	-2.6042	-2.6229	-3.3167	83.232	328.235	359.160	438.686	186.279	300.620	250.879	351.850	169.240	157.242	396.523	131.280	340.137	375.175	207.225	186.488	0.000734	0.00047672	0.00020336	203.1	1.136e-05	1.0274e-05	372.01	88.571	9.6907e-06	1.421e-05	164.04	68.953	37.109	20.213	1.0201e-05	37.773	0.0040047	0.0042787	0.0012159	608.15	4.5415e-05	4.7616e-05	696.6	197.26	4.555e-05	4.8033e-05	405.74	127.04	95.45	40.407	4.7549e-05	64.134	238.294	129.356	108.213	93.540	395.433	236.028	93.340	99.272	182.863	138.436	98.228	102.197	104.343	107.570	239.420	105.153	-8191	255	
7217.669	1	1	0	0	0.25351	0.13235	0.029302	0.20353	0.047563	0.11437	0.1115	0.40119	0.044239	0.22009	0.17497	0.13489	0.06134	0.093339	0.30839	0.20481	-1.9333	-3.1833	-2.85	-2.2542	-3.2229	-2.4667	-2.7583	-3.2729	-2.2583	-2.9583	-2.9604	-2.3979	-3.2062	-2.6604	-2.5958	-3.2438	390.622	148.325	356.563	364.850	162.783	156.901	147.949	423.035	155.452	136.256	374.353	112.157	431.067	149.778	336.879	372.249	0.00051598	0.00059058	0.00031872	199.81	1.0477e-05	1.5918e-05	370.67	86.725	9.9857e-06	5.7094e-06	166.69	68.565	37.241	19.878	5.108e-06	37.693	0.0040532	0.0043634	0.0012079	603.62	4.5606e-05	4.8026e-05	689.78	194.41	4.5567e-05	4.7822e-05	399.07	125.64	95.89	40.133	4.6935e-05	63.245	218.983	132.026	326.675	95.393	132.876	263.022	93.771	100.104	247.534	144.283	98.004	102.530	103.988	108.001	316.973	105.060	-8191	255	
7217.790	1	1	0	0	0.19695	0.074909	0.03188	0.034272	0.18468	0.18348	0.26198	0.16337	0.12705	0.060238	0.18317	0.21737	0.2634	0.26305	0.16839	0.17707	-1.9562	-2.9854	-2.9146	-2.4792	-3.075	-2.9833	-2.5438	-3.0146	-2.5375	-2.95	-3.2167	-2.6271	-3.1063	-2.9271	-2.4646	-3.325	106.656	422.527	290.257	180.241	407.968	87.137	119.305	156.015	160.222	152.670	428.961	317.061	403.591	342.579	123.163	116.461	0.00036054	0.0012932	0.00016394	196.84	9.9781e-06	1.2889e-05	363.74	88.514	3.8656e-06	2.2305e-05	163.21	69.592	37.396	20.162	5.5698e-06	38.102	0.0040948	0.0043235	0.0011851	593.41	4.6073e-05	4.7313e-05	681.48	192.3	4.6066e-05	4.7008e-05	392.14	124.82	96.086	39.819	4.5858e-05	63.175	214.001	210.776	391.309	94.230	284.948	211.167	93.422	99.713	288.408	186.819	96.793	101.817	104.698	107.342	364.515	104.990	-8191	255	
7217.886	1	1	0	0	0.12742	0.069471	0.026509	0.019496	0.13944	0.09156	0.25112	0.07229	0.18406	0.3795	0.14622	0.020145	0.073213	0.20727	0.098405	0.03487	-2.1417	-2.9062	-3.1521	-2.5875	-3.1792	-2.8542	-2.5333	-3.3042	-2.5312	-2.7667	-3.2125	-2.5854	-3.1688	-2.8542	-2.5396	-3.3792	352.029	161.424	164.464	334.897	296.909	402.780	178.991	153.532	431.830	396.543	338.180	253.759	333.585	394.565	265.708	326.905	0.00046004	0.0014724	0.0001685	202.44	1.8755e-05	1.7493e-05	366.58	88.79	1.7989e-05	1.3702e-05	167.45	70.398	38.183	20.252	1.4342e-05	38.482	0.0041255	0.0042639	0.0011692	594.92	4.6743e-05	4.7158e-05	682.15	194.17	4.7124e-05	4.6726e-05	395.79	127.1	98.15	40.05	4.598e-05	64.064	192.372	363.743	147.991	94.324	226.731	246.529	93.276	99.687	153.435	422.767	97.854	101.792	104.597	107.687	85.169	105.248	-8191	255	
7217.982	1	1	0	0	0.28245	0.24074	0.08632	0.14769	0.020941	0.19425	0.16303	0.076228	0.097712	0.095343	0.21303	0.15668	0.20377	0.16215	0.13629	0.15464	-2.3438	-2.8167	-3.3792	-2.6083	-3.1521	-3.1562	-2.6708	-3.2938	-2.625	-2.8042	-3.3063	-2.4437	-3.0333	-2.9854	-2.3417	-3.2271	327.298	405.019	283.653	134.556	166.465	212.027	110.901	273.573	190.537	89.504	414.870	351.193	280.289	117.477	377.717	99.906	0.00048892	0.0017003	0.00041223	203.46	1.4535e-05	7.3613e-06	371.78	90.251	1.2233e-05	2.1782e-05	169.22	70.841	38.337	20.256	1.2589e-05	38.107	0.0042375	0.0042848	0.0011784	606.65	4.7722e-05	4.7205e-05	686.22	197.6	4.7967e-05	4.7128e-05	397.39	129.43	99.042	40.229	4.6069e-05	64.718	253.910	334.384	205.716	94.312	329.605	252.957	93.339	100.675	180.143	134.669	97.419	101.848	104.530	107.856	180.915	105.060	-8191	255	
7218.079	1	1	0	0	0.16952	0.03154	0.078447	0.093042	0.13686	0.31171	0.068756	0.025227	0.11314	0.099942	0.055493	0.20227	0.30103	0.28778	0.16839	0.26171	-2.2	-2.5687	-3.2104	-2.4188	-3.0417	-3.1375	-2.4854	-3.3354	-2.9562	-2.3812	-3.4792	-2.7875	-2.7083	-3.5	-2.5375	-3.1958	344.088	294.014	349.898	223.491	297.642	423.847	396.754	196.652	152.115	413.539	230.370	425.286	432.057	85.599	416.825	395.736	0.00061524	0.0017311	0.00019147	204.65	1.1893e-05	1.4729e-05	366.06	88.462	3.3009e-06	8.2238e-06	162.2	70.323	38.233	20.029	1.4592e-05	37.827	0.0042572	0.0042891	0.0011769	616.66	4.7698e-05	4.7343e-05	681.43	199.07	4.7928e-05	4.7441e-05	396.9	129.96	99.053	40.092	4.6804e-05	65.348	255.368	358.955	354.403	94.146	101.811	340.612	93.333	99.957	379.227	307.304	98.276	102.285	104.793	108.590	228.818	105.085	-8191	255	
7218.175	1	1	0	0	0.13428	0.10513	0.075303	0.094946	0.07575	0.16068	0.30018	0.26052	0.15794	0.10319	0.089151	0.30828	0.069317	0.21074	0.17415	0.042876	-2.6396	-2.5938	-3.1333	-2.7292	-2.8333	-3.1583	-2.5687	-3.2062	-2.8833	-2.4354	-3.3479	-2.7542	-2.6562	-3.5208	-2.25	-3.2	377.379	224.306	147.939	437.265	183.209	240.176	393.762	370.883	417.716	154.571	125.472	113.810	352.377	396.468	417.291	405.739	0.00028864	0.00063242	0.00022034	199.8	2.1399e-05	1.0142e-05	367.99	89.425	6.0639e-06	8.3367e-06	167.25	69.426	37.548	20.092	6.7011e-06	38.357	0.0043065	0.0043249	0.0011959	628.73	4.8085e-05	4.7463e-05	689.28	201.76	4.7827e-05	4.7168e-05	401.03	130.82	98.369	39.92	4.7294e-05	65.595	214.647	422.470	135.525	93.920	231.836	232.521	93.578	100.511	220.526	332.411	97.209	101.907	103.962	107.667	394.759	105.258	-8191	255	
7218.271	1	1	0	0	0.18926	0.15088	0.1943	0.28983	0.10687	0.023222	0.042055	0.1608	0.049092	0.2443	0.074212	0.24674	0.17282	0.13077	0.11129	0.30438	-2.6146	-2.5625	-3.4229	-2.7396	-2.7271	-3.2625	-2.6729	-2.85	-3.1792	-2.5646	-3.1667	-2.9604	-2.4271	-3.2479	-2.4875	-2.9479	373.042	201.740	345.566	253.903	119.298	322.639	388.829	300.579	358.233	175.081	235.532	405.548	397.244	121.941	293.493	309.008	0.00026565	0.00082928	0.00014005	198.32	2.0789e-05	1.5009e-05	367.89	89.241	1.0466e-05	1.1633e-05	168.61	70.232	38.09	20.294	9.697e-06	38.423	0.0042416	0.0042578	0.0012118	629.45	4.726e-05	4.646e-05	693.86	201.07	4.7007e-05	4.6316e-05	404.36	130.44	97.586	39.666	4.8091e-05	65.411	254.183	132.193	139.364	94.279	294.336	346.145	92.686	99.700	421.254	119.265	96.895	101.448	103.433	107.183	213.328	104.622	-8191	255	
7218.390	1	1	0	0	0.069029	0.22381	0.20259	0.096584	0.19294	0.23208	0.033877	0.22258	0.20475	0.15313	0.10087	0.35395	0.03856	0.25042	0.046131	0.13487	-2.8167	-2.2896	-3.3187	-2.9083	-2.4479	-3.5417	-2.6333	-2.7208	-3.2958	-2.3396	-3.2104	-2.9979	-2.6	-3.2625	-2.5417	-2.7479	85.172	273.837	115.758	184.252	329.352	86.090	129.038	404.059	433.054	218.822	401.041	388.802	190.700	418.830	407.936	120.635	0.00013087	0.00065824	0.00071967	199.44	5.6663e-06	2.4237e-05	369.83	88.774	2.0791e-06	2.1184e-05	166.98	70.395	37.837	20.264	5.9045e-06	37.997	0.0041803	0.0041859	0.0012156	617.75	4.639e-05	4.5819e-05	693.89	198.29	4.5847e-05	4.5458e-05	401.89	128.76	95.782	39.305	4.7269e-05	64.045	212.175	271.067	147.556	93.020	254.574	237.639	92.375	99.391	259.653	200.779	96.913	101.501	103.690	107.322	251.014	104.683	-8191	255	
7218.486	1	1	0	0	0.30887	0.047717	0.029743	0.23521	0.12843	0.23282	0.097989	0.19451	0.1335	0.18053	0.22324	0.16528	0.13468	0.11482	0.16571	0.037367	-2.8583	-2.325	-3.1688	-3.0896	-2.3875	-3.3396	-2.7625	-2.7396	-3.2875	-2.6146	-3.0833	-2.9833	-2.6333	-3.1875	-2.7042	-2.6646	357.400	85.642	392.277	251.992	105.903	422.106	421.718	137.622	290.059	99.666	302.811	436.586	120.726	426.966	155.661	221.179	0.00034799	0.0012621	0.00021431	200.39	1.1045e-05	1.5083e-05	369.86	88.349	1.5544e-05	9.6238e-06	166.14	69.22	37.985	20.1	1.9681e-05	37.806	0.004032	0.0041444	0.0011994	607.44	4.5011e-05	4.5565e-05	692.08	196.55	4.5256e-05	4.6252e-05	402.45	127.79	95.502	39.676	4.7682e-05	63.94	289.578	151.309	181.969	92.886	112.208	216.504	93.038	99.284	367.726	138.376	96.934	101.006	103.143	106.961	192.738	104.158	-8191	255	
7218.582	1	1	0	0	0.084367	0.083143	0.090994	0.08764	0.29998	0.1284	0.089656	0.33126	0.11656	0.15375	0.2645	0.25851	0.11394	0.21692	0.23868	0.075276	-2.8979	-2.4104	-2.9146	-3.0708	-2.3833	-3.2583	-2.9583	-2.5396	-3.2833	-2.7146	-2.8729	-3.2687	-2.4562	-3.2479	-2.8667	-2.5396	147.870	434.382	276.417	141.839	440.483	147.209	211.779	96.017	152.364	367.035	177.696	407.490	387.889	406.129	352.924	269.981	0.00023057	0.0022745	0.00031439	202.45	1.5068e-05	1.7868e-05	368.56	88.481	7.8642e-06	2.1625e-05	167.43	69.781	38.429	20.343	1.6944e-05	38.319	0.0040063	0.0042113	0.0011965	604.91	4.4785e-05	4.6413e-05	690.13	195.71	4.4897e-05	4.6951e-05	400.81	127.62	95.188	40.116	4.7244e-05	64.39	253.063	408.895	368.505	94.209	232.754	225.919	93.009	99.809	371.156	324.108	96.231	101.617	103.144	107.064	313.270	104.795	-8191	255	
7218.654	1	1	0	0	0.057659	0.13084	0.06461	0.29656	0.13422	0.13345	0.33903	0.31032	0.10396	0.28778	0.069678	0.22172	0.12311	0.24023	0.07431	0.12873	-2.9188	-2.7188	-2.8187	-3.2542	-2.5708	-3.025	-3.0187	-2.6021	-3.2875	-2.5667	-2.9188	-3.2958	-2.2396	-3.3083	-3.1021	-2.4875	355.233	232.340	431.478	169.646	138.337	330.215	408.881	369.131	403.112	127.461	387.925	82.166	176.427	331.071	206.407	385.041	0.00058634	0.00030911	0.00021875	202.35	2.2905e-05	1.7816e-05	371.29	88.256	4.2182e-06	2.6848e-05	168.02	69.553	38.555	20.318	1.0203e-05	38.123	0.0040369	0.0043415	0.0011984	608.58	4.5283e-05	4.7297e-05	693.47	195.72	4.5492e-05	4.73e-05	399.22	126.55	95.903	40.323	4.6607e-05	63.721	239.303	109.011	202.628	93.281	243.263	189.430	92.339	99.192	394.096	244.750	97.155	101.325	103.500	107.208	212.208	104.394	-8191	255	
7218.774	1	1	0	0	0.11567	0.13101	0.22769	0.1354	0.060383	0.077916	0.047999	0.15398	0.044948	0.15112	0.16109	0.057479	0.1322	0.14814	0.1495	0.061679	-2.9479	-2.6542	-2.6542	-3.3812	-2.5854	-3.1083	-3.1229	-2.7042	-3.2854	-2.5896	-2.6542	-3.4833	-2.2	-3.0396	-3.0917	-2.6146	314.679	232.851	371.191	155.134	321.302	316.789	259.238	214.186	84.790	94.740	280.830	276.001	282.257	419.758	396.125	111.326	0.00054774	0.0011058	0.00020788	203.39	1.0255e-05	1.2382e-05	370.75	89.694	5.944e-06	1.2528e-05	166.14	69.839	37.976	20.483	1.3387e-05	37.815	0.0040532	0.0042998	0.0011832	600.64	4.5649e-05	4.7061e-05	685.49	194.28	4.597e-05	4.7267e-05	395.09	125.51	96.029	39.994	4.5939e-05	63.003	234.865	425.838	431.475	94.264	336.021	280.525	92.960	99.583	156.688	441.505	97.345	101.575	103.991	107.514	176.845	104.545	-8191	255	
7218.870	1	1	0	0	0.086643	0.20352	0.071278	0.042397	0.074975	0.20121	0.065877	0.030465	0.16702	0.17101	0.23553	0.34045	0.012527	0.067137	0.25067	0.081541	-2.9417	-2.8187	-2.4771	-3.3312	-2.5729	-3.1	-3.45	-2.5083	-3.1104	-2.9896	-2.3833	-3.4104	-2.7188	-2.9271	-3.2812	-2.4771	219.966	137.122	181.161	351.659	166.834	100.452	320.094	166.596	346.262	114.674	431.479	390.047	198.159	351.434	242.521	361.508	0.00059798	0.0025153	0.00058332	206.07	2.4415e-05	1.1973e-05	366.02	89.563	2.892e-06	2.0081e-05	166.92	70.93	37.823	20.394	5.093e-06	37.952	0.0040759	0.004254	0.0011633	595.89	4.6374e-05	4.6675e-05	683.16	193.65	4.6517e-05	4.6729e-05	395.6	126.23	97.799	40.005	4.5882e-05	63.422	234.606	306.332	297.970	93.448	180.466	403.393	92.430	99.507	303.428	91.160	97.186	101.091	102.954	107.248	293.211	104.444	-8191	255	
