BOXY.EXE: ISS Imagent and Oximeter Data Acquisition Program Version 0.80
Ascii Record File

#ACQ INFORMATION
2  Detector Channels 
16  External MUX Channels 
1  Auxiliary Channels 
5000  Waveform (CCF) Frequency (Hz)
1  Waveforms Skipped 
30  Waveforms Averaged 
1  Cycles Averaged 
16  Acquisitions per Waveform 
10.0806  Updata Rate (Hz) 

#FILE INFORMATION
TRUE -- External MUX Channel results are PARSED.
FALSE -- AC DC and Phase are NOT grouped.
TRUE -- Companion Program Settings File CREATED.
FALSE -- AC data not excluded
FALSE -- DC data not excluded
FALSE -- Phase data not excluded
FALSE -- Auxillary Chn. data not excluded
Tab delimiters

#CALIBRATION STATE
TRUE -- Waveform Calibration Values APPLIED.


#AUX CALIBRATION VALUES
Val Type	aux-1	

Term	1.0000e+00	
Factor	0.0000e+00	


#WF CALIBRATION VALUES
A = Detector Channel
Val Type	A-AC1	A-AC2	A-AC3	A-AC4	A-AC5	A-AC6	A-AC7	A-AC8	A-AC9	A-AC10	A-AC11	A-AC12	A-AC13	A-AC14	A-AC15	A-AC16	A-DC1	A-DC2	A-DC3	A-DC4	A-DC5	A-DC6	A-DC7	A-DC8	A-DC9	A-DC10	A-DC11	A-DC12	A-DC13	A-DC14	A-DC15	A-DC16	A-Ph1	A-Ph2	A-Ph3	A-Ph4	A-Ph5	A-Ph6	A-Ph7	A-Ph8	A-Ph9	A-Ph10	A-Ph11	A-Ph12	A-Ph13	A-Ph14	A-Ph15	A-Ph16	

Term	0.00000e+00	0.00000e+00	0.00000e+00	0.00000e+00	0.00000e+00	0.00000e+00	0.00000e+00	0.00000e+00	0.00000e+00	0.00000e+00	0.00000e+00	0.00000e+00	0.00000e+00	0.00000e+00	0.00000e+00	0.00000e+00	0.00000e+00	0.00000e+00	0.00000e+00	0.00000e+00	0.00000e+00	0.00000e+00	0.00000e+00	0.00000e+00	0.00000e+00	0.00000e+00	0.00000e+00	0.00000e+00	0.00000e+00	0.00000e+00	0.00000e+00	0.00000e+00	0.00000e+00	0.00000e+00	0.00000e+00	0.00000e+00	0.00000e+00	0.00000e+00	0.00000e+00	0.00000e+00	0.00000e+00	0.00000e+00	0.00000e+00	0.00000e+00	0.00000e+00	0.00000e+00	0.00000e+00	0.00000e+00	
Factor	1.00000e+00	1.00000e+00	1.00000e+00	1.00000e+00	1.00000e+00	1.00000e+00	1.00000e+00	1.00000e+00	1.00000e+00	1.00000e+00	1.00000e+00	1.00000e+00	1.00000e+00	1.00000e+00	1.00000e+00	1.00000e+00	1.00000e+00	1.00000e+00	1.00000e+00	1.00000e+00	1.00000e+00	1.00000e+00	1.00000e+00	1.00000e+00	1.00000e+00	1.00000e+00	1.00000e+00	1.00000e+00	1.00000e+00	1.00000e+00	1.00000e+00	1.00000e+00	X	X	X	X	X	X	X	X	X	X	X	X	X	X	X	X	

B = Detector Channel
Val Type	B-AC1	B-AC2	B-AC3	B-AC4	B-AC5	B-AC6	B-AC7	B-AC8	B-AC9	B-AC10	B-AC11	B-AC12	B-AC13	B-AC14	B-AC15	B-AC16	B-DC1	B-DC2	B-DC3	B-DC4	B-DC5	B-DC6	B-DC7	B-DC8	B-DC9	B-DC10	B-DC11	B-DC12	B-DC13	B-DC14	B-DC15	B-DC16	B-Ph1	B-Ph2	B-Ph3	B-Ph4	B-Ph5	B-Ph6	B-Ph7	B-Ph8	B-Ph9	B-Ph10	B-Ph11	B-Ph12	B-Ph13	B-Ph14	B-Ph15	B-Ph16	

Term	0.00000e+00	0.00000e+00	0.00000e+00	0.00000e+00	0.00000e+00	0.00000e+00	0.00000e+00	0.00000e+00	0.00000e+00	0.00000e+00	0.00000e+00	0.00000e+00	0.00000e+00	0.00000e+00	0.00000e+00	0.00000e+00	0.00000e+00	0.00000e+00	0.00000e+00	0.00000e+00	0.00000e+00	0.00000e+00	0.00000e+00	0.00000e+00	0.00000e+00	0.00000e+00	0.00000e+00	0.00000e+00	0.00000e+00	0.00000e+00	0.00000e+00	0.00000e+00	-9.29852e+01	-1.33296e+02	-1.17972e+02	-1.83514e+02	-6.10041e+01	-6.68737e+01	-1.55681e+02	-1.62015e+02	-6.37700e+01	-6.08445e+01	-1.71225e+02	-1.69747e+02	-1.80595e+02	-1.76656e+02	-4.62200e+01	-1.49255e+02	
Factor	1.72239e-05	1.51077e-04	3.90219e-05	1.52671e-01	1.29822e-06	1.61351e-06	1.77629e-01	5.79230e-02	1.04663e-06	1.52934e-06	9.62527e-02	2.99250e-02	2.79958e-02	9.77860e-03	1.33337e-06	1.40708e-02	2.65951e-06	2.92866e-06	8.15356e-07	7.75076e-02	3.17008e-08	3.21495e-08	8.47087e-02	2.93650e-02	3.17257e-08	3.22051e-08	4.70433e-02	1.47731e-02	1.43622e-02	4.97118e-03	3.19154e-08	6.90677e-03	X	X	X	X	X	X	X	X	X	X	X	X	X	X	X	X	



#DISTANCE SETTINGS
A = Detector Channel
A-1	A-2	A-3	A-4	A-5	A-6	A-7	A-8	A-9	A-10	A-11	A-12	A-13	A-14	A-15	A-16	

2.5000e+00	3.0000e+00	2.5000e+00	3.0000e+00	2.0000e+00	3.0000e+00	1.5000e+00	3.0000e+00	3.0000e+00	3.0000e+00	3.0000e+00	3.0000e+00	3.0000e+00	3.0000e+00	1.5000e+00	3.0000e+00	

B = Detector Channel
B-1	B-2	B-3	B-4	B-5	B-6	B-7	B-8	B-9	B-10	B-11	B-12	B-13	B-14	B-15	B-16	

1.0000e+01	1.0000e+01	1.0000e+01	1.4400e+00	1.0000e+01	1.0000e+01	1.5100e+00	1.9400e+00	1.0000e+01	1.0000e+01	1.9900e+00	2.4900e+00	2.4100e+00	2.9000e+00	1.0000e+01	2.9800e+00	




#DATA BEGINS
time	group	step	mark	flag	A-AC1	A-AC2	A-AC3	A-AC4	A-AC5	A-AC6	A-AC7	A-AC8	A-AC9	A-AC10	A-AC11	A-AC12	A-AC13	A-AC14	A-AC15	A-AC16	A-DC1	A-DC2	A-DC3	A-DC4	A-DC5	A-DC6	A-DC7	A-DC8	A-DC9	A-DC10	A-DC11	A-DC12	A-DC13	A-DC14	A-DC15	A-DC16	A-Ph1	A-Ph2	A-Ph3	A-Ph4	A-Ph5	A-Ph6	A-Ph7	A-Ph8	A-Ph9	A-Ph10	A-Ph11	A-Ph12	A-Ph13	A-Ph14	A-Ph15	A-Ph16	B-AC1	B-AC2	B-AC3	B-AC4	B-AC5	B-AC6	B-AC7	B-AC8	B-AC9	B-AC10	B-AC11	B-AC12	B-AC13	B-AC14	B-AC15	B-AC16	B-DC1	B-DC2	B-DC3	B-DC4	B-DC5	B-DC6	B-DC7	B-DC8	B-DC9	B-DC10	B-DC11	B-DC12	B-DC13	B-DC14	B-DC15	B-DC16	B-Ph1	B-Ph2	B-Ph3	B-Ph4	B-Ph5	B-Ph6	B-Ph7	B-Ph8	B-Ph9	B-Ph10	B-Ph11	B-Ph12	B-Ph13	B-Ph14	B-Ph15	B-Ph16	aux-1	digaux	

613.507	1	1	0	512	0.2281	0.53662	0.24213	0.097532	0.18629	0.21208	0.13624	0.14766	0.16187	0.31603	0.15464	0.16535	0.10515	0.1975	0.21824	0.2639	-0.62708	-1.8208	-1.5021	-1.3458	-2.0646	-1.0542	-1.7583	-1.8167	-0.96875	-1.9792	-1.4729	-1.3208	-2.1083	-1.125	-1.5167	-2.2687	294.030	159.540	256.915	251.566	284.407	214.929	399.233	73.148	378.921	335.865	148.447	387.029	256.264	341.938	170.958	332.423	0.00055378	0.00070298	0.00014403	836.51	7.4807e-06	1.7405e-06	905.04	313.79	6.0548e-06	7.4471e-06	386.53	153.7	120.16	62.212	8.8785e-06	85.742	0.00054512	0.00052145	0.00014634	842.28	5.6318e-06	5.7613e-06	907	317.98	5.7017e-06	5.7038e-06	389.38	155.6	122.59	63.231	5.6899e-06	86.548	191.122	129.537	134.403	55.103	189.682	220.123	54.328	60.973	228.151	195.047	59.257	64.652	66.807	71.941	241.593	69.230	-8191	255	
613.603	1	1	0	0	0.17758	0.25169	0.15241	0.36898	0.17311	0.059756	0.38569	0.12567	0.48499	0.23018	0.20993	0.12148	0.054512	0.3326	0.14359	0.30211	-0.64583	-1.8104	-1.2792	-1.1063	-1.9375	-1.2646	-1.475	-1.9146	-0.86875	-1.7271	-1.7083	-1.2313	-1.9021	-1.1625	-1.3687	-2.2083	252.296	267.358	118.304	378.597	298.924	280.794	94.797	116.673	149.877	244.754	355.129	54.187	190.068	376.536	222.673	384.136	0.00058062	0.00053459	0.0001404	834.01	6.24e-06	4.4317e-06	903.16	317.78	4.9229e-06	1.7881e-06	389.27	155.44	123.11	63.667	4.2393e-06	88.396	0.00054194	0.00052037	0.00014351	839.98	5.5312e-06	5.651e-06	905.59	320.76	5.5983e-06	5.6303e-06	392.22	157.97	125	64.896	5.6911e-06	89.154	190.537	125.817	149.369	54.949	220.918	194.221	54.498	60.909	201.504	180.754	58.926	64.953	66.729	72.078	249.936	69.052	-8191	255	
613.699	1	1	0	0	0.26189	0.18394	0.23874	0.2855	0.12033	0.26077	0.080575	0.23831	0.16373	0.097935	0.12979	0.30484	0.11151	0.25793	0.21083	0.15979	-0.84375	-1.8833	-1.6521	-1.0958	-1.8937	-1.2771	-1.5125	-2.1958	-1.0292	-1.7062	-1.6708	-0.88125	-1.9167	-1.55	-1.2729	-2.2292	192.279	48.502	138.323	374.073	145.002	352.884	353.614	308.350	290.513	87.082	225.450	45.786	163.604	70.095	373.615	375.332	0.00060527	0.00080452	9.4748e-05	836.55	1.5397e-06	7.5672e-06	903.08	319.22	5.2162e-06	8.0466e-06	394.87	158.49	124.15	64.875	2.5714e-06	90.137	0.0005475	0.00052368	0.00014518	840.5	5.6934e-06	5.8311e-06	908.34	322.85	5.8408e-06	5.9127e-06	396.31	160.7	126.47	65.933	6.0063e-06	90.606	190.106	126.530	98.893	54.931	182.987	200.211	54.635	60.867	203.010	209.294	59.113	64.956	66.730	71.790	243.827	69.217	-8191	255	
613.818	1	1	0	0	0.14273	0.26133	0.076104	0.25441	0.275	0.10098	0.14109	0.13358	0.093793	0.094855	0.42347	0.23879	0.31809	0.074989	0.12936	0.17495	-0.59375	-1.4146	-1.6313	-1.1792	-1.7563	-1.1792	-1.1542	-1.9688	-1.0958	-1.5312	-1.7771	-1.0063	-1.8813	-1.675	-1.0125	-2.125	274.989	287.579	44.488	75.599	314.332	152.557	297.804	49.924	262.508	235.703	392.807	327.294	79.931	306.818	399.089	386.125	0.00057055	0.00060927	0.00019033	835.09	6.9695e-06	8.5478e-06	911.62	319.54	7.6627e-06	7.1975e-06	393.36	158.91	123.81	64.49	2.8535e-06	89.731	0.00057513	0.00056101	0.00015207	843.2	6.1157e-06	5.9927e-06	913.48	323.82	6.0535e-06	6.1327e-06	397.61	161.13	126.32	65.73	6.0655e-06	90.56	186.685	122.163	179.525	54.959	223.350	181.171	54.381	61.068	173.307	192.633	58.998	64.781	66.709	71.929	181.400	69.078	-8191	255	
613.891	1	1	0	0	0.055334	0.14016	0.22397	0.27218	0.19357	0.061103	0.38803	0.18062	0.14099	0.11172	0.072229	0.089261	0.22686	0.25553	0.13539	0.43886	-0.90625	-1.4708	-1.75	-1.0688	-1.6979	-1.4604	-1.2208	-1.8813	-1.1562	-1.525	-1.6729	-1.1979	-1.9271	-1.7167	-0.9625	-1.8312	198.792	312.092	391.769	377.745	103.506	100.052	265.082	331.671	244.955	263.572	180.805	352.674	402.081	297.622	49.908	52.478	0.00055952	0.00052562	0.00026825	837.72	5.6422e-06	3.0991e-06	905.86	317.95	6.496e-06	2.1313e-06	390.48	155.95	122.49	63.629	3.4637e-06	87.826	0.00057551	0.00055031	0.00015371	843.18	6.0187e-06	6.0219e-06	910.07	322.05	5.9995e-06	5.9789e-06	393.62	158.79	124.72	64.786	5.8916e-06	88.625	192.273	190.657	122.442	54.980	149.228	193.807	54.285	60.962	225.948	214.336	59.120	64.701	66.966	71.848	237.392	68.989	-8191	255	
613.987	1	1	0	0	0.051286	0.11921	0.053302	0.17422	0.19516	0.15443	0.34736	0.3038	0.13632	0.19232	0.22232	0.21178	0.37207	0.15646	0.25343	0.23754	-0.78542	-1.3396	-1.8542	-1.2062	-1.7979	-1.5896	-1.2792	-2.125	-1.3271	-1.1917	-2.125	-1.1042	-1.7521	-1.9542	-1.1875	-2.0375	168.099	304.373	250.939	61.384	252.141	155.702	368.226	352.246	229.373	54.550	281.164	358.413	391.413	366.531	286.903	372.539	0.00057905	0.0011023	0.00016541	839.78	4.5786e-06	5.5917e-06	903.13	315.87	3.1567e-06	2.7559e-06	386.54	154.65	121.51	63.149	6.0194e-06	87.218	0.0005584	0.00054296	0.00015014	842.14	5.8047e-06	5.8389e-06	905.05	320.32	5.8315e-06	5.7776e-06	390.53	157.06	123.77	64.232	5.8246e-06	87.982	194.674	121.935	133.291	54.719	198.140	179.480	54.342	60.797	194.749	158.893	59.188	64.708	66.526	71.973	262.211	69.377	-8191	255	
614.106	1	1	0	0	0.26588	0.28225	0.022981	0.19562	0.22003	0.099556	0.15129	0.095172	0.19272	0.18685	0.19259	0.38993	0.12028	0.026638	0.26453	0.16162	-1.125	-1.1479	-1.8062	-1.2271	-1.5938	-1.75	-1.1542	-1.8687	-1.4479	-1.1729	-2.0521	-1.3125	-1.5417	-1.8542	-1.05	-1.9292	386.967	219.767	211.201	380.473	370.134	90.390	368.368	264.763	92.010	110.563	89.294	341.133	401.059	137.624	235.173	394.603	0.00059942	0.00048705	0.00011479	835.08	4.48e-06	1.031e-05	904.19	315.45	4.0167e-06	5.8731e-06	386.48	153.75	120.32	62.536	5.4248e-06	86.799	0.00055437	0.00052474	0.00014431	838.03	5.7139e-06	5.681e-06	904.07	318.81	5.6757e-06	5.6908e-06	389.95	156.37	122.84	63.519	5.6564e-06	87.368	191.163	141.563	120.975	54.878	173.561	181.072	54.483	61.072	169.369	184.001	58.872	64.730	67.014	72.063	195.212	69.116	-8191	255	
614.202	1	1	0	0	0.0735	0.16191	0.22197	0.30115	0.055861	0.025288	0.25582	0.14263	0.083361	0.11818	0.1751	0.2111	0.080025	0.12633	0.16383	0.18339	-1.2229	-1.125	-1.8188	-1.4729	-1.2771	-2.0375	-1.1104	-1.7375	-1.4167	-1.1	-1.9208	-1.4271	-1.3958	-2.0062	-1.2938	-2.0396	59.405	305.043	167.636	374.685	391.105	126.386	346.095	135.708	190.569	231.914	52.290	53.573	303.201	67.009	160.670	342.804	0.00057345	5.0532e-05	0.00014773	829.95	5.3519e-06	8.3125e-06	901.99	314.63	3.2727e-06	6.2801e-06	389.29	153.76	120.03	62.214	5.3219e-06	86.634	0.00053885	0.00051239	0.00014304	837.28	5.717e-06	5.5311e-06	904.91	317.91	5.6251e-06	5.5807e-06	390.37	156.37	122.49	63.162	5.5686e-06	87.238	192.685	255.877	128.027	54.604	213.760	174.529	54.377	60.799	182.828	189.057	59.110	64.552	66.751	71.833	230.378	69.189	-8191	255	
614.299	1	1	0	0	0.24615	0.21585	0.19629	0.16833	0.13796	0.052391	0.23563	0.14676	0.15343	0.10971	0.19966	0.20866	0.30037	0.11218	0.19916	0.28019	-1.3	-0.98542	-2.0417	-1.4604	-1.1521	-1.8312	-1.1167	-1.7229	-1.9771	-0.89792	-2.0333	-1.5938	-1.2437	-2.1208	-1.3312	-1.6396	135.135	329.635	265.344	289.566	200.896	219.432	394.461	363.314	357.316	371.823	300.558	201.860	388.304	338.963	57.743	397.328	0.00059797	0.00073865	0.00014459	830.11	6.1141e-06	7.2623e-06	903.01	313.88	5.3587e-06	4.2322e-06	388.97	154.87	120.12	62.269	3.4094e-06	86.398	0.00053046	0.00051017	0.00014019	836.38	5.5903e-06	5.5294e-06	906.62	317.41	5.4956e-06	5.5535e-06	390.92	156.77	122.29	63.057	5.6178e-06	87.013	193.368	115.100	89.713	54.777	185.022	169.345	54.278	61.029	185.338	221.775	58.918	64.739	66.706	71.925	256.058	69.294	-8191	255	
614.419	1	1	0	0	0.065614	0.3457	0.023546	0.13683	0.29658	0.22429	0.31996	0.24715	0.24381	0.16306	0.014593	0.14147	0.11494	0.16096	0.33321	0.16579	-1.4125	-1.0375	-1.7958	-1.5042	-1.0396	-1.975	-1.1542	-1.6625	-1.9104	-1.0854	-1.7396	-1.5688	-1.0479	-2.175	-1.225	-1.6104	130.494	116.863	234.785	152.348	271.489	152.138	240.817	319.189	61.386	116.490	143.537	379.302	309.042	389.384	237.050	303.137	0.00054881	0.00072929	6.2544e-05	830.76	6.4982e-06	5.2213e-06	895.79	311.12	3.6926e-06	6.4875e-06	383.75	152.76	118.96	61.739	9.9537e-06	84.963	0.00052457	0.00050739	0.00014004	835.91	5.5032e-06	5.4353e-06	902.45	314.87	5.4479e-06	5.5511e-06	386.48	154.42	121.14	62.596	5.6284e-06	85.672	194.521	99.282	155.563	54.729	196.025	204.544	54.363	61.054	214.332	213.602	58.789	64.730	66.889	72.016	249.290	69.177	-8191	255	
614.515	1	1	0	0	0.29277	0.18944	0.30291	0.32197	0.20091	0.24847	0.20591	0.2675	0.3236	0.22434	0.13849	0.1978	0.18998	0.0099363	0.20358	0.055627	-1.6521	-1.0521	-1.8771	-1.55	-1.05	-1.9937	-1.5125	-1.6104	-2.0958	-0.84792	-1.7271	-1.8104	-1.2292	-1.9438	-1.35	-1.225	391.628	150.060	162.356	314.351	373.194	115.645	132.123	354.150	275.252	379.654	260.038	352.530	333.063	129.223	232.237	285.890	0.00053916	0.00061086	0.00012939	827.33	6.528e-06	3.6301e-06	894.68	312.71	2.8743e-06	5.925e-06	382	150.85	118.62	60.889	9.323e-06	84.314	0.00052617	0.00050365	0.00013864	833.24	5.4155e-06	5.4259e-06	898.41	314.01	5.4379e-06	5.4378e-06	384.66	153.23	120.41	61.834	5.4208e-06	85	193.294	128.465	161.473	54.706	209.782	171.231	54.091	60.945	151.780	207.342	58.951	64.593	66.691	71.836	228.239	69.358	-8191	255	
614.587	1	1	0	0	0.18381	0.32081	0.067957	0.18022	0.2789	0.13421	0.2467	0.25537	0.16856	0.082402	0.23154	0.19875	0.27968	0.064873	0.5037	0.14097	-1.275	-1.15	-1.5271	-1.9625	-1.0167	-1.7458	-1.6437	-1.3833	-2.1354	-1.2521	-1.4604	-1.9333	-1.1667	-2.0458	-1.5812	-1.1542	274.887	196.823	274.591	145.126	308.114	79.179	84.102	332.596	382.398	314.674	91.697	360.421	380.347	101.110	181.556	241.421	0.00049531	0.00090183	0.00016299	828.82	5.7133e-06	4.5215e-06	895.76	309.4	4.343e-06	7.488e-06	381.21	151.28	118.49	60.817	3.5815e-06	84.448	0.00051762	0.00050184	0.00013721	832.32	5.3792e-06	5.4447e-06	899.61	313.2	5.3562e-06	5.4484e-06	384.27	153.58	120.33	61.805	5.4458e-06	85.183	192.694	143.436	131.528	54.788	214.322	164.907	54.192	60.832	193.629	201.731	59.018	64.657	66.569	71.980	225.447	69.236	-8191	255	
614.683	1	1	0	0	0.14498	0.22005	0.12492	0.11863	0.18201	0.20664	0.21918	0.27339	0.067505	0.1384	0.24103	0.18291	0.08355	0.27561	0.042079	0.16586	-1.5146	-1.0896	-1.3687	-1.9396	-0.975	-1.8417	-1.8563	-1.2146	-2.025	-1.3458	-1.3708	-2.15	-1.1729	-1.7646	-1.7479	-1.225	152.080	54.386	76.801	319.087	379.223	123.623	278.138	329.905	239.585	47.491	236.293	239.183	147.595	97.837	370.377	147.142	0.00056363	0.00095623	0.00018621	826.3	8.6451e-06	3.2097e-06	897.18	309.88	6.2802e-06	4.1306e-06	382.76	151.81	118.21	60.856	8.2299e-06	85.054	0.00051829	0.00050125	0.00013859	832.16	5.4704e-06	5.3728e-06	901.08	312.91	5.4491e-06	5.4629e-06	385.26	154.26	120.03	61.703	5.4632e-06	85.523	199.530	146.991	133.430	54.606	218.451	187.846	54.257	61.011	211.010	181.395	59.140	64.932	66.564	72.038	221.567	69.176	-8191	255	
614.804	1	1	0	0	0.098312	0.26005	0.20487	0.25087	0.23348	0.041124	0.067868	0.10042	0.13816	0.11429	0.065681	0.13563	0.20112	0.14627	0.050239	0.19182	-1.5562	-1.2833	-1.3146	-2.1667	-1.1271	-1.6812	-1.6521	-1.1167	-1.8771	-1.5021	-1.2354	-2.175	-1.3833	-1.8062	-1.7437	-1.0917	320.287	384.310	258.482	369.881	282.100	185.936	276.493	227.532	150.296	81.661	382.579	352.832	129.306	292.809	191.095	212.500	0.00052538	0.00012798	0.00021141	832.11	5.1823e-06	7.06e-06	898.76	308.03	5.824e-06	7.7521e-06	380.84	151.16	117.93	60.504	5.1308e-06	84.715	0.00052638	0.00050075	0.00013782	834.44	5.4534e-06	5.427e-06	901.91	312.15	5.3538e-06	5.4139e-06	383.92	153.54	119.59	61.494	5.4157e-06	84.94	189.832	85.431	149.109	54.721	235.977	174.132	54.167	60.927	200.923	190.727	59.252	64.712	66.683	72.207	253.619	69.065	-8191	255	
614.900	1	1	0	0	0.28538	0.11582	0.24485	0.12368	0.15961	0.26255	0.24333	0.11027	0.14187	0.19205	0.31644	0.28774	0.11867	0.071026	0.10336	0.15248	-1.5896	-1.5938	-1.2313	-2.2042	-1.1063	-1.4854	-1.8958	-1.2458	-1.8333	-1.6896	-1.0938	-2.2438	-1.3354	-1.6604	-1.9583	-1.3792	190.644	277.970	45.180	67.228	209.381	56.348	369.398	351.188	310.016	334.737	85.802	61.123	365.874	352.739	178.271	284.154	0.0005683	0.00045983	0.00020814	825.34	7.3085e-06	3.566e-06	897.03	307.81	6.6965e-06	4.6594e-06	378.32	150.41	116.77	60.414	5.8061e-06	84.195	0.00051537	0.00049623	0.00013776	831.02	5.431e-06	5.4698e-06	896.89	311.52	5.4472e-06	5.419e-06	381.37	152.24	119.32	61.4	5.3865e-06	84.579	192.045	150.433	155.606	54.848	221.089	170.118	54.109	60.808	210.635	166.298	58.942	64.697	66.820	72.117	216.972	69.091	-8191	255	
614.994	1	1	0	0	0.11614	0.093289	0.14586	0.11058	0.21586	0.28955	0.053551	0.14941	0.045491	0.17101	0.079418	0.29099	0.0698	0.21576	0.087424	0.29065	-1.6562	-1.5375	-1.1271	-2.0333	-1.2271	-1.4458	-2.0292	-1.2396	-1.7563	-1.6167	-1.0542	-2.0771	-1.4583	-1.4417	-2.0875	-1.125	321.466	144.488	198.596	264.408	290.673	217.824	103.159	270.842	314.134	313.201	354.440	288.713	293.194	375.204	306.114	371.022	0.00056028	0.00035333	7.1574e-05	826.94	2.4119e-06	2.1474e-06	891.97	309.45	5.4353e-06	4.7771e-06	380.93	151.17	117.51	60.61	2.5502e-06	84.549	0.00051729	0.00048892	0.00013719	830.05	5.3893e-06	5.4858e-06	894.28	312.12	5.4373e-06	5.4614e-06	383.36	153.18	120	61.642	5.4209e-06	85.016	195.137	144.228	121.111	54.794	211.504	195.106	54.389	60.873	198.823	240.307	59.013	64.823	66.517	72.126	237.303	69.194	-8191	255	
615.091	1	1	0	0	0.20834	0.098124	0.074464	0.34914	0.2553	0.10186	0.18166	0.22724	0.097099	0.42344	0.29884	0.33344	0.29561	0.45569	0.15018	0.238	-1.0979	-1.6958	-1.0625	-2.0729	-1.4271	-1.0688	-2	-1.1479	-1.5292	-1.8271	-1.0187	-1.7958	-1.6708	-1.0958	-2.075	-1.2271	338.154	234.128	309.195	367.490	97.229	332.697	83.296	48.530	59.105	364.642	354.782	401.502	329.907	343.130	316.616	335.025	0.00057038	0.00070026	0.00021367	827.07	5.9022e-06	3.2432e-06	894.71	308.84	4.1388e-06	5.6934e-06	382.5	151.25	117.31	60.925	6.9818e-06	84.536	0.00052199	0.00049246	0.00013635	829.33	5.4167e-06	5.4451e-06	897.57	312.18	5.4371e-06	5.3895e-06	384.6	153.73	119.81	61.8	5.4754e-06	85.413	190.428	138.323	120.013	54.766	213.987	174.076	54.298	60.620	217.034	239.694	59.068	64.889	66.977	71.865	195.478	69.039	-8191	255	
615.187	1	1	0	0	0.20833	0.1172	0.18586	0.18617	0.11256	0.049881	0.090799	0.27055	0.10115	0.052691	0.17181	0.062928	0.042877	0.33788	0.2547	0.21071	-0.89583	-1.6021	-0.80625	-1.8021	-1.4562	-1.0833	-1.9292	-1.3604	-1.2833	-1.9167	-1.2854	-2.0146	-1.6917	-1.1313	-1.8854	-1.2875	90.778	392.588	133.079	314.170	199.632	173.272	338.927	304.805	278.937	173.166	178.845	314.452	136.645	153.653	96.477	372.719	0.00051405	0.000271	0.00010931	828.34	5.6013e-06	3.1199e-06	897.19	308.24	6.2212e-06	7.2263e-06	382.78	151.47	117.18	60.399	5.5094e-06	84.481	0.00052084	0.00049931	0.00013956	831.07	5.4491e-06	5.4379e-06	900.18	311.37	5.4399e-06	5.4158e-06	384.57	153.61	119.54	61.354	5.4087e-06	85.248	191.502	113.948	123.412	54.791	229.530	140.664	54.413	60.757	208.461	247.948	58.904	64.733	66.648	72.137	229.082	69.056	-8191	255	
