BOXY.EXE: ISS Imagent and Oximeter Data Acquisition Program Version 0.80
Ascii Record File

#ACQ INFORMATION
2  Detector Channels 
16  External MUX Channels 
1  Auxiliary Channels 
5000  Waveform (CCF) Frequency (Hz)
1  Waveforms Skipped 
30  Waveforms Averaged 
1  Cycles Averaged 
16  Acquisitions per Waveform 
10.0806  Updata Rate (Hz) 

#FILE INFORMATION
TRUE -- External MUX Channel results are PARSED.
FALSE -- AC DC and Phase are NOT grouped.
TRUE -- Companion Program Settings File CREATED.
FALSE -- AC data not excluded
FALSE -- DC data not excluded
FALSE -- Phase data not excluded
FALSE -- Auxillary Chn. data not excluded
Tab delimiters

#CALIBRATION STATE
TRUE -- Waveform Calibration Values APPLIED.


#AUX CALIBRATION VALUES
Val Type	aux-1	

Term	1.0000e+00	
Factor	0.0000e+00	


#WF CALIBRATION VALUES
A = Detector Channel
Val Type	A-AC1	A-AC2	A-AC3	A-AC4	A-AC5	A-AC6	A-AC7	A-AC8	A-AC9	A-AC10	A-AC11	A-AC12	A-AC13	A-AC14	A-AC15	A-AC16	A-DC1	A-DC2	A-DC3	A-DC4	A-DC5	A-DC6	A-DC7	A-DC8	A-DC9	A-DC10	A-DC11	A-DC12	A-DC13	A-DC14	A-DC15	A-DC16	A-Ph1	A-Ph2	A-Ph3	A-Ph4	A-Ph5	A-Ph6	A-Ph7	A-Ph8	A-Ph9	A-Ph10	A-Ph11	A-Ph12	A-Ph13	A-Ph14	A-Ph15	A-Ph16	

Term	0.00000e+00	0.00000e+00	0.00000e+00	0.00000e+00	0.00000e+00	0.00000e+00	0.00000e+00	0.00000e+00	0.00000e+00	0.00000e+00	0.00000e+00	0.00000e+00	0.00000e+00	0.00000e+00	0.00000e+00	0.00000e+00	0.00000e+00	0.00000e+00	0.00000e+00	0.00000e+00	0.00000e+00	0.00000e+00	0.00000e+00	0.00000e+00	0.00000e+00	0.00000e+00	0.00000e+00	0.00000e+00	0.00000e+00	0.00000e+00	0.00000e+00	0.00000e+00	0.00000e+00	0.00000e+00	0.00000e+00	0.00000e+00	0.00000e+00	0.00000e+00	0.00000e+00	0.00000e+00	0.00000e+00	0.00000e+00	0.00000e+00	0.00000e+00	0.00000e+00	0.00000e+00	0.00000e+00	0.00000e+00	
Factor	1.00000e+00	1.00000e+00	1.00000e+00	1.00000e+00	1.00000e+00	1.00000e+00	1.00000e+00	1.00000e+00	1.00000e+00	1.00000e+00	1.00000e+00	1.00000e+00	1.00000e+00	1.00000e+00	1.00000e+00	1.00000e+00	1.00000e+00	1.00000e+00	1.00000e+00	1.00000e+00	1.00000e+00	1.00000e+00	1.00000e+00	1.00000e+00	1.00000e+00	1.00000e+00	1.00000e+00	1.00000e+00	1.00000e+00	1.00000e+00	1.00000e+00	1.00000e+00	X	X	X	X	X	X	X	X	X	X	X	X	X	X	X	X	

B = Detector Channel
Val Type	B-AC1	B-AC2	B-AC3	B-AC4	B-AC5	B-AC6	B-AC7	B-AC8	B-AC9	B-AC10	B-AC11	B-AC12	B-AC13	B-AC14	B-AC15	B-AC16	B-DC1	B-DC2	B-DC3	B-DC4	B-DC5	B-DC6	B-DC7	B-DC8	B-DC9	B-DC10	B-DC11	B-DC12	B-DC13	B-DC14	B-DC15	B-DC16	B-Ph1	B-Ph2	B-Ph3	B-Ph4	B-Ph5	B-Ph6	B-Ph7	B-Ph8	B-Ph9	B-Ph10	B-Ph11	B-Ph12	B-Ph13	B-Ph14	B-Ph15	B-Ph16	

Term	0.00000e+00	0.00000e+00	0.00000e+00	0.00000e+00	0.00000e+00	0.00000e+00	0.00000e+00	0.00000e+00	0.00000e+00	0.00000e+00	0.00000e+00	0.00000e+00	0.00000e+00	0.00000e+00	0.00000e+00	0.00000e+00	0.00000e+00	0.00000e+00	0.00000e+00	0.00000e+00	0.00000e+00	0.00000e+00	0.00000e+00	0.00000e+00	0.00000e+00	0.00000e+00	0.00000e+00	0.00000e+00	0.00000e+00	0.00000e+00	0.00000e+00	0.00000e+00	-6.59245e+01	-1.24734e+02	-1.31290e+02	-1.83070e+02	-4.71720e+01	-6.49150e+01	-1.56663e+02	-1.62015e+02	-3.94459e+01	-6.42214e+01	-1.71114e+02	-1.71480e+02	-1.80686e+02	-1.76770e+02	-5.03157e+01	-1.49850e+02	
Factor	1.94318e-05	1.90944e-04	4.49887e-05	1.63081e-01	1.59961e-06	1.69595e-06	1.94177e-01	5.42487e-02	1.28390e-06	1.65075e-06	1.08414e-01	3.13847e-02	2.95052e-02	9.61121e-03	1.53840e-06	1.41149e-02	5.54059e-06	6.76180e-06	1.88700e-06	8.26207e-02	7.18682e-08	7.45135e-08	9.21061e-02	2.75920e-02	7.18242e-08	7.41166e-08	5.30887e-02	1.54427e-02	1.51454e-02	4.92050e-03	7.23774e-08	6.95805e-03	X	X	X	X	X	X	X	X	X	X	X	X	X	X	X	X	



#DISTANCE SETTINGS
A = Detector Channel
A-1	A-2	A-3	A-4	A-5	A-6	A-7	A-8	A-9	A-10	A-11	A-12	A-13	A-14	A-15	A-16	

2.5000e+00	3.0000e+00	2.5000e+00	3.0000e+00	2.0000e+00	3.0000e+00	1.5000e+00	3.0000e+00	3.0000e+00	3.0000e+00	3.0000e+00	3.0000e+00	3.0000e+00	3.0000e+00	1.5000e+00	3.0000e+00	

B = Detector Channel
B-1	B-2	B-3	B-4	B-5	B-6	B-7	B-8	B-9	B-10	B-11	B-12	B-13	B-14	B-15	B-16	

1.0000e+01	1.0000e+01	1.0000e+01	1.4400e+00	1.0000e+01	1.0000e+01	1.5100e+00	1.9400e+00	1.0000e+01	1.0000e+01	1.9900e+00	2.4900e+00	2.4100e+00	2.9000e+00	1.0000e+01	2.9800e+00	




#DATA BEGINS
time	group	step	mark	flag	A-AC1	A-AC2	A-AC3	A-AC4	A-AC5	A-AC6	A-AC7	A-AC8	A-AC9	A-AC10	A-AC11	A-AC12	A-AC13	A-AC14	A-AC15	A-AC16	A-DC1	A-DC2	A-DC3	A-DC4	A-DC5	A-DC6	A-DC7	A-DC8	A-DC9	A-DC10	A-DC11	A-DC12	A-DC13	A-DC14	A-DC15	A-DC16	A-Ph1	A-Ph2	A-Ph3	A-Ph4	A-Ph5	A-Ph6	A-Ph7	A-Ph8	A-Ph9	A-Ph10	A-Ph11	A-Ph12	A-Ph13	A-Ph14	A-Ph15	A-Ph16	B-AC1	B-AC2	B-AC3	B-AC4	B-AC5	B-AC6	B-AC7	B-AC8	B-AC9	B-AC10	B-AC11	B-AC12	B-AC13	B-AC14	B-AC15	B-AC16	B-DC1	B-DC2	B-DC3	B-DC4	B-DC5	B-DC6	B-DC7	B-DC8	B-DC9	B-DC10	B-DC11	B-DC12	B-DC13	B-DC14	B-DC15	B-DC16	B-Ph1	B-Ph2	B-Ph3	B-Ph4	B-Ph5	B-Ph6	B-Ph7	B-Ph8	B-Ph9	B-Ph10	B-Ph11	B-Ph12	B-Ph13	B-Ph14	B-Ph15	B-Ph16	aux-1	digaux	

1431.712	1	1	0	256	0.10854	0.09802	0.15413	0.09978	0.22431	0.22958	0.27033	0.25173	0.22899	0.26202	0.010172	0.16009	0.37344	0.12911	0.14114	0.18934	-1.6917	-2.2333	-1.8104	-2.2104	-2.1562	-2.1208	-2.3729	-2.2062	-2.2	-2.3021	-2.0125	-2.4792	-1.8937	-1.8792	-2.2896	-1.8646	169.697	363.065	450.571	118.633	141.117	249.957	440.984	327.303	163.652	258.565	313.380	385.746	377.681	443.784	336.140	421.882	0.00026189	0.00077	0.00014273	209.68	5.9868e-06	3.6711e-06	406.76	57.953	5.9159e-06	6.1218e-06	133.49	63.82	26.429	8.7911	6.0298e-06	22.88	0.0023182	0.0027463	0.00076621	234.56	2.9233e-05	3.02e-05	427.06	67.527	2.9433e-05	3.0282e-05	149.57	68.207	31.607	10.672	2.9377e-05	25.13	240.650	409.187	403.695	125.916	159.427	385.194	126.077	133.305	439.549	472.183	131.674	136.478	139.068	143.978	238.471	141.190	-8191	255	
1431.808	1	1	0	0	0.10825	0.16222	0.19351	0.14687	0.23024	0.047192	0.11691	0.42708	0.16873	0.26667	0.10514	0.15227	0.10734	0.30399	0.11017	0.13371	-1.6625	-2.3042	-1.7083	-2.2271	-2.1271	-1.9958	-2.2938	-2.0438	-2.1792	-2.3271	-1.8646	-2.1188	-1.9583	-1.7979	-2.5104	-1.9312	399.232	196.785	455.431	321.028	353.148	329.060	281.175	211.192	143.339	346.578	162.034	325.637	450.594	454.636	162.375	163.458	0.00022988	0.00078389	0.00014084	211.36	1.0905e-05	1.0504e-05	404.43	58.363	8.6124e-07	5.3575e-06	131.91	63.778	26.398	8.8213	7.1297e-06	22.93	0.0023334	0.0027584	0.00075412	236.88	2.9474e-05	3.0294e-05	427.8	67.676	2.9283e-05	2.9943e-05	149.02	68.138	31.461	10.648	2.8895e-05	25.139	239.571	249.294	152.731	126.360	318.419	274.471	126.441	133.636	402.415	193.935	131.610	136.592	138.824	144.396	298.062	140.823	-8191	255	
1431.904	1	1	0	0	0.010867	0.10542	0.098217	0.26039	0.15279	0.19728	0.08702	0.26869	0.15458	0.18054	0.14056	0.0086831	0.16404	0.19059	0.048777	0.25699	-1.7854	-2.1917	-2.0687	-2.2396	-2.3396	-1.9354	-2.3187	-2.1437	-2.1917	-2.4042	-2.05	-2.2604	-2.0667	-1.9417	-2.2938	-2.0792	147.820	255.110	187.827	396.492	231.347	420.874	373.268	373.187	324.177	117.170	464.878	359.511	280.253	425.841	165.081	269.793	0.00020169	0.0009466	1.0105e-05	211.63	6.7943e-06	8.5342e-06	409.17	58.92	5.349e-06	8.5568e-06	134.28	63.815	26.638	8.837	6.5815e-06	23.096	0.0022793	0.0027205	0.00075698	237.48	2.9243e-05	2.9834e-05	432.66	68.138	2.939e-05	3.0136e-05	150.45	68.633	31.771	10.716	2.9147e-05	25.192	234.023	212.572	413.608	126.169	368.834	297.758	125.623	133.214	271.466	160.900	131.919	136.745	138.845	144.274	335.072	140.931	-8191	255	
1431.976	1	1	0	0	0.31212	0.17807	0.12854	0.10803	0.081463	0.21663	0.10395	0.15354	0.14323	0.11621	0.16664	0.069211	0.085741	0.12314	0.12439	0.17551	-1.4438	-2.5062	-1.7896	-2.1417	-2.4333	-1.9292	-2.3438	-2.0042	-1.9292	-2.4188	-2.0208	-2.2667	-2.3958	-1.8979	-2.4771	-1.9562	329.524	446.634	447.850	169.579	399.518	155.587	397.846	249.614	388.078	182.663	274.372	427.970	279.655	331.322	213.244	409.258	0.00025618	0.00081932	0.00016952	212.12	3.2822e-06	8.8266e-06	409.4	58.394	4.5836e-06	4.0482e-06	132.01	63.365	26.419	8.8687	5.0471e-06	22.875	0.0022757	0.0027042	0.0007581	238.54	2.8496e-05	2.9375e-05	430.68	67.605	2.8698e-05	2.924e-05	149.14	67.959	31.445	10.663	2.8638e-05	25.054	253.916	459.316	296.038	126.626	441.157	195.192	125.412	132.315	400.838	151.398	131.341	136.251	138.369	144.240	327.195	141.225	-8191	255	
1432.097	1	1	0	0	0.24108	0.058372	0.34369	0.1706	0.17898	0.37849	0.22046	0.089097	0.09365	0.38589	0.086855	0.31467	0.36605	0.15119	0.17715	0.10379	-1.5729	-2.4667	-1.9375	-2.175	-2.2188	-1.6812	-2.2646	-2.2792	-1.8375	-2.4083	-2.0687	-2.1229	-2.2708	-1.8792	-2.2583	-2.2562	255.897	373.492	397.405	469.242	372.839	267.655	119.986	263.588	230.509	373.398	366.899	321.972	430.403	401.864	395.352	449.084	0.00023212	0.00036182	0.00010113	216.52	4.9671e-06	3.2812e-06	410.57	58.329	4.1747e-06	6.0073e-06	131.01	63.391	26.107	8.79	1.0525e-05	22.707	0.0022473	0.0026633	0.0007592	239.36	2.8733e-05	2.954e-05	432.79	67.43	2.9312e-05	2.994e-05	148.05	67.817	31.517	10.685	2.9327e-05	25.023	225.317	279.504	199.568	126.057	330.184	197.206	125.908	132.988	370.210	219.846	131.823	135.848	138.642	143.809	324.852	140.858	-8191	255	
1432.193	1	1	0	0	0.25632	0.19318	0.1484	0.20225	0.1484	0.11472	0.25042	0.20516	0.19534	0.25614	0.18489	0.2037	0.19011	0.22073	0.21829	0.1973	-1.3958	-2.3646	-2.0854	-2.1667	-2.3271	-1.9083	-2.4292	-2.1875	-1.9688	-2.5458	-1.9625	-2.0521	-2.4042	-1.8396	-2.2875	-2.4625	350.945	270.623	414.964	430.492	320.949	311.887	371.500	227.338	474.725	467.982	187.371	173.912	127.563	124.249	260.894	318.779	0.00022573	0.0012114	1.0817e-05	213.12	2.948e-06	4.4113e-06	411.8	58.325	5.0516e-06	9.8474e-06	130.93	63.308	26.478	8.8888	1.4709e-05	22.722	0.0022954	0.0027597	0.00076715	239.25	2.9124e-05	3.0353e-05	432.14	67.578	2.9327e-05	3.0085e-05	148.24	67.895	31.517	10.687	2.9751e-05	25.042	238.919	287.699	187.323	126.031	193.671	135.680	125.854	133.020	174.185	164.540	131.159	136.462	138.567	144.134	310.356	141.112	-8191	255	
1432.289	1	1	0	0	0.28163	0.14631	0.21295	0.19267	0.22609	0.072593	0.08138	0.11431	0.18009	0.20424	0.20343	0.20525	0.18787	0.21295	0.17242	0.1392	-1.6187	-2.3146	-2.0646	-2.05	-2.4625	-1.9792	-2.2792	-2.2375	-2.0187	-2.3563	-2.2542	-2.1667	-2.45	-1.9854	-2.3417	-2.3479	372.896	384.208	465.175	471.350	266.913	372.233	289.512	330.498	463.972	242.714	456.848	131.201	466.513	161.605	167.354	115.624	0.00019315	0.00069174	0.00016132	213.44	4.9596e-06	8.9141e-06	411.67	59.118	7.6019e-06	3.7557e-06	130.86	63.298	26.04	8.7571	2.9986e-06	22.645	0.0023174	0.0027473	0.00077444	239.58	2.9274e-05	3.0357e-05	434	67.96	2.9054e-05	3.024e-05	147.91	67.812	31.51	10.631	2.9277e-05	24.905	247.188	118.502	214.491	126.539	305.491	257.471	126.042	133.287	295.108	256.093	131.169	136.590	137.839	144.343	190.785	141.254	-8191	255	
1432.385	1	1	0	0	0.096315	0.12918	0.26534	0.048654	0.10661	0.099222	0.084839	0.16767	0.34674	0.2503	0.046344	0.1556	0.14901	0.1028	0.27996	0.13461	-1.5438	-2.4771	-2.2771	-1.8813	-2.3812	-2.1063	-2.0729	-2.2417	-1.8771	-2.3396	-2.2479	-2.0771	-2.4958	-2.15	-2.0417	-2.3479	464.415	222.716	216.864	399.236	264.446	464.646	289.824	257.229	224.585	148.870	330.156	212.758	184.280	434.866	342.889	163.024	0.0002951	0.00069076	0.00022565	213.71	5.8578e-06	2.899e-06	409.7	58.173	7.3786e-06	5.6077e-06	130.3	62.541	26.226	8.726	1.5493e-06	22.405	0.0022764	0.0027628	0.00076787	237.89	2.9121e-05	3.0002e-05	431.22	67.432	2.9063e-05	3.0097e-05	147.39	67.099	31.316	10.599	2.9171e-05	24.621	246.252	148.870	383.946	125.956	344.029	313.517	125.781	133.442	280.100	235.866	131.467	136.972	138.801	144.288	424.217	141.008	-8191	255	
1432.504	1	1	0	0	0.18052	0.2073	0.10772	0.047022	0.049653	0.15435	0.07594	0.12689	0.23892	0.10638	0.06671	0.20185	0.19171	0.062724	0.13821	0.21425	-1.5396	-2.1417	-1.9979	-1.9646	-2.5458	-1.9479	-2.1271	-2.3917	-1.8875	-2.2104	-2.2771	-2.0083	-2.1854	-2.0229	-1.9583	-2.0833	269.859	229.695	376.135	196.273	388.828	316.724	167.098	284.410	158.336	235.336	316.666	351.402	262.800	208.619	225.162	447.270	0.0003068	0.00090689	0.00010398	210.46	2.1519e-06	8.719e-06	405.21	57.931	4.1003e-06	3.4399e-06	130.13	62.65	25.957	8.7016	7.3658e-06	22.216	0.0022661	0.0027396	0.00075952	238.16	2.8751e-05	3.0039e-05	429.94	67.296	2.9041e-05	3.03e-05	147.17	67.321	31.388	10.57	2.9186e-05	24.584	257.660	281.181	180.956	126.095	289.038	166.364	126.165	132.745	404.949	136.444	131.414	137.084	139.281	144.487	266.423	141.286	-8191	255	
1432.600	1	1	0	0	0.20363	0.35278	0.29282	0.24546	0.20109	0.17245	0.064313	0.17139	0.14304	0.15751	0.095066	0.11213	0.35342	0.057545	0.25747	0.10616	-1.2917	-2.0896	-2.3729	-1.9854	-2.2771	-2.1417	-2.0583	-2.3917	-2.0667	-2.1188	-2.4062	-2.0312	-2.2625	-2.1437	-1.9854	-2.3896	319.964	131.813	332.965	371.116	175.150	367.081	243.491	193.631	196.292	148.951	117.372	294.296	332.715	213.187	272.506	300.626	0.00029026	0.00089827	7.4456e-05	213.44	2.9037e-06	3.2795e-06	410.63	58.418	6.7261e-06	1.1686e-05	129.77	63.189	26.441	8.6815	7.3248e-06	22.541	0.0022725	0.0027388	0.00075712	238.15	2.902e-05	2.9788e-05	429.77	67.503	2.8751e-05	2.9696e-05	147.51	67.214	31.376	10.563	2.9331e-05	24.759	245.404	133.029	328.157	125.967	453.011	438.485	126.209	133.131	356.038	301.592	131.306	136.647	138.472	144.268	225.113	141.068	-8191	255	
1432.696	1	1	0	0	0.05107	0.13762	0.3092	0.23383	0.076055	0.35727	0.16946	0.19679	0.13883	0.095112	0.30503	0.07601	0.32968	0.34963	0.21001	0.21053	-1.4375	-2.0812	-2.1042	-1.9604	-2.4479	-2.4167	-1.9104	-2.2667	-2.1229	-2.2375	-2.3063	-1.8792	-2.3042	-2.1771	-1.8396	-2.5187	180.181	169.843	327.356	260.707	199.712	439.033	402.027	412.755	409.230	194.698	432.941	319.940	309.787	471.672	364.421	446.691	0.00025912	0.0011818	0.00013326	212.57	2.0464e-06	5.1403e-06	408.96	58.658	2.7326e-06	9.5615e-07	129.76	62.811	26.235	8.7518	8.2425e-06	22.362	0.0022775	0.0027574	0.00075731	238.14	2.8966e-05	3.041e-05	429.96	67.571	2.96e-05	3.036e-05	146.78	67.267	31.451	10.617	2.959e-05	24.548	238.608	380.797	244.574	126.065	424.843	136.179	126.017	133.566	279.356	304.043	131.675	136.542	138.283	143.770	333.922	141.170	-8191	255	
1432.792	1	1	0	0	0.30128	0.060413	0.20847	0.16962	0.084771	0.2795	0.14802	0.14083	0.010508	0.16258	0.24778	0.2058	0.24573	0.07267	0.072138	0.25874	-1.6208	-1.8667	-2.4688	-1.8771	-2.2479	-2.2396	-1.9417	-2.1729	-2.1271	-2.0021	-2.4125	-2.0729	-2.1958	-2.2292	-1.9833	-2.4979	272.724	362.535	472.908	342.847	230.710	409.021	402.576	176.395	192.785	468.450	264.427	132.519	438.275	213.139	196.253	379.006	0.00016588	0.0013734	0.00013883	212.55	5.5405e-06	2.8964e-06	404.35	58.181	1.8796e-06	2.3806e-06	129.32	62.282	26.244	8.6805	8.5346e-07	22.229	0.0023201	0.0027735	0.00076936	237.72	2.9737e-05	3.0559e-05	428.94	67.618	2.958e-05	3.0516e-05	147.2	66.991	31.465	10.612	2.9791e-05	24.633	254.326	182.301	126.166	126.081	449.715	321.399	125.730	133.277	437.380	134.177	131.286	136.449	139.123	143.698	375.630	141.513	-8191	255	
1432.888	1	1	0	0	0.31069	0.14437	0.13554	0.09753	0.16743	0.085921	0.38242	0.13547	0.41496	0.27159	0.09761	0.18187	0.36888	0.08915	0.16583	0.15497	-1.7	-1.9854	-2.3021	-1.8729	-2.1771	-2.4854	-1.9833	-2.3521	-2.0687	-1.9625	-2.45	-2.1083	-2.1542	-2.3937	-1.9417	-2.2917	293.845	121.963	304.943	446.222	199.955	349.133	167.753	426.303	196.132	121.585	398.004	461.956	351.162	467.598	167.184	451.984	0.00019779	0.00011942	0.00024897	214.02	6.14e-06	7.1956e-06	407.4	58.245	3.8888e-06	8.7523e-06	129.59	62.844	26.263	8.8092	6.0704e-06	22.37	0.0023522	0.0027839	0.00077391	239.35	3.0045e-05	3.0679e-05	430	67.773	2.9549e-05	3.0667e-05	147.07	67.242	31.531	10.637	2.9566e-05	24.67	230.167	293.151	195.992	126.698	206.455	124.333	125.837	133.137	159.560	228.318	131.818	136.338	138.087	144.092	397.806	141.219	-8191	255	
1432.985	1	1	0	0	0.10683	0.10605	0.21374	0.41385	0.098961	0.1959	0.27247	0.18024	0.078884	0.11663	0.2086	0.17773	0.079455	0.10614	0.14403	0.2527	-1.9521	-1.9625	-2.4458	-2.0875	-2.2	-2.6271	-1.8917	-2.2375	-2.2146	-2.0604	-2.3667	-2.1333	-2.05	-2.4208	-2.1729	-2.2771	182.689	334.650	351.268	324.674	342.556	280.160	218.433	420.810	376.270	235.053	475.689	268.130	117.008	202.935	162.862	453.346	0.00030039	0.00063134	0.00019141	212.67	4.8187e-06	7.2547e-06	407.03	58.204	3.2226e-06	4.2951e-06	129.76	62.811	26.172	8.9336	1.2443e-06	22.456	0.0023393	0.0027776	0.00077707	238.14	2.9783e-05	3.0599e-05	430.2	67.978	2.9913e-05	3.0407e-05	148.2	67.317	31.545	10.699	2.9957e-05	24.704	274.868	366.469	195.411	126.167	441.199	437.187	126.507	133.890	186.631	301.844	131.376	136.046	137.871	144.155	156.708	141.124	-8191	255	
1433.105	1	1	0	0	0.099206	0.1601	0.052755	0.088034	0.16822	0.10026	0.15761	0.29021	0.1603	0.05842	0.16194	0.089246	0.16312	0.24093	0.18856	0.18392	-1.8333	-1.9542	-2.2583	-2.1167	-2.3	-2.5729	-2.1104	-2.1708	-2.25	-1.9917	-2.3625	-2.2438	-1.9292	-2.5208	-2.0604	-2.4021	408.647	432.766	206.144	385.706	122.787	472.848	211.876	134.182	375.478	344.937	432.017	340.905	371.122	197.948	378.778	442.529	0.00020101	0.001133	0.00026261	212	1.7065e-06	3.6918e-06	405.88	58.24	7.6028e-07	4.7995e-06	130.71	62.815	26.179	8.7867	4.6949e-06	22.202	0.0023444	0.0027939	0.00077523	237.93	2.9877e-05	3.0598e-05	427.84	67.694	2.9632e-05	3.0294e-05	147.07	66.934	31.451	10.604	2.9355e-05	24.452	265.235	269.858	271.311	126.253	292.283	166.861	125.478	133.296	400.638	295.106	131.232	136.370	138.698	144.011	184.914	140.814	-8191	255	
1433.200	1	1	0	0	0.11314	0.30162	0.16353	0.1329	0.23508	0.23712	0.2612	0.18888	0.071883	0.049576	0.19621	0.10421	0.2984	0.25624	0.36016	0.2355	-1.8146	-1.7958	-2.1708	-2.0542	-2.1229	-2.5604	-2.0479	-2.0458	-2.2792	-2.1	-2.4188	-2.2854	-2.0042	-2.3083	-2.0021	-1.9542	127.622	454.456	257.406	332.825	230.546	142.247	239.377	326.094	363.863	164.762	274.400	283.936	457.185	307.392	173.975	280.332	0.00023704	0.00035332	0.00013134	212.25	5.5422e-06	6.4652e-06	406.09	58.68	7.6824e-07	5.5484e-06	129.53	62.7	26.484	8.6883	4.1104e-06	22.1	0.0022893	0.0027188	0.00076619	236.17	2.8916e-05	2.9817e-05	425.28	67.453	2.8891e-05	2.9657e-05	146.57	66.857	31.443	10.519	2.8951e-05	24.32	246.558	473.294	308.885	126.021	419.306	368.417	125.812	133.439	188.702	177.098	131.691	136.709	139.245	144.074	307.357	140.990	-8191	255	
1433.273	1	1	0	0	0.089107	0.14233	0.15637	0.14339	0.29824	0.29434	0.30295	0.13434	0.08325	0.20429	0.29283	0.27703	0.060716	0.090158	0.27288	0.10612	-1.8896	-1.9646	-2.125	-2.3312	-1.875	-2.3563	-2.0542	-2.1042	-2.5104	-2.1292	-2.1937	-2.3333	-2.0187	-2.3	-2.1458	-2.2562	424.774	170.331	282.172	341.107	310.914	307.365	426.415	286.526	317.053	269.150	163.195	283.083	229.855	377.450	367.217	297.685	0.00022806	0.00024339	0.00014837	209.97	1.1246e-05	1.6503e-05	404.47	57.503	1.3065e-06	7.6613e-06	130.08	62.447	25.929	8.7221	2.7404e-06	22.274	0.002257	0.0027006	0.00075788	235.87	2.8557e-05	2.9394e-05	425.06	67.118	2.8341e-05	2.938e-05	146.62	66.74	31.267	10.554	2.8989e-05	24.389	260.221	213.800	162.581	126.087	380.043	231.417	126.096	133.116	135.952	310.296	131.640	136.075	138.725	144.160	445.160	140.858	-8191	255	
1433.392	1	1	0	0	0.20781	0.14532	0.2159	0.31064	0.12058	0.10771	0.30511	0.09328	0.22432	0.21024	0.20573	0.24896	0.13335	0.095431	0.315	0.29493	-1.7917	-2.0958	-2.1188	-2.1979	-1.725	-2.2708	-2.1333	-1.9354	-2.4604	-2.1188	-2.2833	-2.3521	-1.9188	-2.3167	-2.1771	-2.0146	359.309	337.011	122.375	411.226	466.957	234.298	428.733	334.209	219.709	137.261	199.246	299.671	116.392	238.866	217.349	437.883	0.0001965	0.00030591	8.3403e-05	211.84	7.6371e-06	4.5111e-06	402.34	58.255	2.8722e-06	6.3743e-06	129.1	62.716	26.312	8.5513	8.495e-06	21.873	0.0022488	0.0026968	0.00075589	235.95	2.8726e-05	2.9624e-05	423.98	67.621	2.8793e-05	2.9553e-05	146.78	66.874	31.279	10.444	2.9037e-05	24.192	237.306	118.498	317.378	126.595	169.485	279.024	126.267	133.610	237.809	239.569	131.736	136.535	138.596	144.396	228.068	141.293	-8191	255	
