BOXY.EXE: ISS Imagent and Oximeter Data Acquisition Program Version 0.80
Ascii Record File

#ACQ INFORMATION
2  Detector Channels 
16  External MUX Channels 
1  Auxiliary Channels 
5000  Waveform (CCF) Frequency (Hz)
1  Waveforms Skipped 
30  Waveforms Averaged 
1  Cycles Averaged 
16  Acquisitions per Waveform 
10.0806  Updata Rate (Hz) 

#FILE INFORMATION
TRUE -- External MUX Channel results are PARSED.
FALSE -- AC DC and Phase are NOT grouped.
TRUE -- Companion Program Settings File CREATED.
FALSE -- AC data not excluded
FALSE -- DC data not excluded
FALSE -- Phase data not excluded
FALSE -- Auxillary Chn. data not excluded
Tab delimiters

#CALIBRATION STATE
TRUE -- Waveform Calibration Values APPLIED.


#AUX CALIBRATION VALUES
Val Type	aux-1	

Term	1.0000e+00	
Factor	0.0000e+00	


#WF CALIBRATION VALUES
A = Detector Channel
Val Type	A-AC1	A-AC2	A-AC3	A-AC4	A-AC5	A-AC6	A-AC7	A-AC8	A-AC9	A-AC10	A-AC11	A-AC12	A-AC13	A-AC14	A-AC15	A-AC16	A-DC1	A-DC2	A-DC3	A-DC4	A-DC5	A-DC6	A-DC7	A-DC8	A-DC9	A-DC10	A-DC11	A-DC12	A-DC13	A-DC14	A-DC15	A-DC16	A-Ph1	A-Ph2	A-Ph3	A-Ph4	A-Ph5	A-Ph6	A-Ph7	A-Ph8	A-Ph9	A-Ph10	A-Ph11	A-Ph12	A-Ph13	A-Ph14	A-Ph15	A-Ph16	

Term	0.00000e+00	0.00000e+00	0.00000e+00	0.00000e+00	0.00000e+00	0.00000e+00	0.00000e+00	0.00000e+00	0.00000e+00	0.00000e+00	0.00000e+00	0.00000e+00	0.00000e+00	0.00000e+00	0.00000e+00	0.00000e+00	0.00000e+00	0.00000e+00	0.00000e+00	0.00000e+00	0.00000e+00	0.00000e+00	0.00000e+00	0.00000e+00	0.00000e+00	0.00000e+00	0.00000e+00	0.00000e+00	0.00000e+00	0.00000e+00	0.00000e+00	0.00000e+00	0.00000e+00	0.00000e+00	0.00000e+00	0.00000e+00	0.00000e+00	0.00000e+00	0.00000e+00	0.00000e+00	0.00000e+00	0.00000e+00	0.00000e+00	0.00000e+00	0.00000e+00	0.00000e+00	0.00000e+00	0.00000e+00	
Factor	1.00000e+00	1.00000e+00	1.00000e+00	1.00000e+00	1.00000e+00	1.00000e+00	1.00000e+00	1.00000e+00	1.00000e+00	1.00000e+00	1.00000e+00	1.00000e+00	1.00000e+00	1.00000e+00	1.00000e+00	1.00000e+00	1.00000e+00	1.00000e+00	1.00000e+00	1.00000e+00	1.00000e+00	1.00000e+00	1.00000e+00	1.00000e+00	1.00000e+00	1.00000e+00	1.00000e+00	1.00000e+00	1.00000e+00	1.00000e+00	1.00000e+00	1.00000e+00	X	X	X	X	X	X	X	X	X	X	X	X	X	X	X	X	

B = Detector Channel
Val Type	B-AC1	B-AC2	B-AC3	B-AC4	B-AC5	B-AC6	B-AC7	B-AC8	B-AC9	B-AC10	B-AC11	B-AC12	B-AC13	B-AC14	B-AC15	B-AC16	B-DC1	B-DC2	B-DC3	B-DC4	B-DC5	B-DC6	B-DC7	B-DC8	B-DC9	B-DC10	B-DC11	B-DC12	B-DC13	B-DC14	B-DC15	B-DC16	B-Ph1	B-Ph2	B-Ph3	B-Ph4	B-Ph5	B-Ph6	B-Ph7	B-Ph8	B-Ph9	B-Ph10	B-Ph11	B-Ph12	B-Ph13	B-Ph14	B-Ph15	B-Ph16	

Term	0.00000e+00	0.00000e+00	0.00000e+00	0.00000e+00	0.00000e+00	0.00000e+00	0.00000e+00	0.00000e+00	0.00000e+00	0.00000e+00	0.00000e+00	0.00000e+00	0.00000e+00	0.00000e+00	0.00000e+00	0.00000e+00	0.00000e+00	0.00000e+00	0.00000e+00	0.00000e+00	0.00000e+00	0.00000e+00	0.00000e+00	0.00000e+00	0.00000e+00	0.00000e+00	0.00000e+00	0.00000e+00	0.00000e+00	0.00000e+00	0.00000e+00	0.00000e+00	-6.59245e+01	-1.24734e+02	-1.31290e+02	-1.83070e+02	-4.71720e+01	-6.49150e+01	-1.56663e+02	-1.62015e+02	-3.94459e+01	-6.42214e+01	-1.71114e+02	-1.71480e+02	-1.80686e+02	-1.76770e+02	-5.03157e+01	-1.49850e+02	
Factor	1.94318e-05	1.90944e-04	4.49887e-05	1.63081e-01	1.59961e-06	1.69595e-06	1.94177e-01	5.42487e-02	1.28390e-06	1.65075e-06	1.08414e-01	3.13847e-02	2.95052e-02	9.61121e-03	1.53840e-06	1.41149e-02	5.54059e-06	6.76180e-06	1.88700e-06	8.26207e-02	7.18682e-08	7.45135e-08	9.21061e-02	2.75920e-02	7.18242e-08	7.41166e-08	5.30887e-02	1.54427e-02	1.51454e-02	4.92050e-03	7.23774e-08	6.95805e-03	X	X	X	X	X	X	X	X	X	X	X	X	X	X	X	X	



#DISTANCE SETTINGS
A = Detector Channel
A-1	A-2	A-3	A-4	A-5	A-6	A-7	A-8	A-9	A-10	A-11	A-12	A-13	A-14	A-15	A-16	

2.5000e+00	3.0000e+00	2.5000e+00	3.0000e+00	2.0000e+00	3.0000e+00	1.5000e+00	3.0000e+00	3.0000e+00	3.0000e+00	3.0000e+00	3.0000e+00	3.0000e+00	3.0000e+00	1.5000e+00	3.0000e+00	

B = Detector Channel
B-1	B-2	B-3	B-4	B-5	B-6	B-7	B-8	B-9	B-10	B-11	B-12	B-13	B-14	B-15	B-16	

1.0000e+01	1.0000e+01	1.0000e+01	1.4400e+00	1.0000e+01	1.0000e+01	1.5100e+00	1.9400e+00	1.0000e+01	1.0000e+01	1.9900e+00	2.4900e+00	2.4100e+00	2.9000e+00	1.0000e+01	2.9800e+00	




#DATA BEGINS
time	group	step	mark	flag	A-AC1	A-AC2	A-AC3	A-AC4	A-AC5	A-AC6	A-AC7	A-AC8	A-AC9	A-AC10	A-AC11	A-AC12	A-AC13	A-AC14	A-AC15	A-AC16	A-DC1	A-DC2	A-DC3	A-DC4	A-DC5	A-DC6	A-DC7	A-DC8	A-DC9	A-DC10	A-DC11	A-DC12	A-DC13	A-DC14	A-DC15	A-DC16	A-Ph1	A-Ph2	A-Ph3	A-Ph4	A-Ph5	A-Ph6	A-Ph7	A-Ph8	A-Ph9	A-Ph10	A-Ph11	A-Ph12	A-Ph13	A-Ph14	A-Ph15	A-Ph16	B-AC1	B-AC2	B-AC3	B-AC4	B-AC5	B-AC6	B-AC7	B-AC8	B-AC9	B-AC10	B-AC11	B-AC12	B-AC13	B-AC14	B-AC15	B-AC16	B-DC1	B-DC2	B-DC3	B-DC4	B-DC5	B-DC6	B-DC7	B-DC8	B-DC9	B-DC10	B-DC11	B-DC12	B-DC13	B-DC14	B-DC15	B-DC16	B-Ph1	B-Ph2	B-Ph3	B-Ph4	B-Ph5	B-Ph6	B-Ph7	B-Ph8	B-Ph9	B-Ph10	B-Ph11	B-Ph12	B-Ph13	B-Ph14	B-Ph15	B-Ph16	aux-1	digaux	

1283.947	1	1	0	256	0.16283	0.052728	0.2651	0.31813	0.14496	0.17701	0.27852	0.38103	0.14988	0.081632	0.14713	0.24058	0.17144	0.31946	0.075655	0.15074	-2.1875	-2.2042	-2.4833	-2.5312	-2.2708	-2.7167	-2.6229	-2.2792	-2.6667	-2.4729	-2.3937	-2.6958	-2.3625	-2.4833	-2.5812	-2.4062	133.467	400.891	340.215	309.381	271.383	111.331	394.335	401.335	398.941	272.384	75.656	391.988	367.357	381.770	294.035	97.636	0.00057351	0.00046121	0.00011127	571.27	2.4915e-06	7.3826e-06	827.03	192.77	8.1154e-06	3.3401e-06	327.11	147.09	79	30.664	6.1939e-06	67.555	0.00064436	0.00063944	0.00017764	557.57	6.8917e-06	6.9415e-06	803.76	189.72	6.7898e-06	7.052e-06	321.44	145.06	77.995	30.512	6.7284e-06	66.159	226.939	156.942	157.075	83.590	219.797	168.527	83.972	89.739	262.462	176.852	88.992	94.022	95.867	99.989	229.905	97.542	-8191	255	
1284.067	1	1	0	0	0.028496	0.25382	0.17572	0.3675	0.32041	0.19422	0.1204	0.19193	0.030792	0.19171	0.25171	0.12723	0.10929	0.23296	0.060349	0.24225	-2.1646	-2.5167	-2.2625	-2.8271	-2.3729	-2.4104	-2.525	-2.3521	-2.6771	-2.3125	-2.2854	-2.8604	-2.2104	-2.5875	-2.7104	-2.4062	240.889	345.555	321.103	381.810	237.576	382.041	223.265	350.243	311.934	241.832	112.023	320.333	234.371	78.430	378.454	406.814	0.0005462	0.00088223	0.00019585	566.15	3.6099e-06	3.8786e-06	830.11	190.42	4.8558e-06	4.6802e-06	325.64	145.83	77.874	30.215	3.7106e-06	66.786	0.00064721	0.00063169	0.00017398	555.11	6.5881e-06	6.8226e-06	803.49	187.81	6.5951e-06	6.7923e-06	318.34	143.29	76.962	30.249	6.6752e-06	65.573	230.676	154.623	193.025	83.962	219.041	287.609	84.036	89.636	206.861	191.879	88.640	94.026	95.711	99.738	260.582	97.568	-8191	255	
1284.163	1	1	0	0	0.18575	0.11781	0.098598	0.079416	0.072594	0.098909	0.18939	0.34482	0.34829	0.10765	0.16454	0.10426	0.093001	0.21994	0.14854	0.185	-2.075	-2.4604	-2.2896	-2.7208	-2.3479	-2.6312	-2.5479	-2.3875	-2.7042	-2.5854	-2.4375	-2.7708	-2.4917	-2.5271	-2.5875	-2.4208	212.781	305.687	182.636	348.272	301.874	187.067	390.232	348.805	275.509	264.404	377.122	121.699	408.979	72.897	267.831	420.665	0.00055293	0.00055465	0.00011126	567.95	7.7373e-06	2.0478e-06	825.86	194.87	2.462e-06	7.7428e-06	329.31	148.8	80.917	31.282	5.2482e-06	68.424	0.0006275	0.00062771	0.0001738	556.63	6.6134e-06	6.7498e-06	801.95	190.92	6.742e-06	6.7514e-06	322.24	147.02	79.73	31.219	6.8009e-06	67.396	220.122	191.682	130.669	83.960	261.392	217.128	83.933	89.825	263.910	245.408	88.543	93.910	96.168	100.054	265.457	97.713	-8191	255	
1284.259	1	1	0	0	0.059803	0.16761	0.094724	0.053991	0.035348	0.17841	0.14575	0.073092	0.10499	0.22036	0.1555	0.16361	0.035983	0.22276	0.078364	0.2197	-1.9417	-2.5646	-2.1979	-2.6375	-2.3771	-2.325	-2.8479	-2.2833	-2.6167	-2.7479	-2.4458	-2.8375	-2.5396	-2.325	-2.6958	-2.5042	378.932	307.887	194.255	234.804	384.739	258.414	111.968	309.924	335.249	335.855	396.542	399.959	276.403	427.785	206.505	406.409	0.00061981	0.00089821	0.00010013	568.29	6.5913e-06	5.4297e-06	825.7	195.44	2.986e-06	4.5993e-06	334.02	153.14	83.051	32.078	3.4268e-06	70.285	0.0006386	0.00063068	0.0001752	556.62	6.8764e-06	6.7705e-06	803.97	192.72	6.7497e-06	6.7851e-06	326.97	150.21	81.611	32.004	6.7735e-06	69.101	228.996	187.929	139.773	83.692	240.221	235.119	84.156	89.687	213.095	215.918	88.779	93.677	95.475	99.777	217.109	97.718	-8191	255	
1284.356	1	1	0	0	0.10901	0.22464	0.18075	0.24298	0.26449	0.14149	0.26913	0.07928	0.15474	0.24283	0.17673	0.064581	0.077133	0.13107	0.21152	0.12905	-2.0896	-2.4229	-2.3604	-2.7125	-2.4875	-2.3875	-2.7479	-2.4271	-2.5271	-2.7854	-2.3396	-2.8271	-2.5375	-2.2583	-2.7333	-2.3563	72.199	277.894	183.997	90.665	287.005	230.257	431.662	416.038	196.244	411.536	372.685	416.227	402.898	183.260	364.891	423.526	0.00055759	0.00088472	0.00015287	576.6	9.2641e-06	2.0025e-06	828.17	197.47	4.1048e-06	4.1962e-06	335.48	154.42	82.901	32.205	7.7793e-06	70.016	0.00064441	0.00062919	0.00017386	560.89	6.7818e-06	6.9765e-06	806.46	194.49	6.7699e-06	6.8671e-06	329.22	151.74	82.149	32.134	6.6733e-06	68.921	229.404	161.645	185.671	83.843	253.525	164.256	84.078	89.919	234.266	237.148	88.626	93.788	95.690	99.799	247.095	97.872	-8191	255	
1284.474	1	1	0	0	0.1809	0.091293	0.03649	0.16942	0.051475	0.13354	0.17801	0.19557	0.028537	0.28866	0.090434	0.26239	0.02031	0.31991	0.035677	0.28075	-1.9458	-2.7375	-2.3521	-2.7229	-2.5958	-2.4292	-2.6875	-2.4	-2.4583	-2.6354	-2.1854	-2.5125	-2.45	-2.1708	-2.7396	-2.6063	263.426	196.656	348.512	259.100	79.434	131.295	395.317	262.944	288.202	422.195	344.707	150.691	143.674	409.809	89.706	81.223	0.0006355	0.00061651	5.9205e-05	565.45	5.314e-06	5.9621e-06	826.65	197.58	6.5279e-06	1.9922e-06	332.04	154.61	82.879	32.073	2.9523e-06	69.593	0.00065311	0.00063003	0.00017511	555.86	6.7409e-06	6.8937e-06	803.42	194.04	6.8544e-06	6.8427e-06	326.25	151.36	81.978	32.027	6.6842e-06	68.399	228.855	176.806	143.425	83.931	241.324	265.301	83.973	89.922	260.579	272.231	88.407	94.008	95.822	99.636	268.628	97.629	-8191	255	
1284.571	1	1	0	0	0.11099	0.12894	0.34752	0.1041	0.095229	0.10941	0.15838	0.18251	0.19259	0.097439	0.1567	0.13785	0.28362	0.11391	0.35261	0.13445	-1.8292	-2.5125	-2.1771	-2.6479	-2.4813	-2.4062	-2.5625	-2.3708	-2.3563	-2.6708	-2.4479	-2.4896	-2.4437	-2.1813	-2.5521	-2.5667	135.740	177.352	86.121	351.006	384.390	397.609	269.692	429.322	222.215	137.195	77.151	319.735	335.611	289.836	328.218	383.600	0.00061192	0.00089054	0.00019699	567.43	4.3524e-06	4.4842e-06	821.42	193.18	3.3523e-06	5.7558e-06	327.1	148.56	79.398	30.523	2.9638e-06	66.767	0.00063869	0.00061248	0.00017192	555.18	6.5104e-06	6.6019e-06	802.78	190.22	6.5275e-06	6.523e-06	321.47	145.71	78.284	30.48	6.3262e-06	65.718	230.214	169.512	191.869	84.043	284.709	194.504	83.879	90.217	253.875	234.158	88.692	93.815	95.898	99.995	207.372	97.706	-8191	255	
1284.642	1	1	0	0	0.051668	0.24686	0.27627	0.080673	0.10968	0.15153	0.25278	0.14966	0.1421	0.29776	0.29045	0.11552	0.089609	0.1521	0.23676	0.21111	-1.8646	-2.5354	-2.2708	-2.4146	-2.5646	-2.275	-2.5604	-2.5479	-2.4708	-2.7708	-2.4417	-2.6333	-2.7396	-2.2438	-2.4333	-2.6271	216.241	214.647	394.068	363.867	380.737	200.259	301.549	104.461	316.044	344.009	400.336	374.715	213.067	324.779	380.436	397.343	0.00055908	0.00075045	0.00019728	566.79	5.7644e-06	4.5935e-06	820.12	189.74	5.0238e-06	6.7357e-06	324.8	146.84	78.303	30.137	5.0229e-06	66.753	0.00060304	0.00058943	0.00016496	554.61	6.2304e-06	6.5403e-06	801	186.99	6.3349e-06	6.2977e-06	317.78	143.81	77.06	30.173	6.3118e-06	65.632	230.676	168.419	172.320	83.868	212.780	187.905	84.067	90.236	254.870	246.736	88.762	94.043	95.755	99.917	225.867	98.026	-8191	255	
1284.740	1	1	0	0	0.12927	0.28353	0.097495	0.32417	0.11751	0.24741	0.26098	0.0050343	0.21077	0.088534	0.20507	0.23967	0.16861	0.25697	0.12273	0.13278	-1.7771	-2.5563	-2.4604	-2.6021	-2.5667	-2.4417	-2.8979	-2.7146	-2.1375	-2.6125	-2.3812	-2.3167	-2.575	-2.2708	-2.5083	-2.6937	383.294	390.111	305.789	390.402	409.884	301.153	405.232	89.111	316.444	102.282	360.822	402.830	329.467	79.867	179.358	321.018	0.00058058	0.00054088	0.00013787	566.42	6.0587e-06	3.8254e-06	823.36	190.71	4.7598e-06	6.4949e-06	323.69	146.04	77.965	30.297	6.8523e-07	66.556	0.00061386	0.00058666	0.00016609	555.85	6.176e-06	6.4667e-06	802.38	187.48	6.3166e-06	6.4015e-06	317.13	143.66	77.059	30.187	6.2888e-06	65.376	230.279	173.337	219.673	83.663	258.922	194.956	84.058	90.090	255.335	192.456	88.751	93.942	95.594	99.698	228.510	97.926	-8191	255	
1284.859	1	1	0	0	0.0984	0.13842	0.11203	0.18967	0.23102	0.28049	0.082164	0.33111	0.10072	0.10821	0.059585	0.32373	0.17651	0.267	0.23344	0.13779	-1.7583	-2.4104	-2.1375	-2.2458	-2.4813	-2.3083	-2.4813	-2.6333	-2.1708	-2.6104	-2.4958	-2.2792	-2.7167	-2.4146	-2.5333	-2.7021	130.629	387.589	344.463	71.980	406.799	327.438	233.546	424.848	413.998	365.157	271.270	339.947	229.295	364.905	364.828	176.701	0.00059384	0.00060393	0.00024759	562.73	1.9031e-06	7.4213e-06	818.11	189.43	2.0666e-06	4.3001e-06	323.14	145.89	78.284	30.22	5.3635e-06	66.422	0.00060272	0.0005786	0.00016405	553.14	6.2808e-06	6.5729e-06	797.64	186.82	6.4257e-06	6.2843e-06	316.65	143.24	77.028	30.111	6.2076e-06	65.179	226.968	227.103	138.311	83.955	254.041	238.687	83.905	89.832	229.548	167.233	88.633	93.996	95.939	99.971	231.310	97.810	-8191	255	
1284.955	1	1	0	0	0.12349	0.18966	0.1029	0.14923	0.053876	0.08739	0.25909	0.15625	0.12455	0.17569	0.1023	0.31296	0.073968	0.26029	0.12912	0.086385	-1.7083	-2.5625	-2.4604	-2.4021	-2.7687	-2.2604	-2.3396	-2.8	-2.1458	-2.4813	-2.4125	-2.4083	-2.5604	-2.3167	-2.3333	-2.8146	323.860	112.777	266.241	286.086	199.343	394.074	403.495	424.806	121.789	123.561	196.537	105.989	322.127	385.411	393.326	379.901	0.00051203	0.00068021	0.00028068	568.72	4.3162e-06	5.8329e-06	814.09	190.76	4.3934e-06	8.1315e-06	323.05	146.04	78.589	30.568	1.0183e-06	67.095	0.00059699	0.00057961	0.00016326	553.52	6.2153e-06	6.517e-06	794.54	186.91	6.1679e-06	6.3728e-06	316.61	143.6	77.545	30.49	6.3881e-06	66.037	230.354	169.118	136.288	83.931	260.988	208.620	83.966	89.877	251.396	197.655	88.632	93.767	95.671	99.832	315.276	97.594	-8191	255	
1285.051	1	1	0	0	0.19095	0.18518	0.14416	0.16707	0.096657	0.037445	0.35166	0.2045	0.040171	0.33757	0.064067	0.12716	0.010078	0.11759	0.04659	0.24719	-1.8083	-2.6417	-2.5604	-2.2	-2.6604	-2.3125	-2.4188	-2.6521	-2.2167	-2.5354	-2.6396	-2.4917	-2.7104	-2.3646	-2.4333	-2.8271	329.896	285.817	130.835	73.805	252.082	193.501	349.888	416.138	85.935	137.156	346.836	198.491	139.963	331.491	99.272	428.644	0.00054738	0.00087205	0.00014414	566.19	4.5036e-06	5.2512e-06	825.69	192.6	4.7281e-06	2.1324e-06	325.76	148.8	80.194	31.01	4.0073e-06	68.439	0.00061053	0.00060338	0.00016736	554.93	6.5352e-06	6.6863e-06	800.11	188.92	6.6366e-06	6.5831e-06	319.06	146.22	79.242	30.978	6.5432e-06	67.182	229.914	178.160	130.072	83.884	216.538	233.898	83.944	89.867	251.001	271.977	88.156	93.969	96.098	99.647	240.627	97.911	-8191	255	
1285.172	1	1	0	0	0.18916	0.061932	0.22098	0.29254	0.11061	0.24318	0.087561	0.25242	0.13188	0.1004	0.11101	0.21049	0.31475	0.22439	0.12927	0.37805	-1.8208	-2.35	-2.3021	-2.2208	-2.5375	-2.375	-2.4271	-2.7854	-2.3979	-2.4729	-2.7708	-2.4062	-2.5125	-2.3438	-2.1354	-2.6875	370.621	207.981	246.540	92.007	75.028	347.793	105.474	423.232	165.885	125.358	292.254	423.558	363.286	407.956	329.212	355.191	0.0006051	0.00023865	0.00016401	565.78	5.0033e-06	3.5681e-06	822.19	193.84	2.0984e-06	4.8084e-06	331.51	155.23	85.583	32.279	6.8395e-06	70.337	0.00063992	0.00061534	0.0001661	553.05	6.5166e-06	6.7369e-06	798.83	190.54	6.6895e-06	6.8654e-06	324.59	152.46	84.116	32.334	6.979e-06	69.345	227.979	146.562	162.590	83.871	242.930	242.817	84.218	90.139	274.660	267.143	88.520	93.828	95.622	99.732	249.884	97.821	-8191	255	
1285.244	1	1	0	0	0.18456	0.056643	0.19398	0.11771	0.088734	0.2225	0.10464	0.26804	0.13846	0.20545	0.22063	0.12975	0.16126	0.062323	0.15741	0.31437	-1.8896	-2.2792	-2.7292	-2.2	-2.4542	-2.5062	-2.4104	-2.5396	-2.5021	-2.375	-2.6625	-2.3417	-2.4875	-2.6188	-2.2188	-2.8063	400.829	242.943	141.841	392.071	278.738	364.709	295.140	232.576	406.577	399.834	392.736	105.408	414.315	341.496	429.753	372.510	0.00060202	0.00090847	0.00012296	562.63	6.561e-06	6.3982e-06	822.27	209.26	6.0639e-06	5.1439e-06	363.32	174.84	98.887	35.379	5.3826e-06	76.586	0.00068322	0.00067366	0.00019135	551.04	7.4839e-06	7.952e-06	799.32	205.7	8.1917e-06	8.5955e-06	357.05	172.09	98.127	35.373	9.4988e-06	75.585	230.546	160.852	110.490	83.985	229.641	179.796	84.100	90.050	250.046	239.133	88.723	93.396	95.119	99.494	297.396	97.273	-8191	255	
1285.340	1	1	0	0	0.12949	0.28004	0.26714	0.29157	0.30704	0.084276	0.10223	0.18956	0.076321	0.25906	0.11111	0.25889	0.058935	0.3718	0.26911	0.053264	-1.9542	-2.2708	-2.6312	-2.2958	-2.4896	-2.6708	-2.3312	-2.6396	-2.425	-2.3042	-2.6375	-2.4458	-2.425	-2.6312	-2.1417	-2.5625	420.193	356.428	379.420	404.476	422.296	176.574	127.588	341.047	256.938	393.784	263.471	378.638	179.196	353.380	119.986	239.915	0.00067433	0.00055088	0.00021352	562.96	7.2904e-06	2.8114e-06	826.75	238.07	9.0917e-06	7.0048e-06	401.47	186.96	106.66	36.105	9.4528e-06	79.124	0.00090256	0.00094262	0.00026851	555.37	1.0781e-05	1.1245e-05	808.66	235.68	1.1445e-05	1.1538e-05	396.98	184.75	106.08	36.567	1.1852e-05	78.026	229.302	129.667	153.141	83.901	235.018	309.791	84.172	89.948	264.949	190.998	88.480	93.541	94.902	99.416	244.900	97.426	-8191	255	
1285.460	1	1	0	0	0.24771	0.081012	0.35961	0.25798	0.087328	0.11823	0.17794	0.18074	0.11397	0.29149	0.249	0.057446	0.20477	0.088124	0.20645	0.30136	-1.8687	-2.2604	-2.5687	-2.3688	-2.4979	-2.7562	-2.1375	-2.625	-2.5667	-2.2583	-2.6708	-2.5917	-2.3146	-2.7458	-2.4188	-2.7583	166.566	136.792	331.337	110.495	152.049	169.161	326.103	405.973	184.255	209.878	301.659	268.866	420.438	269.597	229.342	89.527	0.00068643	0.00028837	0.00023558	566.35	8.3569e-06	7.5555e-06	829	240.01	2.9685e-06	4.1298e-06	396.56	183.35	104.03	35.379	7.0653e-06	76.526	0.0010657	0.0011046	0.00030733	557.09	1.2029e-05	1.2436e-05	811.53	236.86	1.2032e-05	1.208e-05	390.56	180.93	103.3	35.731	1.158e-05	75.64	230.120	164.016	131.387	83.853	253.227	239.830	84.531	89.840	253.966	203.462	88.554	93.493	95.213	99.770	237.721	97.356	-8191	255	
1285.555	1	1	0	0	0.092052	0.24387	0.14955	0.067177	0.15408	0.096265	0.29388	0.39371	0.25941	0.12388	0.088861	0.24571	0.13616	0.11204	0.0073633	0.14426	-1.9021	-2.1583	-2.6583	-2.4583	-2.2208	-2.7146	-2.3875	-2.7146	-2.5521	-2.2667	-2.6917	-2.5271	-2.4313	-2.8979	-2.3896	-2.4813	183.608	250.802	112.368	252.603	195.883	141.918	335.677	353.237	95.314	285.260	76.206	346.346	132.374	345.364	204.039	419.494	0.00063544	0.00028149	0.00022328	560.71	4.3589e-06	2.6836e-06	816.11	227.11	6.2096e-06	3.8864e-06	377.69	175.39	98.766	34.605	4.5471e-06	74.713	0.0010046	0.0010575	0.00029153	553.33	1.1041e-05	1.1307e-05	804.22	225.1	1.091e-05	1.0869e-05	371.75	172.69	97.986	34.815	1.0458e-05	73.536	226.366	155.767	192.300	83.987	246.286	282.703	84.447	89.859	271.136	261.689	88.586	93.331	95.133	99.448	223.135	97.466	-8191	255	
1285.651	1	1	0	0	0.17949	0.25718	0.14694	0.10884	0.24194	0.22843	0.25091	0.25965	0.084997	0.11216	0.15368	0.11965	0.28512	0.0055425	0.052261	0.20996	-1.9979	-2.3833	-2.6146	-2.3458	-2.2313	-2.675	-2.3312	-2.4083	-2.5	-2.1188	-2.5542	-2.6292	-2.3833	-2.5625	-2.275	-2.5583	213.006	371.664	94.529	369.854	355.005	312.783	304.037	258.947	269.931	395.319	324.134	413.090	421.741	405.727	183.075	350.199	0.00064658	9.9983e-05	0.00022841	559.04	4.2913e-06	7.4486e-06	816.29	218.11	5.363e-06	8.3106e-06	362.9	168.84	94.682	33.875	8.8038e-06	73.525	0.00092384	0.00095674	0.00026303	551.06	9.9311e-06	1.0206e-05	801.03	214.93	9.9774e-06	1.009e-05	357.81	166.63	94.309	34.127	9.6336e-06	72.631	222.781	212.651	162.230	84.365	283.821	211.401	83.996	90.169	277.211	229.258	88.444	93.358	95.477	99.421	264.231	97.337	-8191	255	
