BOXY.EXE: ISS Imagent and Oximeter Data Acquisition Program Version 0.80
Ascii Record File

#ACQ INFORMATION
2  Detector Channels 
16  External MUX Channels 
1  Auxiliary Channels 
5000  Waveform (CCF) Frequency (Hz)
1  Waveforms Skipped 
30  Waveforms Averaged 
1  Cycles Averaged 
16  Acquisitions per Waveform 
10.0806  Updata Rate (Hz) 

#FILE INFORMATION
TRUE -- External MUX Channel results are PARSED.
FALSE -- AC DC and Phase are NOT grouped.
TRUE -- Companion Program Settings File CREATED.
FALSE -- AC data not excluded
FALSE -- DC data not excluded
FALSE -- Phase data not excluded
FALSE -- Auxillary Chn. data not excluded
Tab delimiters

#CALIBRATION STATE
TRUE -- Waveform Calibration Values APPLIED.


#AUX CALIBRATION VALUES
Val Type	aux-1	

Term	1.0000e+00	
Factor	0.0000e+00	


#WF CALIBRATION VALUES
A = Detector Channel
Val Type	A-AC1	A-AC2	A-AC3	A-AC4	A-AC5	A-AC6	A-AC7	A-AC8	A-AC9	A-AC10	A-AC11	A-AC12	A-AC13	A-AC14	A-AC15	A-AC16	A-DC1	A-DC2	A-DC3	A-DC4	A-DC5	A-DC6	A-DC7	A-DC8	A-DC9	A-DC10	A-DC11	A-DC12	A-DC13	A-DC14	A-DC15	A-DC16	A-Ph1	A-Ph2	A-Ph3	A-Ph4	A-Ph5	A-Ph6	A-Ph7	A-Ph8	A-Ph9	A-Ph10	A-Ph11	A-Ph12	A-Ph13	A-Ph14	A-Ph15	A-Ph16	

Term	0.00000e+00	0.00000e+00	0.00000e+00	0.00000e+00	0.00000e+00	0.00000e+00	0.00000e+00	0.00000e+00	0.00000e+00	0.00000e+00	0.00000e+00	0.00000e+00	0.00000e+00	0.00000e+00	0.00000e+00	0.00000e+00	0.00000e+00	0.00000e+00	0.00000e+00	0.00000e+00	0.00000e+00	0.00000e+00	0.00000e+00	0.00000e+00	0.00000e+00	0.00000e+00	0.00000e+00	0.00000e+00	0.00000e+00	0.00000e+00	0.00000e+00	0.00000e+00	0.00000e+00	0.00000e+00	0.00000e+00	0.00000e+00	0.00000e+00	0.00000e+00	0.00000e+00	0.00000e+00	0.00000e+00	0.00000e+00	0.00000e+00	0.00000e+00	0.00000e+00	0.00000e+00	0.00000e+00	0.00000e+00	
Factor	1.00000e+00	1.00000e+00	1.00000e+00	1.00000e+00	1.00000e+00	1.00000e+00	1.00000e+00	1.00000e+00	1.00000e+00	1.00000e+00	1.00000e+00	1.00000e+00	1.00000e+00	1.00000e+00	1.00000e+00	1.00000e+00	1.00000e+00	1.00000e+00	1.00000e+00	1.00000e+00	1.00000e+00	1.00000e+00	1.00000e+00	1.00000e+00	1.00000e+00	1.00000e+00	1.00000e+00	1.00000e+00	1.00000e+00	1.00000e+00	1.00000e+00	1.00000e+00	X	X	X	X	X	X	X	X	X	X	X	X	X	X	X	X	

B = Detector Channel
Val Type	B-AC1	B-AC2	B-AC3	B-AC4	B-AC5	B-AC6	B-AC7	B-AC8	B-AC9	B-AC10	B-AC11	B-AC12	B-AC13	B-AC14	B-AC15	B-AC16	B-DC1	B-DC2	B-DC3	B-DC4	B-DC5	B-DC6	B-DC7	B-DC8	B-DC9	B-DC10	B-DC11	B-DC12	B-DC13	B-DC14	B-DC15	B-DC16	B-Ph1	B-Ph2	B-Ph3	B-Ph4	B-Ph5	B-Ph6	B-Ph7	B-Ph8	B-Ph9	B-Ph10	B-Ph11	B-Ph12	B-Ph13	B-Ph14	B-Ph15	B-Ph16	

Term	0.00000e+00	0.00000e+00	0.00000e+00	0.00000e+00	0.00000e+00	0.00000e+00	0.00000e+00	0.00000e+00	0.00000e+00	0.00000e+00	0.00000e+00	0.00000e+00	0.00000e+00	0.00000e+00	0.00000e+00	0.00000e+00	0.00000e+00	0.00000e+00	0.00000e+00	0.00000e+00	0.00000e+00	0.00000e+00	0.00000e+00	0.00000e+00	0.00000e+00	0.00000e+00	0.00000e+00	0.00000e+00	0.00000e+00	0.00000e+00	0.00000e+00	0.00000e+00	-6.59245e+01	-1.24734e+02	-1.31290e+02	-1.83070e+02	-4.71720e+01	-6.49150e+01	-1.56663e+02	-1.62015e+02	-3.94459e+01	-6.42214e+01	-1.71114e+02	-1.71480e+02	-1.80686e+02	-1.76770e+02	-5.03157e+01	-1.49850e+02	
Factor	1.94318e-05	1.90944e-04	4.49887e-05	1.63081e-01	1.59961e-06	1.69595e-06	1.94177e-01	5.42487e-02	1.28390e-06	1.65075e-06	1.08414e-01	3.13847e-02	2.95052e-02	9.61121e-03	1.53840e-06	1.41149e-02	5.54059e-06	6.76180e-06	1.88700e-06	8.26207e-02	7.18682e-08	7.45135e-08	9.21061e-02	2.75920e-02	7.18242e-08	7.41166e-08	5.30887e-02	1.54427e-02	1.51454e-02	4.92050e-03	7.23774e-08	6.95805e-03	X	X	X	X	X	X	X	X	X	X	X	X	X	X	X	X	



#DISTANCE SETTINGS
A = Detector Channel
A-1	A-2	A-3	A-4	A-5	A-6	A-7	A-8	A-9	A-10	A-11	A-12	A-13	A-14	A-15	A-16	

2.5000e+00	3.0000e+00	2.5000e+00	3.0000e+00	2.0000e+00	3.0000e+00	1.5000e+00	3.0000e+00	3.0000e+00	3.0000e+00	3.0000e+00	3.0000e+00	3.0000e+00	3.0000e+00	1.5000e+00	3.0000e+00	

B = Detector Channel
B-1	B-2	B-3	B-4	B-5	B-6	B-7	B-8	B-9	B-10	B-11	B-12	B-13	B-14	B-15	B-16	

1.0000e+01	1.0000e+01	1.0000e+01	1.4400e+00	1.0000e+01	1.0000e+01	1.5100e+00	1.9400e+00	1.0000e+01	1.0000e+01	1.9900e+00	2.4900e+00	2.4100e+00	2.9000e+00	1.0000e+01	2.9800e+00	




#DATA BEGINS
time	group	step	mark	flag	A-AC1	A-AC2	A-AC3	A-AC4	A-AC5	A-AC6	A-AC7	A-AC8	A-AC9	A-AC10	A-AC11	A-AC12	A-AC13	A-AC14	A-AC15	A-AC16	A-DC1	A-DC2	A-DC3	A-DC4	A-DC5	A-DC6	A-DC7	A-DC8	A-DC9	A-DC10	A-DC11	A-DC12	A-DC13	A-DC14	A-DC15	A-DC16	A-Ph1	A-Ph2	A-Ph3	A-Ph4	A-Ph5	A-Ph6	A-Ph7	A-Ph8	A-Ph9	A-Ph10	A-Ph11	A-Ph12	A-Ph13	A-Ph14	A-Ph15	A-Ph16	B-AC1	B-AC2	B-AC3	B-AC4	B-AC5	B-AC6	B-AC7	B-AC8	B-AC9	B-AC10	B-AC11	B-AC12	B-AC13	B-AC14	B-AC15	B-AC16	B-DC1	B-DC2	B-DC3	B-DC4	B-DC5	B-DC6	B-DC7	B-DC8	B-DC9	B-DC10	B-DC11	B-DC12	B-DC13	B-DC14	B-DC15	B-DC16	B-Ph1	B-Ph2	B-Ph3	B-Ph4	B-Ph5	B-Ph6	B-Ph7	B-Ph8	B-Ph9	B-Ph10	B-Ph11	B-Ph12	B-Ph13	B-Ph14	B-Ph15	B-Ph16	aux-1	digaux	

1577.684	1	1	0	512	0.063457	0.15515	0.10998	0.37029	0.14061	0.1393	0.37194	0.24873	0.091614	0.26132	0.19086	0.13263	0.39809	0.24694	0.096518	0.1695	-1.7563	-2.2646	-2.2021	-1.9688	-2.5354	-2.2917	-2.1375	-2.5312	-2.3396	-2.3187	-2.3792	-2.2438	-2.2792	-2.3271	-1.9062	-2.5563	47.341	13.753	224.650	305.103	157.383	47.870	268.186	303.662	84.120	5.582	175.424	291.917	273.969	210.604	134.352	212.869	0.00011397	0.00041005	0.00014766	430.11	4.2388e-06	4.7505e-06	1085.1	157.05	1.433e-06	4.4063e-06	364.2	152.42	57.616	12.933	3.297e-06	36.58	0.00018493	0.00016678	4.583e-05	395.87	1.8085e-06	1.8077e-06	1000	145.82	1.8884e-06	1.8341e-06	336.96	142.24	53.881	12.26	1.8878e-06	34.209	203.647	82.215	39.572	-26.945	126.362	119.419	-26.884	-24.886	191.554	112.332	-25.779	-24.411	-22.919	-21.432	98.180	-22.777	-8191	255	
1577.780	1	1	0	0	0.32871	0.12244	0.12005	0.24608	0.12394	0.11755	0.29353	0.36855	0.06594	0.088576	0.20752	0.063437	0.16193	0.1732	0.13614	0.12686	-1.8167	-2.25	-2.5667	-2.1312	-2.4188	-2.4083	-2.0521	-2.4021	-2.3604	-2.0625	-2.5812	-2.2104	-2.1562	-2.4062	-2.0354	-2.4938	130.531	195.457	279.829	270.647	-41.261	172.947	230.110	222.857	84.314	-6.128	299.181	236.381	275.221	149.823	189.893	-27.646	9.5536e-05	0.00063261	0.00010743	424.25	3.3033e-06	3.8219e-06	1082	155.37	1.0394e-06	2.4976e-06	360.58	152.18	57.384	13.103	1.6555e-06	36.408	0.00017563	0.00016685	4.7938e-05	392.18	1.7615e-06	1.7967e-06	998.06	144.83	1.9229e-06	1.8262e-06	334.05	141.72	53.912	12.279	1.8921e-06	34.12	206.021	31.377	49.014	-26.566	114.365	112.613	-27.236	-24.393	118.214	133.118	-25.844	-24.147	-23.104	-22.016	133.593	-22.633	-8191	255	
1577.874	1	1	0	0	0.13694	0.051507	0.17323	0.23693	0.35318	0.20527	0.18297	0.068117	0.35093	0.35231	0.27709	0.247	0.22208	0.14938	0.047085	0.19467	-1.8	-2.1208	-2.5312	-2.0125	-2.3708	-2.6271	-2.0667	-2.6771	-2.3208	-2.2812	-2.5208	-2.1917	-2.1208	-2.4688	-1.8979	-2.6604	24.097	48.059	310.864	-27.742	-0.853	280.342	273.968	125.835	279.361	115.388	262.436	-16.411	-14.585	134.681	-4.870	221.721	0.00010149	0.00031805	4.9812e-05	424.95	3.3413e-06	4.8957e-06	1075.2	155.83	2.6677e-06	4.0291e-06	362.1	150.58	57.089	12.908	4.4166e-06	36.486	0.00017224	0.00016337	4.6365e-05	392.55	1.871e-06	1.847e-06	993.1	144.62	1.8275e-06	1.8509e-06	334.96	140.63	53.573	12.198	1.855e-06	33.933	206.677	55.471	19.783	-26.884	149.004	127.061	-27.359	-24.298	143.560	88.637	-25.666	-24.374	-23.121	-22.250	118.473	-23.119	-8191	255	
1577.972	1	1	0	0	0.14413	0.063585	0.25913	0.25747	0.022873	0.042481	0.25024	0.106	0.20999	0.2367	0.024301	0.12836	0.36813	0.050634	0.12401	0.3082	-1.8396	-2.0354	-2.5625	-2.1771	-2.2812	-2.4062	-2.175	-2.3958	-2.5417	-2.2083	-2.5271	-2.2521	-2.0646	-2.525	-2.0021	-2.3479	-7.378	70.803	296.713	-28.975	239.904	305.857	275.559	267.875	-7.864	178.167	245.467	261.375	112.142	262.120	32.852	277.645	0.0001013	0.00034337	0.00011484	422.68	3.7474e-06	4.8599e-06	1076.8	155.57	2.3768e-06	6.3554e-06	359.96	151.15	57.062	12.862	4.0464e-06	36.089	0.00017636	0.00016971	4.813e-05	391.5	1.8472e-06	1.8392e-06	992.24	144.23	1.8134e-06	1.8097e-06	333.42	140.74	53.34	12.136	1.8174e-06	33.783	205.942	44.056	8.192	-26.988	121.632	71.726	-27.281	-24.536	153.415	86.860	-26.127	-24.487	-23.036	-21.824	121.955	-22.968	-8191	255	
1578.091	1	1	0	0	0.10159	0.33508	0.157	0.17431	0.07634	0.09458	0.21624	0.21326	0.25414	0.27667	0.35216	0.17002	0.16163	0.18273	0.21696	0.065498	-1.7792	-1.8188	-2.4437	-2.2792	-2.3104	-2.5771	-2.2917	-2.3063	-2.3708	-2.1021	-2.6042	-2.4562	-2.0104	-2.3833	-2.1021	-2.375	51.611	-10.515	168.531	-15.607	157.000	131.330	45.459	312.691	92.369	164.369	213.638	177.421	150.731	242.879	81.990	3.999	8.9257e-05	0.00035316	0.00010213	421.99	4.0349e-06	3.4603e-06	1078.8	153.89	2.6111e-06	3.6897e-06	361.18	151.61	56.21	13.062	4.0654e-06	36.264	0.00017451	0.00016276	4.6196e-05	390.59	1.7879e-06	1.7431e-06	991.44	143.43	1.8188e-06	1.8938e-06	333.6	140.88	53.135	12.19	1.8025e-06	33.759	227.367	106.301	29.074	-27.217	144.408	83.232	-27.375	-24.723	179.562	119.716	-25.877	-24.503	-22.998	-22.117	105.065	-23.012	-8191	255	
1578.163	1	1	0	0	0.18701	0.1445	0.065119	0.02959	0.20983	0.20643	0.070644	0.19413	0.22266	0.045491	0.082332	0.1296	0.14789	0.070755	0.11064	0.14393	-1.9083	-2.025	-2.3438	-2.3625	-1.9562	-2.4208	-2.3563	-2.3271	-2.5375	-1.9625	-2.4708	-2.4562	-2.0104	-2.2938	-2.0604	-2.2958	294.488	50.798	-4.185	23.568	48.777	77.760	211.309	178.306	171.559	121.320	118.901	160.993	42.562	92.601	12.793	123.520	0.00010651	0.00017369	8.6772e-05	424.61	3.0628e-06	3.3431e-06	1074.7	152.42	2.4307e-06	3.0698e-06	356.04	151.13	56.802	12.728	1.5651e-06	36.135	0.00016786	0.00015859	4.3869e-05	392.32	1.6928e-06	1.6252e-06	991.87	141.99	1.7543e-06	1.757e-06	329.22	141.17	53.251	11.969	1.722e-06	33.818	214.645	52.992	38.511	-26.684	158.011	127.990	-27.257	-24.600	119.271	89.146	-25.841	-24.380	-22.996	-21.659	90.366	-23.187	-8191	255	
1578.283	1	1	0	0	0.11809	0.26666	0.22223	0.1769	0.097879	0.16239	0.40929	0.32467	0.19776	0.14407	0.068033	0.087078	0.15221	0.23119	0.14985	0.11298	-1.8979	-1.8604	-2.3229	-2.3458	-1.9771	-2.3667	-2.25	-2.0875	-2.5458	-2.125	-2.5958	-2.4958	-2.0521	-2.5	-2.3125	-2.2875	297.313	170.220	218.646	40.923	241.481	217.106	231.687	300.861	169.381	135.240	43.810	-25.974	311.326	277.008	-1.361	241.437	7.0141e-05	0.00039947	7.8479e-05	428.43	3.611e-06	2.5003e-06	1074.8	152.53	1.2392e-06	3.371e-06	354.93	151.92	56.574	12.737	2.224e-06	36.21	0.0001628	0.00015901	4.3892e-05	394.04	1.6901e-06	1.6991e-06	993.15	141.52	1.6753e-06	1.7068e-06	327.7	141.93	53.385	11.836	1.6841e-06	33.773	215.661	70.838	72.069	-26.313	122.820	116.860	-27.038	-24.398	145.664	89.017	-25.956	-24.312	-22.946	-21.190	116.133	-23.237	-8191	255	
1578.380	1	1	0	0	0.12966	0.30437	0.12765	0.12004	0.068282	0.098839	0.25707	0.15526	0.0536	0.095869	0.12605	0.16586	0.26014	0.23722	0.17449	0.24138	-2.0438	-2.0687	-2.3292	-2.5208	-2.0271	-2.5375	-2.4083	-2.0875	-2.4625	-2.0771	-2.0938	-2.3875	-1.9854	-2.4417	-2.2521	-2.2104	138.568	31.583	135.048	61.866	186.189	316.659	-31.593	289.071	7.320	112.862	314.260	257.029	105.941	315.973	249.206	303.749	0.00012053	0.00034757	9.539e-05	425.85	2.9338e-06	5.312e-06	1077.9	152.12	3.4908e-06	4.8921e-06	353.15	152.86	57.009	12.652	1.7465e-06	36.171	0.00016787	0.00015321	4.3668e-05	394	1.7156e-06	1.6868e-06	992.37	141.76	1.7467e-06	1.6871e-06	328.58	142.06	53.422	11.819	1.7726e-06	33.635	196.356	59.829	43.353	-27.144	142.095	105.616	-27.389	-24.639	93.131	112.484	-25.650	-24.495	-22.922	-21.378	167.029	-22.956	-8191	255	
1578.476	1	1	0	0	0.16788	0.24216	0.14121	0.21663	0.2552	0.19614	0.32117	0.19736	0.19162	0.24918	0.15101	0.15535	0.21313	0.037392	0.073583	0.075669	-1.8604	-2.1792	-2.4083	-2.4292	-2.1125	-2.4604	-2.5167	-2.1979	-2.4229	-2.1708	-2.1625	-2.5875	-1.9542	-2.4979	-2.2208	-2.0708	201.148	95.036	15.988	148.275	-41.610	261.114	254.649	306.600	282.487	233.966	301.121	-29.201	-0.266	49.731	-7.545	40.769	0.00011425	0.00041699	0.00011306	424.77	2.2993e-06	1.2099e-06	1079.4	151.93	2.2968e-06	1.6781e-06	354.24	152	56.474	12.634	4.813e-06	35.9	0.00016271	0.00016723	4.2878e-05	393.14	1.7636e-06	1.7716e-06	993.94	141.6	1.7375e-06	1.7688e-06	328.6	141.53	53.276	11.791	1.7013e-06	33.512	217.519	66.803	41.873	-26.490	103.904	139.900	-27.148	-24.582	139.557	72.409	-26.011	-24.212	-23.016	-20.892	114.749	-23.255	-8191	255	
1578.572	1	1	0	0	0.02987	0.046491	0.29097	0.17627	0.14821	0.022022	0.28362	0.21806	0.18306	0.25259	0.15711	0.17795	0.24068	0.22129	0.14996	0.075612	-1.9688	-1.9521	-2.1292	-2.5375	-2.1813	-2.5563	-2.5771	-2.0187	-2.4313	-2.1312	-2.1562	-2.5042	-2.0542	-2.1542	-2.3729	-2.025	227.892	70.306	1.858	235.061	123.431	-23.366	272.551	-29.947	227.851	276.497	87.642	307.160	275.360	305.508	87.843	-10.138	7.3593e-05	0.00030764	0.00010139	422.5	2.9326e-06	5.6986e-06	1069.1	151.66	1.787e-06	4.6246e-06	356.04	150.92	55.898	12.678	2.6086e-06	35.891	0.00016668	0.0001608	4.359e-05	391.35	1.7723e-06	1.7382e-06	987.78	141.42	1.8585e-06	1.7564e-06	328.32	140.25	52.712	11.952	1.7735e-06	33.445	191.853	68.802	53.848	-26.569	99.755	81.311	-27.006	-24.517	118.424	104.712	-25.570	-24.496	-22.892	-21.725	129.148	-22.895	-8191	255	
1578.668	1	1	0	0	0.097915	0.20421	0.14999	0.088759	0.2402	0.10748	0.075425	0.23416	0.076557	0.030733	0.29393	0.2351	0.38322	0.19138	0.096048	0.14275	-1.8583	-2.1937	-2.1104	-2.5542	-2.2812	-2.1646	-2.5958	-2.1896	-2.4083	-2.3438	-2.2854	-2.6792	-2.1792	-2.3167	-2.6021	-2.1896	236.477	49.916	83.597	313.522	205.308	44.987	35.562	241.600	195.638	3.421	-35.649	246.007	13.320	269.285	315.951	177.647	9.025e-05	0.00049815	8.151e-05	422.06	3.4796e-06	4.4995e-06	1066.6	152.45	1.7557e-06	3.2966e-06	352.88	149.95	56.396	12.834	8.4861e-07	36.047	0.0001717	0.00016199	4.4694e-05	389.61	1.8231e-06	1.7275e-06	985.64	142.48	1.83e-06	1.745e-06	328.6	139.71	52.814	11.98	1.7107e-06	33.548	202.970	71.935	57.644	-27.082	139.343	87.602	-27.370	-24.569	113.786	91.600	-25.913	-24.292	-23.130	-21.568	68.757	-22.906	-8191	255	
1578.764	1	1	0	0	0.14601	0.034524	0.034547	0.083737	0.14205	0.24075	0.18081	0.28219	0.21306	0.2538	0.21683	0.16109	0.28423	0.1281	0.19514	0.16421	-1.7646	-2.2938	-2.0438	-2.4542	-2.2583	-2.0979	-2.7687	-2.1562	-2.3333	-2.4542	-2.0854	-2.5854	-2.2229	-2.0708	-2.6937	-2.0812	209.449	278.232	183.506	206.365	37.591	164.633	27.190	311.583	69.163	30.986	197.866	297.620	182.299	236.897	217.094	161.021	0.00011216	0.00039234	0.00012287	423.08	3.2811e-06	3.6374e-06	1072.6	153.36	3.4778e-06	3.904e-06	358.5	150.22	55.64	12.66	3.6785e-06	36.177	0.00016925	0.00016302	4.5571e-05	389.31	1.8163e-06	1.654e-06	988.01	142.61	1.8067e-06	1.6912e-06	330.66	139.7	52.534	11.907	1.7129e-06	33.584	204.697	28.433	59.904	-26.809	108.740	125.541	-27.289	-24.581	156.570	77.305	-26.005	-24.463	-23.122	-22.051	112.318	-22.971	-8191	255	
1578.860	1	1	0	0	0.14268	0.15139	0.25349	0.13176	0.20074	0.072463	0.064394	0.07103	0.080922	0.20926	0.12718	0.093278	0.41533	0.091253	0.16196	0.17258	-1.7979	-2.1667	-2.0938	-2.3375	-2.0896	-1.9813	-2.6833	-2.0917	-2.3458	-2.3771	-2.1604	-2.3833	-2.2583	-2.0875	-2.3937	-2.2583	86.150	293.102	43.306	29.257	145.456	-12.331	-35.196	155.909	27.737	227.054	288.613	183.695	253.173	143.512	-40.122	292.461	8.4121e-05	0.00035512	0.00010128	418.65	4.6961e-06	2.9768e-06	1077.9	153.52	2.9979e-06	2.6823e-06	354.89	149.32	55.674	12.722	1.9284e-06	35.884	0.00016566	0.0001679	4.5944e-05	389.76	1.8344e-06	1.7877e-06	989.03	142.56	1.7645e-06	1.6763e-06	328.79	139.13	52.546	11.919	1.6546e-06	33.398	210.043	63.816	11.945	-26.745	117.872	122.003	-27.146	-24.519	122.146	160.457	-26.130	-24.328	-23.503	-21.409	140.066	-23.270	-8191	255	
1578.955	1	1	0	0	0.19417	0.16507	0.21975	0.27456	0.27898	0.19967	0.051763	0.16656	0.042696	0.037809	0.20226	0.1963	0.31046	0.27217	0.19794	0.24388	-1.6708	-2.4062	-2.0104	-2.4083	-2.2438	-2.075	-2.7792	-2.0896	-2.0417	-2.5563	-2.0333	-2.5771	-2.2479	-2.0792	-2.4313	-2.2979	247.052	157.076	168.533	263.080	200.062	262.638	162.233	96.439	5.358	249.085	209.929	-1.107	207.961	276.867	-29.863	185.179	9.1623e-05	0.00043072	8.3131e-05	422.19	2.0691e-06	2.2384e-06	1073.9	152.97	1.8003e-06	4.7419e-06	355.39	149.73	55.661	12.567	3.6177e-06	35.661	0.0001728	0.00016166	4.5551e-05	389.02	1.7707e-06	1.7511e-06	985.45	142.23	1.7996e-06	1.742e-06	329.33	139.33	52.449	11.905	1.7316e-06	33.225	196.971	47.411	66.971	-26.649	150.693	104.845	-27.166	-24.684	197.617	110.508	-25.765	-24.172	-22.943	-21.642	148.999	-22.923	-8191	255	
1579.053	1	1	0	0	0.14704	0.18112	0.28111	0.10116	0.11815	0.25338	0.20411	0.34163	0.086592	0.20674	0.16519	0.16624	0.037663	0.16514	0.12323	0.040072	-1.7708	-2.4208	-2.0333	-2.3146	-2.4354	-2.05	-2.4896	-2.2375	-2.1229	-2.3708	-2.1	-2.3479	-2.3979	-2.2354	-2.3312	-2.1792	231.774	306.132	252.446	90.543	80.329	223.747	310.329	291.971	124.066	102.310	94.193	-38.439	103.724	82.248	222.242	96.884	0.00011013	0.00018632	5.5289e-05	417.94	3.8532e-06	3.2801e-06	1064.6	153.46	1.7792e-06	3.519e-06	354.03	149.4	56.105	12.687	2.5884e-06	35.933	0.00017363	0.00015885	4.5999e-05	388.47	1.7594e-06	1.673e-06	983.77	142.67	1.744e-06	1.6883e-06	328.63	139.57	52.71	11.884	1.6347e-06	33.46	203.205	1.137	8.793	-26.643	82.193	104.352	-27.026	-24.405	176.911	132.050	-25.950	-24.257	-22.940	-21.753	129.002	-22.461	-8191	255	
1579.171	1	1	0	0	0.16967	0.071395	0.076463	0.2085	0.10823	0.1514	0.049476	0.21513	0.27148	0.14472	0.2251	0.30127	0.12961	0.13453	0.19549	0.14443	-1.7313	-2.4125	-2.0958	-2.2583	-2.3521	-2.0271	-2.3958	-2.2146	-2.1437	-2.4938	-2.0312	-2.1146	-2.4729	-2.0333	-2.3812	-2.4208	233.908	202.808	215.749	134.062	160.035	-17.518	149.008	103.650	315.116	32.872	70.370	-2.323	-27.484	-16.251	263.215	183.302	0.00010566	0.00021288	9.7221e-05	422.51	1.5492e-06	3.1975e-06	1072.3	153.1	3.8933e-06	2.6559e-06	358.54	150.68	55.885	12.465	2.2419e-06	35.672	0.00016523	0.00015692	4.4918e-05	391.33	1.6787e-06	1.7183e-06	987.25	142.61	1.7952e-06	1.7207e-06	329.68	140.35	52.752	11.863	1.7069e-06	33.396	201.847	83.458	44.085	-26.567	123.971	104.653	-27.492	-24.707	134.654	70.163	-26.153	-24.253	-23.195	-21.657	120.686	-22.848	-8191	255	
1579.268	1	1	0	0	0.17738	0.12895	0.26456	0.049386	0.13332	0.095028	0.10585	0.18592	0.038788	0.30123	0.38378	0.2931	0.15842	0.11266	0.13681	0.1426	-1.5521	-2.3458	-2.1375	-2.2188	-2.4271	-1.9771	-2.5646	-2.3417	-2.1437	-2.5062	-2.3167	-2.1792	-2.3667	-2.2062	-2.2833	-2.475	-8.095	191.561	146.354	130.040	46.269	194.137	261.079	76.023	237.642	133.845	295.599	251.370	253.311	304.293	56.438	-23.987	9.3834e-05	0.00059711	8.2288e-05	422.56	2.0859e-06	3.2324e-06	1071.5	154.37	2.9231e-06	3.0615e-06	360.09	150.62	56.182	12.572	1.2061e-06	35.983	0.00017148	0.00014591	4.4832e-05	391.79	1.7242e-06	1.8046e-06	988.48	142.44	1.7486e-06	1.7143e-06	330.12	140.26	52.766	11.815	1.7401e-06	33.452	192.932	68.738	45.659	-26.551	151.082	113.390	-27.157	-24.321	131.141	66.497	-25.932	-24.489	-22.865	-22.080	106.967	-22.714	-8191	255	
1579.364	1	1	0	0	0.27895	0.19858	0.28061	0.19994	0.072333	0.27217	0.20303	0.053545	0.28447	0.25281	0.15727	0.046943	0.27945	0.11202	0.21739	0.1202	-1.4917	-2.3292	-2.1042	-2.1354	-2.5396	-2.0104	-2.3375	-2.3958	-1.8312	-2.4875	-2.1833	-2.1375	-2.3937	-2.0146	-2.1813	-2.6042	168.821	230.877	72.172	304.458	131.504	178.584	259.356	5.753	56.042	-4.912	279.048	-17.180	3.861	265.239	146.698	252.565	7.7183e-05	0.00041168	9.6336e-05	423.13	5.0183e-06	3.1421e-06	1068.6	152.63	1.9033e-06	6.8754e-06	355.82	149.15	55.933	12.676	3.4156e-06	35.769	0.00017177	0.000158	4.5469e-05	389.95	1.7275e-06	1.7987e-06	984.29	141.98	1.7592e-06	1.7481e-06	328.7	138.38	52.478	11.933	1.7827e-06	33.336	203.165	31.898	63.651	-26.963	138.931	94.246	-27.387	-24.528	147.659	107.902	-25.828	-24.448	-23.037	-21.476	127.413	-23.074	-8191	255	
