BOXY.EXE: ISS Imagent and Oximeter Data Acquisition Program Version 0.80
Ascii Record File

#ACQ INFORMATION
2  Detector Channels 
16  External MUX Channels 
1  Auxiliary Channels 
5000  Waveform (CCF) Frequency (Hz)
1  Waveforms Skipped 
30  Waveforms Averaged 
1  Cycles Averaged 
16  Acquisitions per Waveform 
10.0806  Updata Rate (Hz) 

#FILE INFORMATION
TRUE -- External MUX Channel results are PARSED.
FALSE -- AC DC and Phase are NOT grouped.
TRUE -- Companion Program Settings File CREATED.
FALSE -- AC data not excluded
FALSE -- DC data not excluded
FALSE -- Phase data not excluded
FALSE -- Auxillary Chn. data not excluded
Tab delimiters

#CALIBRATION STATE
TRUE -- Waveform Calibration Values APPLIED.


#AUX CALIBRATION VALUES
Val Type	aux-1	

Term	1.0000e+00	
Factor	0.0000e+00	


#WF CALIBRATION VALUES
A = Detector Channel
Val Type	A-AC1	A-AC2	A-AC3	A-AC4	A-AC5	A-AC6	A-AC7	A-AC8	A-AC9	A-AC10	A-AC11	A-AC12	A-AC13	A-AC14	A-AC15	A-AC16	A-DC1	A-DC2	A-DC3	A-DC4	A-DC5	A-DC6	A-DC7	A-DC8	A-DC9	A-DC10	A-DC11	A-DC12	A-DC13	A-DC14	A-DC15	A-DC16	A-Ph1	A-Ph2	A-Ph3	A-Ph4	A-Ph5	A-Ph6	A-Ph7	A-Ph8	A-Ph9	A-Ph10	A-Ph11	A-Ph12	A-Ph13	A-Ph14	A-Ph15	A-Ph16	

Term	0.00000e+00	0.00000e+00	0.00000e+00	0.00000e+00	0.00000e+00	0.00000e+00	0.00000e+00	0.00000e+00	0.00000e+00	0.00000e+00	0.00000e+00	0.00000e+00	0.00000e+00	0.00000e+00	0.00000e+00	0.00000e+00	0.00000e+00	0.00000e+00	0.00000e+00	0.00000e+00	0.00000e+00	0.00000e+00	0.00000e+00	0.00000e+00	0.00000e+00	0.00000e+00	0.00000e+00	0.00000e+00	0.00000e+00	0.00000e+00	0.00000e+00	0.00000e+00	0.00000e+00	0.00000e+00	0.00000e+00	0.00000e+00	0.00000e+00	0.00000e+00	0.00000e+00	0.00000e+00	0.00000e+00	0.00000e+00	0.00000e+00	0.00000e+00	0.00000e+00	0.00000e+00	0.00000e+00	0.00000e+00	
Factor	1.00000e+00	1.00000e+00	1.00000e+00	1.00000e+00	1.00000e+00	1.00000e+00	1.00000e+00	1.00000e+00	1.00000e+00	1.00000e+00	1.00000e+00	1.00000e+00	1.00000e+00	1.00000e+00	1.00000e+00	1.00000e+00	1.00000e+00	1.00000e+00	1.00000e+00	1.00000e+00	1.00000e+00	1.00000e+00	1.00000e+00	1.00000e+00	1.00000e+00	1.00000e+00	1.00000e+00	1.00000e+00	1.00000e+00	1.00000e+00	1.00000e+00	1.00000e+00	X	X	X	X	X	X	X	X	X	X	X	X	X	X	X	X	

B = Detector Channel
Val Type	B-AC1	B-AC2	B-AC3	B-AC4	B-AC5	B-AC6	B-AC7	B-AC8	B-AC9	B-AC10	B-AC11	B-AC12	B-AC13	B-AC14	B-AC15	B-AC16	B-DC1	B-DC2	B-DC3	B-DC4	B-DC5	B-DC6	B-DC7	B-DC8	B-DC9	B-DC10	B-DC11	B-DC12	B-DC13	B-DC14	B-DC15	B-DC16	B-Ph1	B-Ph2	B-Ph3	B-Ph4	B-Ph5	B-Ph6	B-Ph7	B-Ph8	B-Ph9	B-Ph10	B-Ph11	B-Ph12	B-Ph13	B-Ph14	B-Ph15	B-Ph16	

Term	0.00000e+00	0.00000e+00	0.00000e+00	0.00000e+00	0.00000e+00	0.00000e+00	0.00000e+00	0.00000e+00	0.00000e+00	0.00000e+00	0.00000e+00	0.00000e+00	0.00000e+00	0.00000e+00	0.00000e+00	0.00000e+00	0.00000e+00	0.00000e+00	0.00000e+00	0.00000e+00	0.00000e+00	0.00000e+00	0.00000e+00	0.00000e+00	0.00000e+00	0.00000e+00	0.00000e+00	0.00000e+00	0.00000e+00	0.00000e+00	0.00000e+00	0.00000e+00	-1.39035e+02	-1.26531e+02	-1.24596e+02	-1.80804e+02	-7.25877e+01	-6.93892e+01	-1.54809e+02	-1.62015e+02	-7.25300e+01	-6.55066e+01	-1.69734e+02	-1.69176e+02	-1.79665e+02	-1.75011e+02	-7.13834e+01	-1.48090e+02	
Factor	2.07196e-05	1.75471e-04	4.94896e-05	1.59281e-01	1.38751e-06	1.84430e-06	1.75738e-01	1.16506e-01	1.58342e-06	2.10923e-06	1.01319e-01	2.93076e-02	2.93043e-02	9.46954e-03	1.57524e-06	1.37912e-02	1.13244e-05	1.86183e-05	5.24104e-06	8.03654e-02	1.86286e-07	2.08226e-07	8.35337e-02	5.82145e-02	1.97906e-07	2.07924e-07	4.98347e-02	1.44784e-02	1.50484e-02	4.83635e-03	1.97216e-07	6.82973e-03	X	X	X	X	X	X	X	X	X	X	X	X	X	X	X	X	



#DISTANCE SETTINGS
A = Detector Channel
A-1	A-2	A-3	A-4	A-5	A-6	A-7	A-8	A-9	A-10	A-11	A-12	A-13	A-14	A-15	A-16	

2.5000e+00	3.0000e+00	2.5000e+00	3.0000e+00	2.0000e+00	3.0000e+00	1.5000e+00	3.0000e+00	3.0000e+00	3.0000e+00	3.0000e+00	3.0000e+00	3.0000e+00	3.0000e+00	1.5000e+00	3.0000e+00	

B = Detector Channel
B-1	B-2	B-3	B-4	B-5	B-6	B-7	B-8	B-9	B-10	B-11	B-12	B-13	B-14	B-15	B-16	

1.0000e+01	1.0000e+01	1.0000e+01	1.4400e+00	1.0000e+01	1.0000e+01	1.5100e+00	1.9400e+00	1.0000e+01	1.0000e+01	1.9900e+00	2.4900e+00	2.4100e+00	2.9000e+00	1.0000e+01	2.9800e+00	




#DATA BEGINS
time	group	step	mark	flag	A-AC1	A-AC2	A-AC3	A-AC4	A-AC5	A-AC6	A-AC7	A-AC8	A-AC9	A-AC10	A-AC11	A-AC12	A-AC13	A-AC14	A-AC15	A-AC16	A-DC1	A-DC2	A-DC3	A-DC4	A-DC5	A-DC6	A-DC7	A-DC8	A-DC9	A-DC10	A-DC11	A-DC12	A-DC13	A-DC14	A-DC15	A-DC16	A-Ph1	A-Ph2	A-Ph3	A-Ph4	A-Ph5	A-Ph6	A-Ph7	A-Ph8	A-Ph9	A-Ph10	A-Ph11	A-Ph12	A-Ph13	A-Ph14	A-Ph15	A-Ph16	B-AC1	B-AC2	B-AC3	B-AC4	B-AC5	B-AC6	B-AC7	B-AC8	B-AC9	B-AC10	B-AC11	B-AC12	B-AC13	B-AC14	B-AC15	B-AC16	B-DC1	B-DC2	B-DC3	B-DC4	B-DC5	B-DC6	B-DC7	B-DC8	B-DC9	B-DC10	B-DC11	B-DC12	B-DC13	B-DC14	B-DC15	B-DC16	B-Ph1	B-Ph2	B-Ph3	B-Ph4	B-Ph5	B-Ph6	B-Ph7	B-Ph8	B-Ph9	B-Ph10	B-Ph11	B-Ph12	B-Ph13	B-Ph14	B-Ph15	B-Ph16	aux-1	digaux	

679.775	1	1	0	256	0.15379	0.24982	0.17957	0.10769	0.20945	0.12166	0.16218	0.10149	0.28209	0.21683	0.13522	0.17974	0.29512	0.14334	0.18269	0.065449	-2.3792	-2.3104	-2.3458	-2.7208	-2.2729	-2.6583	-2.6917	-2.0958	-2.5438	-2.5	-2.5146	-2.9354	-2.3896	-2.525	-2.5375	-2.2875	494.607	279.824	291.166	360.748	178.479	244.275	393.233	437.830	176.273	439.309	462.758	268.027	465.073	174.029	180.545	371.953	0.00055447	0.00089781	0.00035722	712.57	1.0295e-05	6.8124e-06	824.38	250.05	7.6733e-06	8.748e-06	326.16	119.72	83.691	36.428	2.5255e-06	59.955	0.008606	0.01439	0.0036986	757.59	0.00013939	0.00014616	869.47	284.82	0.00013601	0.00014895	354.04	128.01	93.125	39.598	0.0001314	64.076	183.734	264.533	154.247	152.589	289.315	275.138	151.534	157.727	334.287	325.740	156.124	160.996	162.514	167.486	160.101	164.518	-8191	255	
679.896	1	1	0	0	0.23558	0.15546	0.23128	0.095345	0.074224	0.25837	0.16077	0.16064	0.21251	0.15817	0.13295	0.14298	0.16953	0.28027	0.20896	0.40693	-2.2479	-2.4667	-2.4229	-2.7438	-2.3958	-2.4729	-2.9021	-2.3854	-2.6375	-2.7583	-2.3208	-2.7854	-2.3979	-2.5125	-2.6958	-2.3292	242.044	382.904	439.941	389.640	164.944	461.110	465.154	185.059	305.810	406.570	393.172	145.730	361.462	424.286	476.290	482.397	0.00065375	0.0012298	0.00032378	715.88	8.0373e-06	1.0658e-05	830.18	251	4.4912e-06	8.8046e-07	329.51	121.91	84.784	37.189	9.9879e-06	61.214	0.0077337	0.012843	0.0032686	754.95	0.00012571	0.00012876	869.25	283.48	0.00012476	0.00013665	355.86	129.66	93.872	40.098	0.00012527	65.634	179.743	185.042	265.652	153.046	229.107	247.727	151.357	157.549	285.427	224.827	156.412	160.718	162.796	167.511	325.332	164.422	-8191	255	
679.992	1	1	0	0	0.1797	0.1625	0.20856	0.21738	0.11404	0.33665	0.18731	0.1883	0.11669	0.083353	0.33286	0.36471	0.18403	0.27952	0.19845	0.19218	-2.1604	-2.3708	-2.2792	-2.7208	-2.4042	-2.3104	-2.6167	-2.0812	-2.55	-2.6896	-2.2167	-2.925	-2.3833	-2.4396	-2.8229	-2.5646	468.671	425.599	168.261	499.877	291.501	435.651	363.692	471.679	338.353	255.703	461.367	158.224	418.014	470.600	184.630	457.255	0.00067377	0.00049952	0.00033108	715.92	4.9848e-06	2.5299e-06	836.68	252.2	1.4962e-05	1.5666e-05	332.48	123.69	85.521	37.832	6.0714e-06	62.402	0.0076531	0.012734	0.003419	759.81	0.0001364	0.00014243	883.67	292.18	0.0001474	0.00016122	366.5	133.83	97.084	41.449	0.00015488	67.836	184.446	391.636	213.109	152.883	305.562	175.898	151.381	158.098	278.808	296.846	156.457	160.652	162.676	167.244	271.903	164.459	-8191	255	
680.088	1	1	0	0	0.30205	0.19215	0.22356	0.18853	0.18897	0.2971	0.13931	0.18789	0.13713	0.22861	0.067639	0.13118	0.2832	0.25236	0.080213	0.23948	-2.05	-2.5375	-2.1458	-2.7417	-2.4708	-2.3125	-2.775	-2.5438	-2.4688	-2.55	-2.4437	-2.8563	-2.5771	-2.3563	-2.6979	-2.3792	433.043	318.137	249.548	175.051	371.826	380.488	144.521	169.895	431.293	425.792	287.443	436.899	431.503	411.608	476.450	378.599	0.00082694	0.00025593	8.7919e-05	714.28	1.1072e-05	4.01e-06	837.19	252.03	4.8118e-06	1.1882e-05	330.47	124.69	85.825	37.899	4.8308e-06	62.523	0.0092522	0.015183	0.004214	767.55	0.00015975	0.0001677	893.27	297.14	0.00016254	0.00017468	369.87	135.12	97.855	41.643	0.00016315	68.093	184.420	306.478	263.445	152.807	473.000	324.309	151.766	157.784	415.567	359.695	156.182	160.770	162.207	167.181	334.686	164.252	-8191	255	
680.160	1	1	0	0	0.16815	0.048258	0.094928	0.062885	0.1219	0.29976	0.14571	0.12657	0.16107	0.2386	0.24209	0.11424	0.045268	0.10285	0.15216	0.12917	-1.9813	-2.5812	-2.2042	-2.7667	-2.4417	-2.1375	-2.9104	-2.4938	-2.4708	-2.7	-2.3604	-2.5896	-2.4125	-2.1437	-2.5583	-2.4604	151.833	435.585	158.537	295.089	333.275	390.436	140.838	370.379	453.677	455.536	497.263	390.087	389.473	446.098	495.645	355.831	0.00072388	0.00028907	0.00030318	706.69	8.0618e-06	1.0587e-05	825.27	250.32	3.1526e-06	1.302e-05	329.85	123.79	85.671	37.469	3.3179e-06	61.64	0.0093904	0.015414	0.0043869	760.58	0.00015888	0.00017037	885.12	296.67	0.00016284	0.00017609	369.57	134.68	97.731	41.573	0.00017005	67.749	175.791	224.286	158.700	152.708	232.672	262.849	151.680	157.741	143.703	346.795	156.488	160.849	162.390	167.397	386.787	164.296	-8191	255	
680.280	1	1	0	0	0.15865	0.055557	0.15766	0.17002	0.091971	0.10242	0.070813	0.27133	0.15422	0.16802	0.1039	0.34173	0.16613	0.27577	0.10795	0.061235	-2.0708	-2.6688	-2.0771	-2.6333	-2.4104	-2.2396	-2.7646	-2.5417	-2.325	-2.6417	-2.4125	-2.6562	-2.6208	-2.2229	-2.8542	-2.7542	284.915	470.697	438.360	483.100	385.708	193.352	372.231	142.977	218.410	365.590	389.694	495.798	155.468	436.617	151.163	483.710	0.00071209	0.000998	0.00036807	705.75	5.0458e-06	7.0866e-06	826.53	248.77	1.0137e-05	5.4234e-06	328.84	123.81	85.771	38.005	5.7368e-06	62.543	0.0097906	0.016092	0.0046393	760.07	0.00016262	0.00017788	885.22	296.33	0.0001652	0.00017896	370.54	134.71	97.884	41.979	0.00016982	68.321	168.690	210.506	142.904	152.739	236.002	405.519	151.772	157.896	257.341	385.715	156.150	160.561	162.796	167.048	240.215	164.323	-8191	255	
680.377	1	1	0	0	0.21301	0.24722	0.19096	0.34084	0.2332	0.12155	0.28682	0.081541	0.03774	0.083923	0.20579	0.23693	0.26861	0.017666	0.32192	0.18966	-1.8062	-2.6917	-2.4479	-2.5062	-2.5187	-2.0833	-2.6792	-2.5396	-2.3542	-2.6771	-2.4604	-2.5646	-2.575	-2.1396	-2.6729	-2.5875	210.557	495.852	302.309	485.190	159.928	484.454	496.178	423.247	425.567	298.535	242.819	357.258	388.107	482.553	472.382	419.635	0.00081715	0.0016121	0.0001139	707.2	1.1841e-05	7.0306e-06	826.99	250.86	1.1287e-05	5.7264e-06	331.89	124.48	85.959	38.213	5.234e-06	62.629	0.0097124	0.016036	0.0046456	761.95	0.00016116	0.00018111	887.66	298.05	0.00016654	0.00017973	373.26	135.52	98.298	42.293	0.0001705	68.787	174.583	236.497	188.652	152.673	219.076	344.103	151.707	158.201	233.731	292.930	156.516	160.788	162.568	167.120	255.832	164.326	-8191	255	
680.473	1	1	0	0	0.37945	0.1755	0.053765	0.52049	0.11673	0.056594	0.076693	0.13392	0.069847	0.26694	0.33162	0.15567	0.27129	0.40009	0.12598	0.16964	-1.7167	-2.675	-2.3979	-2.5875	-2.7271	-2.4813	-2.7562	-2.5729	-2.2417	-2.8021	-2.5021	-2.4521	-2.6396	-2.4667	-2.4167	-2.7375	175.792	384.467	405.361	419.233	426.242	195.544	420.080	447.503	364.398	448.446	426.319	406.214	441.868	451.803	438.730	466.292	0.00082873	0.00077276	0.00016676	703.91	8.473e-06	1.035e-05	829.47	248.67	4.3167e-06	1.7127e-05	330.52	123.99	86.102	37.95	1.1366e-05	62.589	0.0099757	0.016498	0.0047764	761.17	0.0001665	0.00019179	890.34	299.22	0.00017783	0.00019003	373.9	136.08	98.519	42.364	0.00017534	68.768	174.880	162.195	397.280	152.624	264.513	247.218	151.606	157.792	325.313	400.908	156.271	160.572	162.338	166.941	259.337	164.743	-8191	255	
680.593	1	1	0	0	0.16826	0.14105	0.12357	0.29258	0.149	0.089289	0.17853	0.23389	0.063169	0.068791	0.20597	0.43164	0.19425	0.22442	0.20844	0.23921	-1.9688	-2.8021	-2.4625	-2.2729	-2.7104	-2.4875	-2.5771	-2.5583	-2.0979	-2.8229	-2.5583	-2.3812	-2.8875	-2.4104	-2.4437	-2.6125	445.306	341.037	228.121	435.360	430.490	381.194	485.940	437.768	294.486	276.944	150.031	414.622	140.071	142.254	163.197	396.346	0.00074184	0.0011982	7.2132e-05	700.16	4.5477e-06	9.0112e-06	823.11	249.32	1.4708e-05	1.471e-05	330.46	124.53	85.328	37.781	8.7952e-06	62.236	0.010362	0.016639	0.0048173	755.19	0.0001662	0.0001895	884.28	295.08	0.00017196	0.00017798	369.99	135.1	97.179	41.721	0.00015969	67.91	173.639	382.993	462.829	152.646	323.147	341.752	151.777	157.332	282.769	266.217	156.304	160.975	162.746	167.409	283.755	164.282	-8191	255	
680.688	1	1	0	0	0.081978	0.22601	0.11859	0.092884	0.094376	0.18065	0.11998	0.049635	0.28106	0.13979	0.31137	0.15855	0.15564	0.30707	0.042615	0.19507	-1.7958	-2.6417	-2.5812	-2.2833	-2.4917	-2.5208	-2.5146	-2.6188	-2.2417	-2.7042	-2.6688	-2.4437	-2.7354	-2.5625	-2.4062	-2.6396	470.465	458.076	200.879	469.140	258.444	422.551	318.917	468.323	320.242	435.518	140.232	469.471	417.083	465.907	433.551	384.323	0.00082921	0.0017332	0.00035676	689.02	8.1194e-06	9.6481e-06	818.51	246.64	7.9993e-06	5.5428e-06	325.99	123.09	85.214	37.207	4.3789e-06	61.641	0.0098004	0.015385	0.0044342	742.28	0.00015827	0.00018213	870.56	291.4	0.00017153	0.00017653	366.37	134.27	97.336	41.581	0.00016813	67.375	177.464	269.250	339.496	152.749	358.865	231.559	152.044	157.960	233.996	429.553	156.510	160.997	162.392	167.086	334.172	164.277	-8191	255	
680.784	1	1	0	0	0.10735	0.32011	0.089488	0.086837	0.22654	0.13078	0.26921	0.087939	0.084801	0.22559	0.10188	0.17718	0.05048	0.16908	0.226	0.18408	-1.8375	-2.5375	-2.5708	-2.2229	-2.5875	-2.4542	-2.3688	-2.8021	-2.4167	-2.5417	-2.6604	-2.2938	-2.5729	-2.5875	-2.4771	-2.9313	410.495	279.229	402.269	191.233	474.768	154.142	498.878	405.416	489.495	292.626	355.828	470.036	203.823	479.003	434.563	444.029	0.00069108	0.00080792	0.00027663	681.94	2.6026e-06	3.6626e-06	806.85	245.66	1.3378e-05	6.3847e-06	322.02	121.48	84.298	36.909	9.7667e-06	60.743	0.010551	0.016415	0.0047552	744.41	0.00016969	0.00019351	870.64	294.5	0.00018649	0.00018919	366.48	134.18	97.41	41.506	0.00018441	67.415	173.198	331.052	224.911	152.899	477.576	202.242	151.941	157.755	313.240	328.549	156.564	160.709	162.509	167.348	289.782	164.388	-8191	255	
680.880	1	1	0	0	0.055474	0.12658	0.064315	0.12601	0.033313	0.26129	0.30622	0.12158	0.31952	0.2651	0.19897	0.24975	0.25159	0.16955	0.16009	0.11595	-1.9229	-2.5167	-2.5021	-2.325	-2.3854	-2.4458	-2.4271	-2.6583	-2.3063	-2.575	-2.9271	-2.3333	-2.6125	-2.5542	-2.1875	-2.8667	280.767	190.176	340.939	154.524	483.333	277.702	422.579	422.590	252.679	306.139	386.328	442.906	365.389	420.278	191.084	474.376	0.0007108	0.00028716	9.4958e-05	681.13	5.714e-06	3.7101e-06	809.95	243.85	7.481e-06	3.8599e-06	322.72	121.06	83.342	36.554	1.2245e-05	60.669	0.011589	0.0176	0.0050962	749.2	0.00017951	0.00020521	873.26	295.42	0.0001967	0.00019597	366.25	134.28	97.156	41.473	0.00019214	67.3	175.649	269.944	225.010	152.674	280.803	271.336	151.674	157.938	210.714	405.039	156.661	160.886	162.547	167.087	291.416	164.284	-8191	255	
680.976	1	1	0	0	0.12968	0.22708	0.18757	0.32714	0.034095	0.085445	0.32556	0.10417	0.094524	0.15936	0.053904	0.12835	0.099887	0.2481	0.19129	0.13038	-1.8875	-2.3979	-2.6229	-2.1792	-2.3917	-2.5812	-2.3187	-2.6437	-2.4896	-2.5083	-2.825	-2.3875	-2.3792	-2.3312	-2.2729	-2.7729	426.797	311.624	390.576	423.165	293.239	201.198	392.931	262.009	180.253	159.141	347.965	170.132	457.024	408.303	471.340	496.560	0.00060605	0.00079065	5.7723e-05	681.71	2.6161e-06	7.1328e-06	810.29	241.75	6.859e-06	1.2902e-05	321.38	120.59	83.569	36.708	1.4483e-05	60.899	0.011962	0.018138	0.005304	752.9	0.00018511	0.00021081	875.78	296.62	0.00020447	0.00020139	369.1	134.9	97.833	41.598	0.00020089	67.714	180.425	223.976	404.878	152.670	359.369	454.982	151.779	157.744	175.358	255.922	156.356	160.872	162.429	166.982	236.390	164.555	-8191	255	
681.072	1	1	0	0	0.18541	0.25414	0.23293	0.15938	0.30994	0.23109	0.05852	0.12422	0.055949	0.11186	0.20094	0.23487	0.16686	0.11157	0.10871	0.15514	-1.9042	-2.5104	-2.5854	-2.4813	-2.6875	-2.6958	-2.3063	-2.7229	-2.5479	-2.2313	-2.7146	-2.4042	-2.525	-2.6417	-2.1979	-2.6521	476.345	225.925	186.021	441.313	447.446	252.081	378.660	352.340	195.987	354.677	148.757	245.939	297.652	357.363	229.490	250.646	0.00077244	0.0002621	0.00023862	679.05	4.8468e-06	3.9145e-06	795.96	242	5.4046e-06	1.5056e-05	320.19	119.11	82.712	36.427	9.6791e-06	60.499	0.01229	0.018899	0.0055738	754.38	0.00019271	0.00022056	875.78	297.05	0.00021051	0.00021031	367.43	134.04	96.985	41.255	0.00020369	67.046	174.690	316.347	312.391	152.798	358.089	219.625	151.490	157.738	328.386	237.626	156.211	160.740	162.754	167.086	241.185	164.457	-8191	255	
681.168	1	1	0	0	0.31552	0.092947	0.072134	0.12918	0.22665	0.26522	0.20343	0.11691	0.50995	0.16367	0.31128	0.14561	0.3708	0.13999	0.069161	0.13676	-1.9854	-2.1771	-2.6688	-2.425	-2.4646	-2.6354	-2.3083	-2.6333	-2.5938	-2.2708	-2.8187	-2.5396	-2.4854	-2.7896	-2.3583	-2.7687	260.924	411.789	284.849	487.847	181.754	362.040	404.304	385.941	390.999	455.262	475.694	491.642	193.713	142.905	202.435	268.105	0.00071476	0.0012931	0.00018597	670.67	6.9072e-06	7.2041e-06	791.72	239.31	1.3945e-06	5.8948e-06	317.6	119.54	83.336	36.303	2.5159e-05	60.085	0.011906	0.018362	0.0053786	745.17	0.00018217	0.00021082	868.98	293.67	0.00020232	0.0002096	364.79	133.73	97.213	41.44	0.00021281	67.297	177.215	172.563	249.119	152.609	180.888	415.871	151.858	158.039	383.405	305.231	156.543	160.768	162.567	167.118	278.466	164.182	-8191	255	
681.289	1	1	0	0	0.12003	0.20742	0.15728	0.1392	0.2776	0.16163	0.11425	0.06579	0.39958	0.17935	0.1201	0.19562	0.09935	0.080357	0.2485	0.032578	-2.1562	-2.2062	-2.5708	-2.4875	-2.4375	-2.8104	-2.5042	-2.6562	-2.5771	-2.1583	-2.6917	-2.5187	-2.3688	-2.6271	-2.4188	-2.6854	279.087	247.996	462.724	445.358	141.230	144.008	461.191	268.810	165.684	221.683	413.230	393.433	307.599	176.472	322.588	240.411	0.00075888	0.0004349	0.00061635	681.76	1.2143e-05	1.0797e-05	801.86	241.67	9.0518e-06	1.5351e-05	317.95	119.91	83.313	36.817	8.5682e-06	60.465	0.012602	0.020135	0.0057859	760.31	0.00020012	0.00023252	883.1	300.63	0.00022122	0.00023049	370.36	135.49	98.691	42.056	0.00022697	67.943	183.512	178.269	343.303	152.586	255.821	299.532	151.547	157.615	302.989	250.805	156.679	160.665	162.203	167.149	179.417	164.336	-8191	255	
681.385	1	1	0	0	0.03934	0.23581	0.20143	0.088622	0.24369	0.17902	0.078591	0.09687	0.21598	0.091078	0.068706	0.25199	0.047535	0.23549	0.10755	0.27774	-2.0812	-2.2188	-2.5229	-2.7542	-2.6229	-2.7875	-2.3667	-2.55	-2.6063	-2.3812	-2.5708	-2.6063	-2.2521	-2.7979	-2.2958	-2.4938	467.107	189.932	258.950	327.771	237.639	278.487	142.880	364.073	361.590	342.997	143.968	472.154	403.452	454.013	331.001	465.875	0.00079558	0.00093845	0.0003049	683.24	6.5763e-06	6.4478e-06	807.33	241.62	1.0191e-05	2.5955e-06	320.69	120.39	83.67	36.808	1.1744e-05	60.935	0.013147	0.021264	0.0059129	764.01	0.00020418	0.00023593	885.77	300.87	0.00022281	0.00023477	370.92	135.84	98.864	42.111	0.00022095	68.2	179.064	193.709	215.616	152.683	256.211	153.118	151.628	157.831	417.479	189.033	156.258	160.598	162.404	166.959	324.850	164.289	-8191	255	
681.457	1	1	0	0	0.12096	0.095893	0.15059	0.18417	0.087861	0.19606	0.33883	0.24035	0.10095	0.16173	0.084053	0.1139	0.4826	0.1907	0.081085	0.17571	-2.0833	-2.2708	-2.7083	-2.7021	-2.1667	-2.7167	-2.4854	-2.35	-2.7896	-2.1729	-2.5396	-2.6312	-2.1896	-2.6729	-2.6	-2.5938	314.644	441.548	407.914	377.639	214.990	401.472	398.882	372.169	418.947	424.642	191.403	378.375	463.292	380.745	194.171	386.560	0.00066972	0.00070827	0.00040867	677.71	7.3231e-06	6.9138e-06	798.18	241.66	1.2167e-05	1.5415e-05	321.1	120.4	83.755	37.166	6.2479e-06	61.83	0.012674	0.020503	0.0055859	755.2	0.00019864	0.00022335	879.05	298.05	0.00021225	0.00022578	369.02	135.36	98.743	42.14	0.00021078	68.484	169.721	225.045	227.183	152.521	267.603	364.672	151.915	158.055	297.087	206.402	156.311	160.472	162.313	166.830	426.637	164.361	-8191	255	
