BOXY.EXE: ISS Imagent and Oximeter Data Acquisition Program Version 0.80
Ascii Record File

#ACQ INFORMATION
2  Detector Channels 
16  External MUX Channels 
1  Auxiliary Channels 
5000  Waveform (CCF) Frequency (Hz)
1  Waveforms Skipped 
30  Waveforms Averaged 
1  Cycles Averaged 
16  Acquisitions per Waveform 
10.0806  Updata Rate (Hz) 

#FILE INFORMATION
TRUE -- External MUX Channel results are PARSED.
FALSE -- AC DC and Phase are NOT grouped.
TRUE -- Companion Program Settings File CREATED.
FALSE -- AC data not excluded
FALSE -- DC data not excluded
FALSE -- Phase data not excluded
FALSE -- Auxillary Chn. data not excluded
Tab delimiters

#CALIBRATION STATE
TRUE -- Waveform Calibration Values APPLIED.


#AUX CALIBRATION VALUES
Val Type	aux-1	

Term	1.0000e+00	
Factor	0.0000e+00	


#WF CALIBRATION VALUES
A = Detector Channel
Val Type	A-AC1	A-AC2	A-AC3	A-AC4	A-AC5	A-AC6	A-AC7	A-AC8	A-AC9	A-AC10	A-AC11	A-AC12	A-AC13	A-AC14	A-AC15	A-AC16	A-DC1	A-DC2	A-DC3	A-DC4	A-DC5	A-DC6	A-DC7	A-DC8	A-DC9	A-DC10	A-DC11	A-DC12	A-DC13	A-DC14	A-DC15	A-DC16	A-Ph1	A-Ph2	A-Ph3	A-Ph4	A-Ph5	A-Ph6	A-Ph7	A-Ph8	A-Ph9	A-Ph10	A-Ph11	A-Ph12	A-Ph13	A-Ph14	A-Ph15	A-Ph16	

Term	0.00000e+00	0.00000e+00	0.00000e+00	0.00000e+00	0.00000e+00	0.00000e+00	0.00000e+00	0.00000e+00	0.00000e+00	0.00000e+00	0.00000e+00	0.00000e+00	0.00000e+00	0.00000e+00	0.00000e+00	0.00000e+00	0.00000e+00	0.00000e+00	0.00000e+00	0.00000e+00	0.00000e+00	0.00000e+00	0.00000e+00	0.00000e+00	0.00000e+00	0.00000e+00	0.00000e+00	0.00000e+00	0.00000e+00	0.00000e+00	0.00000e+00	0.00000e+00	0.00000e+00	0.00000e+00	0.00000e+00	0.00000e+00	0.00000e+00	0.00000e+00	0.00000e+00	0.00000e+00	0.00000e+00	0.00000e+00	0.00000e+00	0.00000e+00	0.00000e+00	0.00000e+00	0.00000e+00	0.00000e+00	
Factor	1.00000e+00	1.00000e+00	1.00000e+00	1.00000e+00	1.00000e+00	1.00000e+00	1.00000e+00	1.00000e+00	1.00000e+00	1.00000e+00	1.00000e+00	1.00000e+00	1.00000e+00	1.00000e+00	1.00000e+00	1.00000e+00	1.00000e+00	1.00000e+00	1.00000e+00	1.00000e+00	1.00000e+00	1.00000e+00	1.00000e+00	1.00000e+00	1.00000e+00	1.00000e+00	1.00000e+00	1.00000e+00	1.00000e+00	1.00000e+00	1.00000e+00	1.00000e+00	X	X	X	X	X	X	X	X	X	X	X	X	X	X	X	X	

B = Detector Channel
Val Type	B-AC1	B-AC2	B-AC3	B-AC4	B-AC5	B-AC6	B-AC7	B-AC8	B-AC9	B-AC10	B-AC11	B-AC12	B-AC13	B-AC14	B-AC15	B-AC16	B-DC1	B-DC2	B-DC3	B-DC4	B-DC5	B-DC6	B-DC7	B-DC8	B-DC9	B-DC10	B-DC11	B-DC12	B-DC13	B-DC14	B-DC15	B-DC16	B-Ph1	B-Ph2	B-Ph3	B-Ph4	B-Ph5	B-Ph6	B-Ph7	B-Ph8	B-Ph9	B-Ph10	B-Ph11	B-Ph12	B-Ph13	B-Ph14	B-Ph15	B-Ph16	

Term	0.00000e+00	0.00000e+00	0.00000e+00	0.00000e+00	0.00000e+00	0.00000e+00	0.00000e+00	0.00000e+00	0.00000e+00	0.00000e+00	0.00000e+00	0.00000e+00	0.00000e+00	0.00000e+00	0.00000e+00	0.00000e+00	0.00000e+00	0.00000e+00	0.00000e+00	0.00000e+00	0.00000e+00	0.00000e+00	0.00000e+00	0.00000e+00	0.00000e+00	0.00000e+00	0.00000e+00	0.00000e+00	0.00000e+00	0.00000e+00	0.00000e+00	0.00000e+00	-7.23465e+01	-1.49617e+02	-1.26872e+02	-1.83762e+02	-5.18693e+01	-6.06153e+01	-1.58526e+02	-1.62015e+02	-4.81224e+01	-7.56965e+01	-1.70957e+02	-1.70833e+02	-1.76992e+02	-1.76825e+02	-4.67194e+01	-1.50028e+02	
Factor	1.63432e-05	1.10510e-04	3.48016e-05	1.52478e-01	1.22918e-06	1.22249e-06	1.63273e-01	5.15583e-02	9.18127e-07	1.18410e-06	8.55517e-02	2.92432e-02	2.25317e-02	9.04730e-03	1.05066e-06	1.29668e-02	1.38578e-06	1.45995e-06	4.07899e-07	7.71863e-02	1.59237e-08	1.59708e-08	7.76724e-02	2.61251e-02	1.59683e-08	1.59842e-08	4.15537e-02	1.42499e-02	1.15109e-02	4.55475e-03	1.60640e-08	6.29093e-03	X	X	X	X	X	X	X	X	X	X	X	X	X	X	X	X	



#DISTANCE SETTINGS
A = Detector Channel
A-1	A-2	A-3	A-4	A-5	A-6	A-7	A-8	A-9	A-10	A-11	A-12	A-13	A-14	A-15	A-16	

2.5000e+00	3.0000e+00	2.5000e+00	3.0000e+00	2.0000e+00	3.0000e+00	1.5000e+00	3.0000e+00	3.0000e+00	3.0000e+00	3.0000e+00	3.0000e+00	3.0000e+00	3.0000e+00	1.5000e+00	3.0000e+00	

B = Detector Channel
B-1	B-2	B-3	B-4	B-5	B-6	B-7	B-8	B-9	B-10	B-11	B-12	B-13	B-14	B-15	B-16	

1.0000e+01	1.0000e+01	1.0000e+01	1.4400e+00	1.0000e+01	1.0000e+01	1.5100e+00	1.9400e+00	1.0000e+01	1.0000e+01	1.9900e+00	2.4900e+00	2.4100e+00	2.9000e+00	1.0000e+01	2.9800e+00	




#DATA BEGINS
time	group	step	mark	flag	A-AC1	A-AC2	A-AC3	A-AC4	A-AC5	A-AC6	A-AC7	A-AC8	A-AC9	A-AC10	A-AC11	A-AC12	A-AC13	A-AC14	A-AC15	A-AC16	A-DC1	A-DC2	A-DC3	A-DC4	A-DC5	A-DC6	A-DC7	A-DC8	A-DC9	A-DC10	A-DC11	A-DC12	A-DC13	A-DC14	A-DC15	A-DC16	A-Ph1	A-Ph2	A-Ph3	A-Ph4	A-Ph5	A-Ph6	A-Ph7	A-Ph8	A-Ph9	A-Ph10	A-Ph11	A-Ph12	A-Ph13	A-Ph14	A-Ph15	A-Ph16	B-AC1	B-AC2	B-AC3	B-AC4	B-AC5	B-AC6	B-AC7	B-AC8	B-AC9	B-AC10	B-AC11	B-AC12	B-AC13	B-AC14	B-AC15	B-AC16	B-DC1	B-DC2	B-DC3	B-DC4	B-DC5	B-DC6	B-DC7	B-DC8	B-DC9	B-DC10	B-DC11	B-DC12	B-DC13	B-DC14	B-DC15	B-DC16	B-Ph1	B-Ph2	B-Ph3	B-Ph4	B-Ph5	B-Ph6	B-Ph7	B-Ph8	B-Ph9	B-Ph10	B-Ph11	B-Ph12	B-Ph13	B-Ph14	B-Ph15	B-Ph16	aux-1	digaux	

2778.696	1	1	0	512	0.17321	0.12073	0.26748	0.37297	0.12911	0.30341	0.35114	0.27013	0.16874	0.13868	0.23273	0.34227	0.2179	0.20009	0.051027	0.37812	-2.2375	-2.8312	-2.4896	-2.7875	-2.7667	-2.5854	-3.1292	-2.8104	-2.4854	-3.0812	-2.5458	-2.85	-2.8708	-2.4729	-2.8792	-2.9292	77.404	221.030	327.926	337.165	339.990	87.091	391.202	393.078	141.963	366.262	359.426	369.846	361.933	95.453	238.635	322.529	0.00073769	0.0026124	0.00047059	562.95	4.0503e-06	4.4162e-05	735.4	234.73	9.4552e-06	2.5283e-05	355.7	176.24	116.9	62.56	1.1663e-05	94.328	0.0044525	0.0051495	0.0015043	792.85	5.145e-05	5.6346e-05	974.66	311.2	5.0386e-05	5.8344e-05	480.48	211.67	145.35	74.376	5.788e-05	107.9	226.766	119.276	354.573	87.040	249.688	234.492	86.171	92.484	285.820	227.140	90.410	94.328	96.604	100.379	286.137	97.536	-8191	255	
2778.770	1	1	0	0	0.18026	0.072538	0.098507	0.23217	0.038338	0.20491	0.050205	0.21909	0.047234	0.16857	0.30194	0.12704	0.24424	0.44983	0.25668	0.19909	-1.8896	-3.0875	-2.4625	-2.6646	-3.0646	-2.3271	-3.1813	-2.7625	-2.3625	-3.1479	-2.6479	-2.6792	-3.1979	-2.5271	-2.8208	-3.1104	181.629	353.445	132.811	407.378	311.558	256.938	251.436	404.335	191.374	221.885	210.619	416.278	386.245	82.960	331.102	354.983	0.0010299	0.0014136	0.00040341	561.13	3.074e-05	1.8827e-05	733.54	232.63	1.6769e-05	1.112e-05	354.21	176.7	116.6	63.037	9.5138e-06	94.908	0.0043136	0.005205	0.0014064	767.93	4.8322e-05	5.4123e-05	940.92	297.37	4.6986e-05	5.4173e-05	459.67	205.89	142.53	73.62	5.0709e-05	106.61	211.232	194.732	334.056	86.752	198.454	138.004	86.369	92.215	246.463	281.131	90.670	94.352	96.343	100.469	326.067	97.478	-8191	255	
2778.866	1	1	0	0	0.16453	0.2873	0.16515	0.13564	0.18343	0.047461	0.33132	0.17876	0.078304	0.15537	0.17641	0.39289	0.21831	0.2394	0.15093	0.1045	-1.9833	-2.9583	-2.7375	-2.6604	-3.0563	-2.4042	-2.7687	-3.0792	-2.2	-2.9333	-2.7667	-2.6	-3.0708	-2.9125	-2.6854	-3.0958	131.953	386.188	311.181	386.438	255.796	343.485	370.662	281.353	292.503	399.749	92.924	389.810	403.080	357.823	280.382	425.926	0.00067583	0.001702	0.00012586	559.7	3.8945e-05	1.4763e-05	739.6	232.72	1.4251e-05	1.4469e-05	350.27	176.13	115.8	62.368	3.5008e-06	95.404	0.0041175	0.0048315	0.0012597	736.49	4.7458e-05	5.0885e-05	915.7	288.14	4.614e-05	4.977e-05	443.69	199.97	140.81	71.88	4.4828e-05	103.77	210.769	141.759	250.427	86.824	219.117	393.844	86.027	92.314	285.274	156.446	90.344	94.550	96.880	100.188	189.347	97.503	-8191	255	
2778.962	1	1	0	0	0.13511	0.2363	0.21189	0.22454	0.068959	0.069916	0.24022	0.1506	0.070249	0.12634	0.19148	0.18505	0.16266	0.069345	0.073145	0.24421	-2.0354	-3.0479	-2.7229	-2.6354	-3.025	-2.475	-2.8729	-3.0479	-2.375	-2.8833	-2.7562	-2.7479	-2.9813	-2.6125	-2.7333	-3.325	320.028	426.638	176.249	163.355	269.797	268.833	333.270	110.507	150.102	232.773	390.572	415.239	383.398	406.548	414.788	329.975	0.00078314	0.0021655	0.00035964	549.89	1.7856e-06	8.7086e-06	717.78	227.16	1.5276e-05	1.3697e-05	342.44	172.97	112.73	61.822	3.3516e-06	94.88	0.0038966	0.0042081	0.0011008	696.87	4.4106e-05	4.4172e-05	863.17	274.12	4.331e-05	4.3427e-05	420.5	193.63	136.63	69.889	3.9947e-05	102.28	214.595	263.343	332.576	87.082	295.969	287.690	86.285	92.717	155.011	424.337	90.028	94.323	96.877	100.516	159.501	97.420	-8191	255	
2779.081	1	1	0	0	0.044466	0.10606	0.31672	0.14342	0.21948	0.22728	0.18402	0.083165	0.41545	0.15284	0.072261	0.05881	0.09923	0.17483	0.090881	0.14433	-1.9375	-2.7812	-2.825	-2.5917	-3.0167	-2.45	-2.5792	-3.2042	-2.4354	-2.8417	-2.7125	-2.6813	-3.1604	-2.5458	-2.5687	-3.1667	240.233	106.026	377.169	363.946	374.352	259.185	143.713	332.345	326.813	141.019	118.826	397.309	416.485	74.669	359.779	347.833	0.00074137	0.0014609	0.00038556	539.9	6.3285e-06	6.3423e-06	696.61	223.44	2.0862e-06	1.0648e-05	335.17	172.18	111.27	61.171	4.5812e-06	94.736	0.0037934	0.0038436	0.00099974	681.6	4.2939e-05	4.0977e-05	830.96	268.9	4.1634e-05	3.9908e-05	403.46	191.23	132.82	68.238	3.5431e-05	101.89	220.961	319.902	276.562	87.101	316.191	80.044	85.838	92.249	231.208	307.293	89.982	94.486	96.399	100.495	165.545	97.556	-8191	255	
2779.177	1	1	0	0	0.19639	0.11378	0.18165	0.24605	0.13483	0.27762	0.30986	0.18036	0.073159	0.22731	0.13408	0.039506	0.19477	0.47776	0.25552	0.097342	-1.9896	-2.8792	-2.8937	-2.6229	-3.1917	-2.4875	-2.6604	-3.3438	-2.4667	-2.7979	-3.0271	-2.5	-3.2646	-2.8896	-2.5333	-3.4562	94.323	323.200	199.796	413.384	335.292	106.354	408.990	246.344	393.478	178.643	103.338	433.057	113.899	424.528	82.748	422.181	0.00061048	0.00045927	0.00047978	530.93	5.4956e-06	7.5352e-06	692.55	218.94	2.9646e-06	2.262e-05	329.45	169.98	109.29	60.811	2.5265e-05	95.205	0.0035366	0.0034848	0.00090071	671.04	3.9935e-05	3.7862e-05	807.47	265.49	3.9094e-05	3.6867e-05	393.19	190.47	129.28	67.072	3.3725e-05	102.19	220.376	304.618	183.270	86.877	355.508	123.031	85.776	92.576	147.568	261.024	89.941	94.425	96.542	100.329	243.198	97.443	-8191	255	
2779.273	1	1	0	0	0.41584	0.20839	0.306	0.35925	0.17037	0.042229	0.23215	0.21061	0.09251	0.28549	0.1114	0.14124	0.1138	0.15945	0.11611	0.16417	-2.2354	-2.6479	-2.7938	-2.4062	-2.9208	-2.6042	-2.7313	-3.05	-2.4708	-2.675	-3.1312	-2.3625	-3.0312	-3.0333	-2.4562	-3.1083	429.915	185.154	160.993	374.322	130.092	317.542	381.188	355.122	182.916	378.341	186.569	391.590	367.307	387.679	134.867	334.853	0.00092813	0.00013891	0.00041608	527.23	4.4437e-06	2.0781e-05	693.55	217.93	1.5559e-05	1.516e-05	334.7	169.82	109.79	60.826	2.419e-05	94.092	0.0033563	0.0032726	0.00086522	670.12	3.767e-05	3.5805e-05	802.85	265.86	3.8043e-05	3.56e-05	397.59	192.3	129.38	67.091	3.5953e-05	103.13	232.195	230.531	132.296	87.176	85.405	379.964	86.223	92.399	208.793	152.201	90.457	94.067	96.400	100.356	276.863	97.840	-8191	255	
2779.369	1	1	0	0	0.11543	0.1795	0.039363	0.18786	0.21438	0.074702	0.1984	0.14482	0.080703	0.074635	0.15058	0.12194	0.18926	0.45281	0.16061	0.32383	-2.0021	-2.5396	-2.9938	-2.5938	-2.7687	-3.0542	-2.5187	-3.0896	-2.5104	-2.4292	-3.0708	-2.5062	-3.1521	-3.0104	-2.3375	-3.1208	116.661	159.940	389.053	85.741	171.464	132.452	75.671	157.869	345.946	347.963	366.970	83.418	74.579	425.182	196.640	329.201	0.00072813	0.00075482	0.0006443	528.39	9.7727e-06	1.2491e-05	716.62	222.48	5.4987e-06	1.0912e-05	345.41	173.56	113.15	61.068	2.5299e-05	95.1	0.0035101	0.003385	0.00098876	702.17	4.1025e-05	3.8422e-05	855.25	279.44	4.1761e-05	3.7963e-05	423.89	199.99	134.67	68.147	4.2248e-05	105.47	236.093	333.255	143.670	87.229	418.352	104.571	86.009	92.315	314.217	253.465	90.438	94.271	96.237	100.299	217.638	97.907	-8191	255	
2779.466	1	1	0	0	0.11264	0.043679	0.41428	0.12453	0.22237	0.16016	0.18567	0.22863	0.19512	0.065586	0.26604	0.08391	0.28755	0.27355	0.11121	0.25342	-2.4938	-2.6	-2.8187	-2.4646	-2.8271	-2.7854	-2.4729	-3.1042	-2.6542	-2.5229	-3.2729	-2.6125	-2.8958	-2.8896	-2.4604	-3.1208	78.084	399.263	151.594	115.178	108.477	310.026	341.620	406.515	95.458	142.613	410.026	345.616	387.426	403.503	91.399	390.980	0.00050867	0.00042397	0.00071952	547.88	8.9056e-06	7.7828e-06	737.91	232.01	1.0183e-05	1.1215e-05	360.67	178.82	115.88	61.64	1.6483e-05	96.223	0.0037871	0.0035869	0.0011421	731.45	4.3486e-05	4.0975e-05	901.32	293	4.4196e-05	4.0447e-05	453.47	206.39	138.81	69.065	4.5945e-05	106.33	210.716	300.830	141.230	86.855	80.088	158.943	86.423	92.271	364.318	242.478	90.381	94.723	96.425	100.331	282.699	97.554	-8191	255	
2779.562	1	1	0	0	0.061603	0.18368	0.17617	0.073396	0.13625	0.0986	0.14313	0.29732	0.17645	0.19824	0.067376	0.19413	0.054606	0.30481	0.1686	0.21088	-2.3333	-2.4083	-3.2229	-2.6312	-2.5312	-2.95	-2.5292	-3.1312	-2.75	-2.3688	-3.1833	-2.5875	-2.7646	-3.3688	-2.2896	-2.9542	245.509	296.969	326.103	89.611	426.677	89.006	395.222	381.189	103.999	175.188	138.074	419.226	402.547	419.511	108.105	283.414	0.00048039	0.0018808	0.0006288	548.03	7.1592e-06	2.2795e-05	751.33	236.86	1.2538e-05	1.7994e-06	366.97	180.4	116.26	61.995	8.6776e-06	96.91	0.0037295	0.003649	0.0011783	724.6	4.1052e-05	4.0817e-05	909.47	292.68	4.1038e-05	4.0358e-05	457.28	205.35	136.79	69.378	4.5413e-05	106.14	211.938	154.778	157.705	87.201	433.291	191.151	86.286	92.143	83.401	392.259	89.975	94.325	96.368	100.406	380.592	97.630	-8191	255	
2779.682	1	1	0	0	0.10412	0.075544	0.035096	0.076017	0.039832	0.098797	0.4622	0.27422	0.17055	0.3768	0.26862	0.1424	0.30596	0.055085	0.12115	0.33022	-2.4208	-2.325	-2.8771	-2.6417	-2.5563	-2.9688	-2.6125	-2.9667	-2.7875	-2.4271	-3.0604	-2.7167	-2.5833	-3.1979	-2.3292	-2.85	289.138	239.386	335.431	221.951	236.561	427.170	363.342	407.189	91.125	124.285	356.299	369.823	85.745	337.317	280.590	409.486	0.0007355	0.0014406	0.000238	551.74	1.1474e-05	3.4821e-05	749.92	241.03	1.0185e-05	1.7362e-05	373.96	179.38	117.09	61.726	9.2081e-06	95.166	0.0035432	0.0038306	0.0011834	727.9	3.9962e-05	4.4417e-05	924.7	297.82	4.1658e-05	4.5314e-05	468.25	207.2	138.83	70.728	4.7888e-05	105.31	245.020	110.093	368.454	86.769	316.250	226.394	86.342	92.401	388.687	172.622	89.987	94.435	95.936	100.469	100.436	97.348	-8191	255	
2779.778	1	1	0	0	0.21515	0.22708	0.14911	0.11926	0.054269	0.1565	0.28973	0.085984	0.29039	0.38486	0.38003	0.15617	0.12928	0.0084104	0.3537	0.29478	-2.6417	-2.45	-3.0104	-2.9938	-2.5417	-3.0896	-2.5125	-2.8042	-2.7604	-2.3667	-2.875	-2.9688	-2.5083	-3.0792	-2.6396	-2.7479	426.045	161.545	229.135	118.430	170.854	429.836	326.586	314.262	430.497	120.932	378.354	321.724	253.796	137.532	160.842	354.199	0.00085982	0.0010795	0.00012694	553.81	1.8703e-05	4.4298e-05	751.17	240.82	1.7541e-05	2.3601e-05	368.78	178.14	116.95	61.21	7.648e-06	94.181	0.0036975	0.0042878	0.0012174	733.93	4.1324e-05	4.7504e-05	928.11	296.79	4.2051e-05	4.7983e-05	461.82	204.45	138.46	70.539	4.7058e-05	104.1	214.554	164.770	310.779	87.116	240.809	175.188	86.230	92.444	214.808	248.078	90.082	94.279	95.959	100.187	416.360	97.377	-8191	255	
2779.873	1	1	0	0	0.12596	0.14196	0.37068	0.37439	0.052874	0.090529	0.22191	0.24803	0.27235	0.13861	0.24048	0.18101	0.27712	0.089414	0.30399	0.24216	-2.4146	-2.4333	-2.7812	-2.7562	-2.4542	-2.9583	-2.7188	-2.4896	-3.0229	-2.5146	-2.7313	-2.9896	-2.6979	-3.0833	-2.7229	-2.7021	349.095	180.417	84.860	83.217	427.425	82.737	342.219	400.071	352.634	227.820	364.802	332.117	384.870	344.575	271.246	351.919	0.00088959	0.00093663	0.00017657	554.97	2.4199e-05	7.2753e-06	747.51	239.24	3.0412e-05	1.1929e-05	368.91	176.5	115.63	60.564	1.2922e-05	94.022	0.0037796	0.0044649	0.0011963	728.47	4.379e-05	4.8668e-05	924.51	293.76	4.4493e-05	4.9127e-05	460.48	202.39	139.96	70.488	4.7696e-05	103.73	227.709	123.671	79.426	86.694	237.929	155.668	85.985	92.079	227.609	283.885	89.600	94.523	96.273	100.183	374.291	97.429	-8191	255	
2779.993	1	1	0	0	0.14928	0.11382	0.18009	0.16986	0.11021	0.21614	0.2453	0.11755	0.16133	0.19143	0.20742	0.29753	0.1785	0.08375	0.062752	0.074351	-2.8021	-2.4417	-2.7083	-2.9354	-2.3167	-3.0167	-2.8042	-2.6312	-2.825	-2.4917	-2.9437	-2.9458	-2.5292	-3.0521	-2.8	-2.4729	189.865	275.301	87.934	109.427	132.774	119.718	417.807	249.534	117.283	325.929	390.998	323.072	79.316	322.249	285.894	392.819	0.0012005	0.00097837	0.00065955	562.73	3.7454e-05	1.5607e-05	750.98	242.4	1.7622e-05	3.0309e-05	371.02	176.9	115.89	60.722	1.0802e-05	93.64	0.0041614	0.0046134	0.0012196	733.97	4.8378e-05	5.0199e-05	932.59	297.28	4.9289e-05	5.0675e-05	465.51	203.69	144.3	71.003	4.9516e-05	104.1	219.080	355.058	334.160	86.760	246.637	163.168	85.931	91.979	244.845	344.694	89.960	94.583	96.332	100.313	324.505	97.822	-8191	255	
2780.065	1	1	0	0	0.22136	0.037654	0.24343	0.20043	0.2981	0.10815	0.11344	0.070118	0.17111	0.089979	0.13914	0.12864	0.12003	0.31683	0.066291	0.058868	-2.8625	-2.45	-2.4604	-3.0479	-2.5146	-2.7313	-3.1292	-2.5146	-3.15	-2.6625	-2.6125	-3.0708	-2.5438	-3.0521	-2.8063	-2.5292	219.338	424.802	103.589	112.090	363.129	377.908	333.859	86.919	74.605	209.206	374.302	329.002	413.073	374.785	124.031	427.393	0.00091361	0.0016931	0.00070413	563.06	2.0986e-05	9.0183e-06	758.14	246.34	3.4452e-06	2.2684e-05	372.82	177.18	115.7	60.201	2.7585e-06	92.519	0.004625	0.0048073	0.0012589	752.66	5.3796e-05	5.3134e-05	948.32	308.36	5.6155e-05	5.4908e-05	477.4	210.65	150.64	72.395	5.4129e-05	106.9	222.228	259.557	386.776	87.157	132.157	220.489	86.188	92.309	362.533	396.386	90.240	94.569	96.285	100.772	431.273	97.795	-8191	255	
2780.161	1	1	0	0	0.1195	0.10442	0.18963	0.45277	0.27072	0.17388	0.22335	0.2241	0.12404	0.05588	0.24098	0.33305	0.1333	0.21865	0.069974	0.26918	-2.5812	-2.5312	-2.5021	-3.0229	-2.4062	-2.8729	-2.8729	-2.575	-3.15	-2.7687	-2.7333	-2.9667	-2.4833	-2.8917	-2.9833	-2.5917	247.715	94.544	201.268	380.106	184.006	387.391	191.018	344.140	290.106	158.201	218.178	86.771	323.660	408.393	173.710	430.710	0.00071656	0.0023577	0.00072109	570.48	2.8756e-06	1.7839e-05	755.15	248.25	5.7856e-06	2.115e-05	374.61	178.89	117.44	60.454	1.3096e-05	93.289	0.0053792	0.0053455	0.0013779	803.38	6.1785e-05	5.9199e-05	972.92	326	6.2584e-05	5.9253e-05	485.74	217.94	153.5	72.744	5.2895e-05	108.85	231.475	333.723	350.176	87.345	181.440	346.006	86.154	92.200	314.408	433.818	90.258	94.798	96.661	100.683	95.380	97.798	-8191	255	
2780.257	1	1	0	0	0.23276	0.13345	0.041025	0.18494	0.088711	0.21721	0.26203	0.29611	0.1556	0.038934	0.22066	0.25208	0.17538	0.15704	0.099928	0.2959	-2.7208	-2.5771	-2.6167	-3.2188	-2.5167	-2.875	-3.0021	-2.5771	-3.0125	-2.6021	-2.4417	-3.425	-2.5062	-2.8333	-2.8667	-2.4813	305.525	340.083	303.327	315.696	140.065	198.712	86.631	369.992	426.109	246.703	345.956	384.566	379.885	288.275	327.973	412.576	0.00080384	0.0010267	0.00046002	569.36	2.6718e-06	2.6491e-05	767.84	249.54	1.851e-05	1.569e-05	376.39	179.2	116.82	60.8	2.3009e-05	94.678	0.0051638	0.0050638	0.0012771	797.9	5.564e-05	5.2047e-05	945.76	319.13	5.3525e-05	5.0612e-05	469.23	214.25	146.11	70.576	4.7484e-05	108.53	225.261	314.980	195.132	87.244	335.946	416.724	86.127	92.397	389.443	386.603	90.132	94.379	96.087	100.896	271.833	98.012	-8191	255	
2780.378	1	1	0	0	0.11386	0.12798	0.029283	0.18272	0.1103	0.12333	0.16746	0.12126	0.17016	0.099808	0.035129	0.079797	0.07081	0.27285	0.32412	0.29397	-2.5354	-2.6896	-2.3917	-2.8646	-2.5979	-2.825	-3.0271	-2.5062	-2.8187	-2.8688	-2.3479	-3.0521	-2.7479	-2.5104	-2.8208	-2.7333	123.155	198.045	324.346	359.229	292.971	420.033	102.197	352.907	344.352	341.566	332.496	432.257	349.514	371.491	249.927	398.178	0.0007644	0.0009373	0.00083378	565.86	3.4768e-05	1.8876e-05	768.95	245.73	6.7204e-06	3.1388e-06	376.18	179.05	116.58	60.691	1.944e-05	95.142	0.0044962	0.0043909	0.0011847	777.71	4.9647e-05	4.5961e-05	935.73	311.76	4.8382e-05	4.5057e-05	464.23	210.22	142.36	68.902	4.6709e-05	107.1	227.471	335.228	184.302	86.718	251.862	400.172	86.090	91.903	308.813	388.361	90.056	94.343	96.422	100.393	244.692	97.673	-8191	255	
