BOXY.EXE: ISS Imagent and Oximeter Data Acquisition Program Version 0.80
Ascii Record File

#ACQ INFORMATION
2  Detector Channels 
16  External MUX Channels 
1  Auxiliary Channels 
5000  Waveform (CCF) Frequency (Hz)
1  Waveforms Skipped 
30  Waveforms Averaged 
1  Cycles Averaged 
16  Acquisitions per Waveform 
10.0806  Updata Rate (Hz) 

#FILE INFORMATION
TRUE -- External MUX Channel results are PARSED.
FALSE -- AC DC and Phase are NOT grouped.
TRUE -- Companion Program Settings File CREATED.
FALSE -- AC data not excluded
FALSE -- DC data not excluded
FALSE -- Phase data not excluded
FALSE -- Auxillary Chn. data not excluded
Tab delimiters

#CALIBRATION STATE
TRUE -- Waveform Calibration Values APPLIED.


#AUX CALIBRATION VALUES
Val Type	aux-1	

Term	1.0000e+00	
Factor	0.0000e+00	


#WF CALIBRATION VALUES
A = Detector Channel
Val Type	A-AC1	A-AC2	A-AC3	A-AC4	A-AC5	A-AC6	A-AC7	A-AC8	A-AC9	A-AC10	A-AC11	A-AC12	A-AC13	A-AC14	A-AC15	A-AC16	A-DC1	A-DC2	A-DC3	A-DC4	A-DC5	A-DC6	A-DC7	A-DC8	A-DC9	A-DC10	A-DC11	A-DC12	A-DC13	A-DC14	A-DC15	A-DC16	A-Ph1	A-Ph2	A-Ph3	A-Ph4	A-Ph5	A-Ph6	A-Ph7	A-Ph8	A-Ph9	A-Ph10	A-Ph11	A-Ph12	A-Ph13	A-Ph14	A-Ph15	A-Ph16	

Term	0.00000e+00	0.00000e+00	0.00000e+00	0.00000e+00	0.00000e+00	0.00000e+00	0.00000e+00	0.00000e+00	0.00000e+00	0.00000e+00	0.00000e+00	0.00000e+00	0.00000e+00	0.00000e+00	0.00000e+00	0.00000e+00	0.00000e+00	0.00000e+00	0.00000e+00	0.00000e+00	0.00000e+00	0.00000e+00	0.00000e+00	0.00000e+00	0.00000e+00	0.00000e+00	0.00000e+00	0.00000e+00	0.00000e+00	0.00000e+00	0.00000e+00	0.00000e+00	0.00000e+00	0.00000e+00	0.00000e+00	0.00000e+00	0.00000e+00	0.00000e+00	0.00000e+00	0.00000e+00	0.00000e+00	0.00000e+00	0.00000e+00	0.00000e+00	0.00000e+00	0.00000e+00	0.00000e+00	0.00000e+00	
Factor	1.00000e+00	1.00000e+00	1.00000e+00	1.00000e+00	1.00000e+00	1.00000e+00	1.00000e+00	1.00000e+00	1.00000e+00	1.00000e+00	1.00000e+00	1.00000e+00	1.00000e+00	1.00000e+00	1.00000e+00	1.00000e+00	1.00000e+00	1.00000e+00	1.00000e+00	1.00000e+00	1.00000e+00	1.00000e+00	1.00000e+00	1.00000e+00	1.00000e+00	1.00000e+00	1.00000e+00	1.00000e+00	1.00000e+00	1.00000e+00	1.00000e+00	1.00000e+00	X	X	X	X	X	X	X	X	X	X	X	X	X	X	X	X	

B = Detector Channel
Val Type	B-AC1	B-AC2	B-AC3	B-AC4	B-AC5	B-AC6	B-AC7	B-AC8	B-AC9	B-AC10	B-AC11	B-AC12	B-AC13	B-AC14	B-AC15	B-AC16	B-DC1	B-DC2	B-DC3	B-DC4	B-DC5	B-DC6	B-DC7	B-DC8	B-DC9	B-DC10	B-DC11	B-DC12	B-DC13	B-DC14	B-DC15	B-DC16	B-Ph1	B-Ph2	B-Ph3	B-Ph4	B-Ph5	B-Ph6	B-Ph7	B-Ph8	B-Ph9	B-Ph10	B-Ph11	B-Ph12	B-Ph13	B-Ph14	B-Ph15	B-Ph16	

Term	0.00000e+00	0.00000e+00	0.00000e+00	0.00000e+00	0.00000e+00	0.00000e+00	0.00000e+00	0.00000e+00	0.00000e+00	0.00000e+00	0.00000e+00	0.00000e+00	0.00000e+00	0.00000e+00	0.00000e+00	0.00000e+00	0.00000e+00	0.00000e+00	0.00000e+00	0.00000e+00	0.00000e+00	0.00000e+00	0.00000e+00	0.00000e+00	0.00000e+00	0.00000e+00	0.00000e+00	0.00000e+00	0.00000e+00	0.00000e+00	0.00000e+00	0.00000e+00	-7.23465e+01	-1.49617e+02	-1.26872e+02	-1.83762e+02	-5.18693e+01	-6.06153e+01	-1.58526e+02	-1.62015e+02	-4.81224e+01	-7.56965e+01	-1.70957e+02	-1.70833e+02	-1.76992e+02	-1.76825e+02	-4.67194e+01	-1.50028e+02	
Factor	1.63432e-05	1.10510e-04	3.48016e-05	1.52478e-01	1.22918e-06	1.22249e-06	1.63273e-01	5.15583e-02	9.18127e-07	1.18410e-06	8.55517e-02	2.92432e-02	2.25317e-02	9.04730e-03	1.05066e-06	1.29668e-02	1.38578e-06	1.45995e-06	4.07899e-07	7.71863e-02	1.59237e-08	1.59708e-08	7.76724e-02	2.61251e-02	1.59683e-08	1.59842e-08	4.15537e-02	1.42499e-02	1.15109e-02	4.55475e-03	1.60640e-08	6.29093e-03	X	X	X	X	X	X	X	X	X	X	X	X	X	X	X	X	



#DISTANCE SETTINGS
A = Detector Channel
A-1	A-2	A-3	A-4	A-5	A-6	A-7	A-8	A-9	A-10	A-11	A-12	A-13	A-14	A-15	A-16	

2.5000e+00	3.0000e+00	2.5000e+00	3.0000e+00	2.0000e+00	3.0000e+00	1.5000e+00	3.0000e+00	3.0000e+00	3.0000e+00	3.0000e+00	3.0000e+00	3.0000e+00	3.0000e+00	1.5000e+00	3.0000e+00	

B = Detector Channel
B-1	B-2	B-3	B-4	B-5	B-6	B-7	B-8	B-9	B-10	B-11	B-12	B-13	B-14	B-15	B-16	

1.0000e+01	1.0000e+01	1.0000e+01	1.4400e+00	1.0000e+01	1.0000e+01	1.5100e+00	1.9400e+00	1.0000e+01	1.0000e+01	1.9900e+00	2.4900e+00	2.4100e+00	2.9000e+00	1.0000e+01	2.9800e+00	




#DATA BEGINS
time	group	step	mark	flag	A-AC1	A-AC2	A-AC3	A-AC4	A-AC5	A-AC6	A-AC7	A-AC8	A-AC9	A-AC10	A-AC11	A-AC12	A-AC13	A-AC14	A-AC15	A-AC16	A-DC1	A-DC2	A-DC3	A-DC4	A-DC5	A-DC6	A-DC7	A-DC8	A-DC9	A-DC10	A-DC11	A-DC12	A-DC13	A-DC14	A-DC15	A-DC16	A-Ph1	A-Ph2	A-Ph3	A-Ph4	A-Ph5	A-Ph6	A-Ph7	A-Ph8	A-Ph9	A-Ph10	A-Ph11	A-Ph12	A-Ph13	A-Ph14	A-Ph15	A-Ph16	B-AC1	B-AC2	B-AC3	B-AC4	B-AC5	B-AC6	B-AC7	B-AC8	B-AC9	B-AC10	B-AC11	B-AC12	B-AC13	B-AC14	B-AC15	B-AC16	B-DC1	B-DC2	B-DC3	B-DC4	B-DC5	B-DC6	B-DC7	B-DC8	B-DC9	B-DC10	B-DC11	B-DC12	B-DC13	B-DC14	B-DC15	B-DC16	B-Ph1	B-Ph2	B-Ph3	B-Ph4	B-Ph5	B-Ph6	B-Ph7	B-Ph8	B-Ph9	B-Ph10	B-Ph11	B-Ph12	B-Ph13	B-Ph14	B-Ph15	B-Ph16	aux-1	digaux	

2868.324	1	1	0	512	0.27672	0.2029	0.32128	0.18034	0.18412	0.089078	0.40816	0.36906	0.33064	0.021342	0.29648	0.31096	0.26458	0.1406	0.1763	0.093657	-1.7333	-2.8396	-2.1583	-2.3896	-2.8083	-2.1604	-2.4917	-2.8083	-2.075	-2.7771	-2.6625	-2.2	-2.975	-2.2167	-2.4708	-2.7917	342.225	130.590	190.931	426.840	147.928	432.868	387.730	381.052	262.504	419.348	380.747	121.546	155.894	92.556	326.081	342.048	0.000374	0.00058819	0.00012042	924.9	9.1214e-06	8.9528e-06	1164.8	257.58	4.6785e-06	4.4908e-06	369.64	88.97	54.478	13.62	1.8759e-06	27.216	0.0011162	0.0011611	0.0002997	983.07	1.2734e-05	1.2559e-05	1223.6	275.38	1.2679e-05	1.2175e-05	394.95	97.838	63.622	17.043	1.1023e-05	31.433	217.434	262.465	278.052	91.467	228.848	429.950	90.818	95.909	226.379	93.353	94.744	100.878	101.102	108.086	229.762	106.152	-8191	255	
2868.445	1	1	0	0	0.10509	0.070333	0.30725	0.071407	0.073656	0.031214	0.055115	0.158	0.11157	0.24775	0.10393	0.038732	0.22801	0.10788	0.043452	0.30428	-1.6979	-2.5271	-2.7292	-2.2625	-2.7	-2.4625	-2.5604	-2.9125	-2.0687	-2.6542	-2.8042	-2.225	-3.0312	-2.1896	-2.5021	-2.6521	105.917	237.232	341.372	115.723	338.841	243.274	259.836	297.044	220.641	127.743	424.376	123.399	399.002	157.054	95.572	368.106	0.00030748	0.00049354	5.8219e-05	930.9	1.0511e-05	2.9559e-06	1171.3	257.1	4.4909e-06	2.6853e-06	366.13	88.456	54.165	13.446	2.5886e-06	26.967	0.0011169	0.0010755	0.00028007	985.82	1.268e-05	1.1771e-05	1224.2	276.07	1.2888e-05	1.1768e-05	391	98.231	63.31	16.874	1.1153e-05	31.463	218.708	236.595	94.826	91.638	237.577	413.764	90.971	95.826	189.316	410.317	94.920	101.041	101.287	107.309	194.257	106.317	-8191	255	
2868.541	1	1	0	0	0.084134	0.16592	0.16289	0.091404	0.1837	0.22631	0.1227	0.27301	0.036159	0.22265	0.342	0.22627	0.14387	0.32542	0.14881	0.14671	-1.9271	-2.5875	-2.6667	-2.2438	-2.7812	-2.5604	-2.2917	-2.8917	-2.075	-2.2771	-2.8	-2.1771	-2.8875	-2.4854	-2.4458	-2.8833	323.557	140.706	414.112	337.274	276.918	213.968	321.645	399.697	289.796	327.448	338.633	417.176	373.699	427.075	300.504	117.020	0.00019944	0.00022209	5.2692e-05	929.02	1.1865e-06	7.8478e-06	1156.9	252.75	5.1476e-06	1.7048e-06	358.03	86.724	52.898	13.026	6.2467e-06	26.482	0.0011759	0.0011157	0.00029163	992.47	1.3483e-05	1.2594e-05	1215.7	274.74	1.3681e-05	1.2659e-05	386.29	98.312	62.658	16.762	1.2145e-05	31.827	221.810	224.533	295.123	91.763	240.521	102.015	90.953	96.052	175.848	219.414	95.046	101.267	101.844	107.916	209.954	106.622	-8191	255	
2868.637	1	1	0	0	0.26512	0.26284	0.16247	0.043999	0.086798	0.098176	0.12162	0.13097	0.073411	0.35637	0.48231	0.20086	0.086392	0.22796	0.070323	0.081163	-1.9646	-2.3146	-2.6562	-2.2625	-2.7125	-2.5771	-2.3458	-2.7958	-2.1917	-2.4146	-2.7708	-2.2188	-2.9125	-2.5208	-2.25	-2.8083	170.154	213.202	411.026	303.191	147.680	84.619	282.815	306.950	325.344	409.783	375.240	394.830	292.550	113.048	99.415	229.020	0.00018871	6.0408e-05	0.00013738	928.97	2.5372e-06	5.3741e-06	1170.5	254.06	3.3049e-06	2.7788e-07	364.25	86.592	53.246	13.204	6.1039e-06	26.645	0.0012251	0.0011739	0.00031822	1001.7	1.3962e-05	1.3046e-05	1233.3	278.87	1.4047e-05	1.2858e-05	394.87	99.788	63.254	16.88	1.3464e-05	32.349	194.224	152.133	167.420	92.837	352.794	384.128	91.489	96.178	332.467	266.977	95.145	101.267	101.633	108.352	250.452	106.493	-8191	255	
2868.733	1	1	0	0	0.032542	0.15719	0.1157	0.13644	0.33806	0.17137	0.081355	0.20698	0.18655	0.23504	0.14676	0.16401	0.27816	0.020165	0.30033	0.12235	-1.8167	-2.1771	-2.8646	-2.2125	-2.4104	-2.6833	-2.1896	-2.9188	-2.4708	-2.3833	-3.0417	-2.2146	-2.6708	-2.5771	-2.1083	-2.8667	154.092	150.119	92.306	405.234	316.565	251.250	390.631	412.339	294.118	117.153	257.503	419.549	279.633	434.648	435.739	428.648	0.00022359	0.00019709	0.00025437	946.51	1.3906e-06	3.1109e-06	1194.6	259.03	4.8756e-06	5.1495e-06	372.52	88.398	54.403	13.362	9.0894e-06	26.646	0.001236	0.0011671	0.00035079	1024.4	1.3815e-05	1.2916e-05	1260.9	284.9	1.3929e-05	1.2619e-05	406.8	101.45	64.044	16.925	1.4372e-05	32.388	236.431	344.224	197.068	91.648	194.652	270.974	90.941	96.015	229.961	379.103	94.869	100.649	101.084	107.211	247.832	106.303	-8191	255	
2868.829	1	1	0	0	0.22241	0.014367	0.11561	0.24165	0.10516	0.091246	0.28742	0.027133	0.238	0.051858	0.049985	0.43139	0.20119	0.22211	0.16942	0.040604	-2.1188	-2.1917	-2.7521	-2.3917	-2.5729	-2.7833	-2.2188	-2.6917	-2.5792	-2.4313	-2.8417	-2.2646	-2.4917	-2.625	-2.1479	-2.6125	149.630	374.298	326.171	375.560	290.541	227.495	390.459	357.561	250.178	221.762	292.946	418.116	375.905	426.256	411.934	103.415	0.00018605	0.00056422	0.0002223	960.67	5.5266e-06	8.0352e-06	1201.3	261.8	8.0373e-07	8.1862e-06	371.16	87.85	53.847	13.084	1.3651e-05	26.306	0.0011869	0.0011245	0.00036486	1034.1	1.2883e-05	1.2282e-05	1271.2	285.25	1.2646e-05	1.1815e-05	402.49	98.94	62.527	16.437	1.3734e-05	31.141	236.709	150.025	188.116	91.747	202.962	207.672	91.119	96.223	340.822	187.646	94.818	101.040	101.222	107.489	171.869	106.419	-8191	255	
2868.924	1	1	0	0	0.14509	0.19162	0.077616	0.14329	0.21445	0.013432	0.14639	0.042573	0.047689	0.25892	0.1875	0.17653	0.27486	0.087308	0.20117	0.15342	-2.1562	-2.2271	-2.9458	-2.4021	-2.4917	-2.6125	-2.4771	-2.8146	-2.6792	-2.025	-2.9958	-2.4313	-2.5187	-2.7021	-2.0583	-2.7271	116.354	191.099	280.878	100.167	127.511	92.351	320.310	228.139	94.456	383.341	393.245	122.052	128.631	410.098	223.384	399.909	0.0001406	0.0010352	0.00010653	945.49	5.443e-06	8.1083e-06	1180.6	256.7	2.2147e-06	5.4537e-06	364.46	86.032	53.337	13.233	3.5778e-06	26.38	0.0010523	0.0010698	0.0003489	1013.4	1.1673e-05	1.2077e-05	1249.9	278.2	1.1873e-05	1.2189e-05	396.04	97.216	61.606	16.673	1.3892e-05	31.082	234.020	149.427	201.986	91.775	291.171	222.027	91.015	95.540	272.362	230.227	94.748	100.630	100.835	107.254	410.999	106.196	-8191	255	
2869.022	1	1	0	0	0.13685	0.082988	0.18309	0.080862	0.1573	0.092481	0.17596	0.13494	0.16017	0.2092	0.1283	0.09939	0.099543	0.33946	0.17606	0.15009	-2.1854	-2.075	-2.5729	-2.5104	-2.2729	-2.7188	-2.1542	-2.7021	-2.7188	-2.225	-2.9583	-2.4021	-2.3	-2.9375	-2.0146	-2.5812	179.881	378.023	436.756	118.656	171.991	100.252	350.623	412.014	238.703	349.221	338.465	304.651	294.832	82.612	408.045	86.029	0.00024844	0.00071952	0.00019015	936.1	3.7753e-06	1.2565e-05	1172.6	254.73	5.7841e-06	4.9564e-06	362.39	86.922	52.998	13.342	1.2609e-06	26.792	0.0010178	0.0011474	0.0003459	998.84	1.1234e-05	1.2865e-05	1238	275.15	1.1384e-05	1.2943e-05	394.4	97.289	60.988	17.021	1.3212e-05	31.401	217.872	150.732	175.246	91.552	80.312	221.663	90.880	95.582	244.745	208.280	94.483	100.913	100.712	107.832	195.057	106.027	-8191	255	
2869.140	1	1	0	0	0.18318	0.18649	0.279	0.15356	0.28508	0.21677	0.1738	0.040466	0.20178	0.095858	0.066255	0.33098	0.20225	0.082948	0.20884	0.17044	-2.2	-1.9375	-2.6667	-2.5833	-2.3208	-2.8125	-2.4854	-2.4667	-2.6833	-2.0854	-2.8021	-2.5	-2.1625	-2.5854	-2.1396	-2.4625	225.062	181.333	414.577	292.023	175.430	79.833	353.819	277.377	190.100	132.106	411.369	408.928	323.776	421.075	375.165	370.794	0.00029746	0.000182	0.00010483	926.31	1.0299e-05	7.1283e-06	1167.6	255.16	5.4588e-06	5.1089e-06	367.43	88.217	54.004	13.522	3.9661e-06	27.121	0.0010042	0.0012101	0.00032784	989.15	1.1215e-05	1.3217e-05	1232.3	274.76	1.1375e-05	1.3142e-05	396.05	98.06	61.856	17.165	1.1996e-05	31.264	226.241	211.902	275.539	91.581	239.397	265.326	90.894	95.469	241.294	265.225	94.486	100.753	101.293	107.288	190.414	106.229	-8191	255	
2869.237	1	1	0	0	0.12829	0.36264	0.081497	0.4365	0.085306	0.17145	0.17226	0.09609	0.27361	0.11811	0.11253	0.16208	0.17523	0.3851	0.051757	0.047531	-2.1979	-2.1312	-2.6396	-2.6854	-2.0333	-2.9375	-2.5187	-2.3917	-2.8167	-2.1167	-2.6604	-2.7896	-2.1437	-2.6896	-2.3208	-2.1708	163.880	131.656	229.979	423.000	340.685	360.781	326.042	380.375	232.927	346.597	420.148	141.241	319.162	332.766	118.899	411.044	0.00036362	0.00056658	0.00012325	924.88	1.2743e-05	4.962e-06	1168.8	255.37	4.5297e-06	6.2351e-06	365.36	87.465	54.054	13.291	3.0525e-06	26.263	0.00099016	0.0011492	0.00028996	980.73	1.0977e-05	1.2239e-05	1222.7	272.31	1.1249e-05	1.2222e-05	390.45	96.314	61.98	16.726	1.1195e-05	30.133	216.512	174.142	242.775	91.551	221.123	153.858	90.865	95.585	185.718	245.296	94.528	100.741	101.323	108.007	141.768	106.517	-8191	255	
2869.333	1	1	0	0	0.15786	0.22882	0.14103	0.15724	0.12881	0.1098	0.32725	0.27496	0.2609	0.44242	0.33291	0.1891	0.19049	0.19243	0.069444	0.078137	-2.5104	-1.9479	-2.3896	-2.8688	-2.1396	-2.5417	-2.5083	-2.3	-2.7062	-2.1917	-2.6667	-2.6312	-2.1146	-2.7333	-2.5583	-2.2917	155.854	153.852	182.489	394.756	206.218	288.833	385.480	283.331	291.255	293.670	105.414	328.864	145.409	163.003	117.379	424.144	0.00040017	0.00033551	0.00028733	932.1	7.0691e-06	2.1987e-06	1157.4	254.79	2.0686e-06	3.6527e-06	359.2	86.831	53.872	13.234	4.6668e-06	25.995	0.0010266	0.001094	0.00027587	982.56	1.1584e-05	1.1715e-05	1211.2	271.88	1.1673e-05	1.1631e-05	384.39	94.946	62.273	16.448	1.0615e-05	29.757	225.758	162.020	220.046	91.648	278.743	127.548	90.907	95.423	153.906	364.626	94.630	100.833	100.866	107.596	260.075	106.422	-8191	255	
2869.429	1	1	0	0	0.31771	0.14689	0.20497	0.21274	0.39342	0.031856	0.39683	0.1054	0.33445	0.1692	0.071541	0.21532	0.31293	0.21089	0.0093952	0.36577	-2.4521	-2.3792	-2.3521	-2.925	-2.0354	-2.7687	-2.6167	-2.4125	-3.0771	-2.625	-2.4521	-2.8187	-2.3729	-2.6958	-2.5958	-2.0604	346.522	315.208	256.583	417.912	138.642	386.156	348.481	309.337	193.098	392.508	146.182	356.006	402.080	416.763	183.121	368.311	0.00023172	0.0003932	2.5763e-05	928.53	4.7035e-06	4.0854e-06	1161.8	257.37	4.9259e-06	6.2036e-06	362.87	87.506	54.407	12.995	2.7246e-06	25.996	0.0010507	0.0010318	0.00026198	981.72	1.1904e-05	1.1135e-05	1210.9	274.8	1.2009e-05	1.1181e-05	386.81	96.184	62.853	16.296	1.041e-05	30.2	225.012	181.091	118.429	91.882	287.282	305.303	90.959	95.824	183.412	177.880	94.562	100.785	101.208	107.655	233.480	106.723	-8191	255	
2869.550	1	1	0	0	0.24751	0.24914	0.10219	0.1484	0.31464	0.15544	0.17552	0.11384	0.011752	0.13803	0.28685	0.13391	0.14081	0.24945	0.074212	0.08327	-2.5187	-2.3104	-2.2542	-3.0458	-2.2833	-2.4667	-2.8354	-2.2021	-2.8438	-2.4333	-2.4146	-2.9354	-2.1813	-2.4479	-2.7021	-2.0354	421.637	178.365	160.497	100.763	220.403	138.577	360.358	400.063	113.554	422.189	382.849	408.286	259.897	123.791	108.816	341.233	0.00019814	0.00076197	0.00010064	935.99	5.6153e-06	1.9668e-06	1170.9	259.09	2.712e-06	8.3109e-06	364.91	87.362	54.124	13.072	1.8572e-06	26.273	0.0010778	0.0010259	0.00026066	992.53	1.2228e-05	1.1044e-05	1219.4	277.83	1.2208e-05	1.1189e-05	389.07	97.325	62.693	16.288	1.062e-05	30.783	231.665	435.677	130.998	92.068	380.176	384.453	91.152	95.737	354.767	194.653	94.620	101.147	100.955	107.679	257.689	106.634	-8191	255	
2869.621	1	1	0	0	0.11306	0.22975	0.32843	0.085721	0.12334	0.082435	0.25484	0.32941	0.012476	0.32212	0.053299	0.10934	0.14041	0.10128	0.20811	0.25679	-2.3292	-2.4771	-2.1604	-2.7438	-2.1292	-2.4917	-2.9313	-2.15	-2.6021	-2.4042	-2.1375	-2.6167	-2.2021	-2.3812	-2.6375	-2.3354	128.173	291.120	172.388	118.315	162.901	334.443	367.326	376.520	422.801	116.702	208.474	284.348	325.678	181.411	155.680	416.340	0.00033219	0.00029409	6.3348e-05	928.49	1.9932e-06	1.4319e-06	1159.6	253.74	4.1875e-06	3.6605e-06	358.72	85.408	52.621	12.878	1.0382e-05	25.84	0.0010837	0.0010454	0.00027099	992.75	1.2243e-05	1.1119e-05	1211	273.89	1.1916e-05	1.1009e-05	381.45	96.139	61.068	15.92	1.0658e-05	30.407	228.367	423.185	171.362	91.752	225.752	393.964	90.980	95.687	436.733	241.964	94.450	101.037	101.038	107.741	254.171	106.549	-8191	255	
2869.742	1	1	0	0	0.091547	0.073367	0.37066	0.16664	0.39494	0.22747	0.3253	0.2103	0.17148	0.039211	0.20805	0.27854	0.22106	0.2078	0.037646	0.15344	-2.2625	-2.5417	-2.0708	-3.0938	-2.2229	-2.4625	-3.0563	-2.0458	-2.6688	-2.7562	-2.0729	-2.8167	-2.3875	-2.175	-2.9333	-2.1875	203.413	377.686	238.076	94.028	105.092	412.196	390.931	385.367	227.701	87.916	131.769	435.247	87.675	140.736	350.724	292.221	0.00019064	0.00042453	0.00043326	921.97	3.9773e-06	3.2891e-06	1150.3	253.13	3.8955e-06	7.7564e-06	357.03	85.773	53.417	12.991	5.2352e-06	25.76	0.00098457	0.00095455	0.0002684	980.76	1.119e-05	1.0129e-05	1202.2	273.77	1.0929e-05	1.0171e-05	382.44	95.627	61.013	15.789	1.1199e-05	30.25	232.532	173.071	169.408	91.828	357.959	350.484	91.036	95.708	393.487	265.118	94.689	100.523	100.748	107.969	261.030	106.508	-8191	255	
2869.836	1	1	0	0	0.23624	0.14535	0.31633	0.16263	0.22007	0.39508	0.2703	0.29247	0.18833	0.16313	0.1527	0.11254	0.25999	0.15056	0.14798	0.073116	-1.975	-2.5667	-2.0042	-2.7542	-2.3312	-2.3937	-3.1312	-2.1479	-2.5771	-2.8187	-2.2604	-2.9229	-2.4375	-2.2479	-2.8375	-2.1312	194.604	134.959	303.301	383.862	187.947	169.753	366.806	330.324	402.134	222.347	435.164	271.336	310.496	346.761	399.701	294.191	0.00018886	0.00046262	0.00011063	926.6	7.3771e-06	2.926e-06	1156.5	258.38	2.2002e-06	2.5342e-06	364.02	86.907	54.575	13.038	5.4621e-06	25.885	0.00094182	0.00091102	0.00028557	986.08	1.0742e-05	9.8187e-06	1213.7	277.5	1.0528e-05	9.9994e-06	390.11	96.475	61.868	15.904	1.1718e-05	30.107	230.567	432.347	228.955	91.708	196.352	172.904	91.564	96.253	234.798	309.968	94.840	100.966	101.310	107.404	223.461	106.854	-8191	255	
2869.932	1	1	0	0	0.26312	0.12722	0.26472	0.12225	0.099647	0.15057	0.39025	0.25023	0.0878	0.17306	0.085763	0.30446	0.13476	0.24943	0.15268	0.16158	-2.2188	-2.7875	-2.0667	-2.7542	-2.5667	-2.1479	-3.0542	-2.225	-2.4896	-2.5917	-2.2083	-2.7417	-2.5542	-2.0354	-2.8063	-2.2625	281.787	283.992	184.448	321.303	134.300	315.616	386.371	366.074	230.530	129.104	274.102	287.274	129.556	217.402	238.065	418.452	0.00022263	0.00044317	0.00020207	938.99	6.6294e-06	9.1789e-06	1168.4	262.32	5.687e-06	9.7693e-06	365.9	87.631	54.752	13.142	3.3049e-06	25.738	0.00090334	0.00091142	0.00029597	995.92	1.0218e-05	9.9375e-06	1225.6	280.34	9.9479e-06	1.0195e-05	393.25	96.315	61.621	15.969	1.1506e-05	29.677	221.095	158.390	142.419	92.008	222.931	230.704	91.351	95.887	219.968	205.012	94.769	101.216	101.198	107.828	266.845	106.457	-8191	255	
2870.029	1	1	0	0	0.20552	0.079689	0.059579	0.17316	0.23051	0.16322	0.23261	0.34805	0.23066	0.043406	0.33057	0.1134	0.01713	0.13089	0.20509	0.24671	-1.8354	-2.6667	-1.9896	-2.7625	-2.7229	-2.3083	-3.0396	-2.4396	-2.3833	-2.7583	-2.3396	-2.4229	-2.7146	-2.0854	-3.0646	-2.4292	281.112	144.720	378.014	316.040	349.852	381.743	378.573	365.549	351.495	170.513	353.313	290.490	303.956	86.347	87.383	390.935	0.00022299	0.00073394	0.00021173	932.39	1.926e-06	1.9266e-06	1159.7	258.85	2.0814e-06	8.4254e-06	361.07	86.348	53.668	12.933	3.835e-06	25.2	0.00084616	0.00094212	0.00028982	985.58	9.5537e-06	1.0278e-05	1212.6	276.32	9.3596e-06	1.0701e-05	387.07	94.66	60.676	15.965	1.1291e-05	29.047	216.405	125.791	117.015	91.934	195.572	199.452	91.407	95.911	240.545	265.846	94.550	100.773	101.602	107.990	340.726	106.744	-8191	255	
