BOXY.EXE: ISS Imagent and Oximeter Data Acquisition Program Version 0.80
Ascii Record File

#ACQ INFORMATION
2  Detector Channels 
16  External MUX Channels 
1  Auxiliary Channels 
5000  Waveform (CCF) Frequency (Hz)
1  Waveforms Skipped 
30  Waveforms Averaged 
1  Cycles Averaged 
16  Acquisitions per Waveform 
10.0806  Updata Rate (Hz) 

#FILE INFORMATION
TRUE -- External MUX Channel results are PARSED.
FALSE -- AC DC and Phase are NOT grouped.
TRUE -- Companion Program Settings File CREATED.
FALSE -- AC data not excluded
FALSE -- DC data not excluded
FALSE -- Phase data not excluded
FALSE -- Auxillary Chn. data not excluded
Tab delimiters

#CALIBRATION STATE
TRUE -- Waveform Calibration Values APPLIED.


#AUX CALIBRATION VALUES
Val Type	aux-1	

Term	1.0000e+00	
Factor	0.0000e+00	


#WF CALIBRATION VALUES
A = Detector Channel
Val Type	A-AC1	A-AC2	A-AC3	A-AC4	A-AC5	A-AC6	A-AC7	A-AC8	A-AC9	A-AC10	A-AC11	A-AC12	A-AC13	A-AC14	A-AC15	A-AC16	A-DC1	A-DC2	A-DC3	A-DC4	A-DC5	A-DC6	A-DC7	A-DC8	A-DC9	A-DC10	A-DC11	A-DC12	A-DC13	A-DC14	A-DC15	A-DC16	A-Ph1	A-Ph2	A-Ph3	A-Ph4	A-Ph5	A-Ph6	A-Ph7	A-Ph8	A-Ph9	A-Ph10	A-Ph11	A-Ph12	A-Ph13	A-Ph14	A-Ph15	A-Ph16	

Term	0.00000e+00	0.00000e+00	0.00000e+00	0.00000e+00	0.00000e+00	0.00000e+00	0.00000e+00	0.00000e+00	0.00000e+00	0.00000e+00	0.00000e+00	0.00000e+00	0.00000e+00	0.00000e+00	0.00000e+00	0.00000e+00	0.00000e+00	0.00000e+00	0.00000e+00	0.00000e+00	0.00000e+00	0.00000e+00	0.00000e+00	0.00000e+00	0.00000e+00	0.00000e+00	0.00000e+00	0.00000e+00	0.00000e+00	0.00000e+00	0.00000e+00	0.00000e+00	0.00000e+00	0.00000e+00	0.00000e+00	0.00000e+00	0.00000e+00	0.00000e+00	0.00000e+00	0.00000e+00	0.00000e+00	0.00000e+00	0.00000e+00	0.00000e+00	0.00000e+00	0.00000e+00	0.00000e+00	0.00000e+00	
Factor	1.00000e+00	1.00000e+00	1.00000e+00	1.00000e+00	1.00000e+00	1.00000e+00	1.00000e+00	1.00000e+00	1.00000e+00	1.00000e+00	1.00000e+00	1.00000e+00	1.00000e+00	1.00000e+00	1.00000e+00	1.00000e+00	1.00000e+00	1.00000e+00	1.00000e+00	1.00000e+00	1.00000e+00	1.00000e+00	1.00000e+00	1.00000e+00	1.00000e+00	1.00000e+00	1.00000e+00	1.00000e+00	1.00000e+00	1.00000e+00	1.00000e+00	1.00000e+00	X	X	X	X	X	X	X	X	X	X	X	X	X	X	X	X	

B = Detector Channel
Val Type	B-AC1	B-AC2	B-AC3	B-AC4	B-AC5	B-AC6	B-AC7	B-AC8	B-AC9	B-AC10	B-AC11	B-AC12	B-AC13	B-AC14	B-AC15	B-AC16	B-DC1	B-DC2	B-DC3	B-DC4	B-DC5	B-DC6	B-DC7	B-DC8	B-DC9	B-DC10	B-DC11	B-DC12	B-DC13	B-DC14	B-DC15	B-DC16	B-Ph1	B-Ph2	B-Ph3	B-Ph4	B-Ph5	B-Ph6	B-Ph7	B-Ph8	B-Ph9	B-Ph10	B-Ph11	B-Ph12	B-Ph13	B-Ph14	B-Ph15	B-Ph16	

Term	0.00000e+00	0.00000e+00	0.00000e+00	0.00000e+00	0.00000e+00	0.00000e+00	0.00000e+00	0.00000e+00	0.00000e+00	0.00000e+00	0.00000e+00	0.00000e+00	0.00000e+00	0.00000e+00	0.00000e+00	0.00000e+00	0.00000e+00	0.00000e+00	0.00000e+00	0.00000e+00	0.00000e+00	0.00000e+00	0.00000e+00	0.00000e+00	0.00000e+00	0.00000e+00	0.00000e+00	0.00000e+00	0.00000e+00	0.00000e+00	0.00000e+00	0.00000e+00	-1.19857e+02	-1.24507e+02	-1.35452e+02	-1.83472e+02	-6.00384e+01	-4.75453e+01	-1.57982e+02	-1.62015e+02	-6.06145e+01	-8.17819e+01	-1.70621e+02	-1.71027e+02	-1.79027e+02	-1.76789e+02	-5.07464e+01	-1.49691e+02	
Factor	1.74378e-05	1.02985e-04	3.40426e-05	1.56174e-01	9.33459e-07	1.34348e-06	1.70957e-01	5.49417e-02	8.43037e-07	1.23105e-06	9.08538e-02	2.97122e-02	2.77676e-02	9.37205e-03	9.74277e-07	1.31938e-02	1.29289e-06	1.35560e-06	3.76670e-07	7.60921e-02	1.47965e-08	1.48193e-08	7.83401e-02	2.67541e-02	1.47987e-08	1.48410e-08	4.23708e-02	1.39488e-02	1.35316e-02	4.53434e-03	1.47790e-08	6.16309e-03	X	X	X	X	X	X	X	X	X	X	X	X	X	X	X	X	



#DISTANCE SETTINGS
A = Detector Channel
A-1	A-2	A-3	A-4	A-5	A-6	A-7	A-8	A-9	A-10	A-11	A-12	A-13	A-14	A-15	A-16	

2.5000e+00	3.0000e+00	2.5000e+00	3.0000e+00	2.0000e+00	3.0000e+00	1.5000e+00	3.0000e+00	3.0000e+00	3.0000e+00	3.0000e+00	3.0000e+00	3.0000e+00	3.0000e+00	1.5000e+00	3.0000e+00	

B = Detector Channel
B-1	B-2	B-3	B-4	B-5	B-6	B-7	B-8	B-9	B-10	B-11	B-12	B-13	B-14	B-15	B-16	

1.0000e+01	1.0000e+01	1.0000e+01	1.4400e+00	1.0000e+01	1.0000e+01	1.5100e+00	1.9400e+00	1.0000e+01	1.0000e+01	1.9900e+00	2.4900e+00	2.4100e+00	2.9000e+00	1.0000e+01	2.9800e+00	




#DATA BEGINS
time	group	step	mark	flag	A-AC1	A-AC2	A-AC3	A-AC4	A-AC5	A-AC6	A-AC7	A-AC8	A-AC9	A-AC10	A-AC11	A-AC12	A-AC13	A-AC14	A-AC15	A-AC16	A-DC1	A-DC2	A-DC3	A-DC4	A-DC5	A-DC6	A-DC7	A-DC8	A-DC9	A-DC10	A-DC11	A-DC12	A-DC13	A-DC14	A-DC15	A-DC16	A-Ph1	A-Ph2	A-Ph3	A-Ph4	A-Ph5	A-Ph6	A-Ph7	A-Ph8	A-Ph9	A-Ph10	A-Ph11	A-Ph12	A-Ph13	A-Ph14	A-Ph15	A-Ph16	B-AC1	B-AC2	B-AC3	B-AC4	B-AC5	B-AC6	B-AC7	B-AC8	B-AC9	B-AC10	B-AC11	B-AC12	B-AC13	B-AC14	B-AC15	B-AC16	B-DC1	B-DC2	B-DC3	B-DC4	B-DC5	B-DC6	B-DC7	B-DC8	B-DC9	B-DC10	B-DC11	B-DC12	B-DC13	B-DC14	B-DC15	B-DC16	B-Ph1	B-Ph2	B-Ph3	B-Ph4	B-Ph5	B-Ph6	B-Ph7	B-Ph8	B-Ph9	B-Ph10	B-Ph11	B-Ph12	B-Ph13	B-Ph14	B-Ph15	B-Ph16	aux-1	digaux	

36439.215	1	1	0	768	0.15329	0.18151	0.067869	0.2521	0.32615	0.26728	0.036686	0.28434	0.096857	0.27792	0.10094	0.093288	0.23743	0.11477	0.37203	0.2851	-3.6771	-3.8583	-3.4229	-4.3521	-3.4167	-3.6125	-4.4271	-3.3708	-3.9146	-3.9646	-3.6292	-4.2458	-3.725	-3.5938	-4.2375	-3.5354	173.878	74.355	326.971	64.640	62.357	117.291	209.422	322.420	262.055	337.440	176.776	407.211	362.092	140.541	352.743	377.142	0.00049059	0.00057878	0.00027681	1205.6	1.4626e-05	6.6047e-06	1426.1	306.85	5.0935e-06	6.6402e-06	438.87	131.97	75.503	25.721	1.0708e-05	58.017	0.0011736	0.0012058	0.00033399	1166.3	1.3223e-05	1.3161e-05	1371.5	303.6	1.3115e-05	1.3205e-05	434.46	132.25	80.368	27.29	1.3082e-05	57.982	152.876	215.499	364.186	72.980	197.072	309.454	72.650	76.897	191.758	182.328	75.875	81.233	82.168	86.165	139.215	84.839	-8191	255	
36439.309	1	1	0	0	0.21407	0.15708	0.072405	0.14107	0.24423	0.14082	0.068223	0.022174	0.17326	0.26669	0.13112	0.2306	0.19222	0.17008	0.25244	0.10673	-3.6333	-3.9583	-3.4458	-4.3333	-3.7354	-3.5479	-4.4104	-3.5187	-3.8667	-4.1292	-3.6688	-4.2771	-3.8979	-3.4938	-4.2729	-3.6604	390.389	76.769	318.127	66.260	120.258	205.545	300.587	359.350	128.225	283.473	360.968	288.522	256.498	393.208	159.053	327.245	0.00046575	0.00067022	0.00039668	1220	1.5052e-06	1.0456e-05	1437	307.74	2.3695e-06	1.0224e-05	442.9	131.7	76.493	25.626	1.2553e-05	57.579	0.0011778	0.001209	0.00033574	1179.7	1.3331e-05	1.3075e-05	1387.8	305.52	1.3186e-05	1.3255e-05	437.78	132.24	80.661	27.192	1.3101e-05	57.674	170.626	298.905	61.972	72.764	66.084	208.244	72.884	77.044	95.604	256.640	75.823	81.225	81.852	86.065	218.260	84.600	-8191	255	
36439.406	1	1	0	0	0.13898	0.13981	0.059518	0.22827	0.1408	0.13111	0.13711	0.1911	0.27795	0.15649	0.043472	0.34856	0.083051	0.021807	0.18147	0.24227	-3.45	-4.2312	-3.4229	-4.05	-4.0437	-3.4375	-4.3271	-3.7	-3.6208	-4.0021	-3.6021	-4.1229	-3.9688	-3.4896	-4.2438	-3.6917	307.535	100.264	187.436	370.667	325.202	99.698	365.342	359.130	209.359	358.857	416.530	388.627	179.502	152.237	256.610	252.014	0.00041697	0.00074984	0.00053269	1231.3	3.0703e-06	2.6316e-06	1459.8	312.79	7.2178e-06	1.5903e-05	451.51	131.48	77.606	25.447	5.1825e-06	57.842	0.0011916	0.0012157	0.00034129	1196.7	1.3379e-05	1.3402e-05	1409.7	310.31	1.3452e-05	1.3483e-05	444.04	132.93	82.044	27.297	1.3558e-05	58.114	196.052	132.982	89.991	72.905	85.742	218.896	72.676	76.540	273.306	150.732	76.336	81.155	81.769	86.095	194.154	84.859	-8191	255	
36439.504	1	1	0	0	0.14349	0.19225	0.092207	0.027108	0.13781	0.22442	0.14494	0.11329	0.124	0.090804	0.20776	0.20954	0.20697	0.29194	0.037126	0.096796	-3.2646	-4.0125	-3.6021	-4.0396	-4.0229	-3.4833	-4.2771	-3.6396	-3.5083	-4.2	-3.6042	-3.8042	-4.025	-3.4813	-4.1229	-4.0208	163.293	119.727	147.348	404.450	76.987	154.453	216.237	312.573	364.437	116.523	239.263	329.591	76.235	380.866	375.270	341.890	0.00051148	0.00078042	0.00013551	1243.9	3.2257e-06	2.8725e-06	1474.7	314.67	6.0693e-06	6.1773e-06	455.2	134.22	78.31	25.914	4.2726e-06	58.811	0.0012135	0.0012499	0.00035188	1212.9	1.3633e-05	1.3687e-05	1424.1	313.27	1.3714e-05	1.3872e-05	448.88	135.16	82.837	27.85	1.3808e-05	59.076	177.236	224.200	397.464	73.141	177.946	267.962	72.998	76.811	188.670	74.371	76.255	81.134	81.630	85.951	184.570	85.157	-8191	255	
36439.598	1	1	0	0	0.048463	0.18126	0.19387	0.3226	0.021939	0.22979	0.21545	0.10908	0.15507	0.19583	0.064628	0.14779	0.13309	0.078629	0.048757	0.062058	-3.1625	-4.2146	-3.6188	-3.8563	-4.0833	-3.425	-4.3417	-3.9979	-3.6667	-4.2708	-3.7188	-3.7833	-4.0563	-3.4333	-4.1604	-3.9417	64.524	271.752	296.450	385.081	213.712	366.037	392.940	323.434	321.054	342.179	377.322	134.272	293.431	314.295	342.988	335.311	0.00053102	0.0004728	0.00021729	1235.1	5.6297e-06	1.2062e-05	1450	311.66	3.9019e-06	5.5815e-06	446.02	132.9	76.768	25.896	2.9496e-06	58.326	0.0012333	0.0012514	0.00035335	1201.1	1.3642e-05	1.3623e-05	1403.7	308.26	1.359e-05	1.3685e-05	441.98	133.56	81.134	27.515	1.3607e-05	58.423	164.090	113.214	389.142	72.964	232.968	201.156	72.714	76.855	411.777	60.349	76.145	81.318	81.833	85.901	263.514	84.774	-8191	255	
36439.695	1	1	0	0	0.19009	0.030721	0.13568	0.34204	0.1399	0.10959	0.25594	0.23643	0.10277	0.1171	0.29729	0.27243	0.19654	0.22739	0.15295	0.34142	-3.1063	-4.1917	-3.4167	-3.7542	-4.1146	-3.2979	-4.0854	-4.1958	-3.3375	-4.2646	-4.0563	-3.7875	-4.1312	-3.3563	-3.7938	-4.0417	418.406	74.043	197.668	381.528	259.443	61.378	417.692	297.359	312.419	172.829	312.209	354.692	98.328	416.466	78.329	64.365	0.00053406	0.00065586	0.00019341	1223.4	1.3406e-06	1.6207e-05	1448.6	311.07	8.9959e-06	4.6461e-06	444.71	132.88	76.082	25.689	1.8643e-06	58.442	0.0012044	0.0012487	0.0003513	1190.2	1.3599e-05	1.3917e-05	1404.9	308.4	1.3764e-05	1.3967e-05	441.86	133.73	81.558	27.749	1.4072e-05	59.054	190.580	181.181	129.464	72.890	162.795	173.592	72.603	76.659	204.833	299.536	76.541	81.075	82.182	85.575	258.145	84.646	-8191	255	
36439.812	1	1	0	0	0.17209	0.14836	0.1469	0.14428	0.14883	0.16661	0.14381	0.12793	0.060352	0.27224	0.014975	0.21032	0.18577	0.13735	0.053068	0.2277	-3.2438	-4.175	-3.7146	-3.725	-4.1813	-3.6458	-4.0188	-4.3021	-3.2229	-4.0896	-3.775	-3.6396	-4.2354	-3.5021	-3.8688	-4.2458	120.401	70.183	182.674	269.580	176.614	189.036	293.361	182.025	375.215	315.176	332.593	59.452	346.229	416.306	219.892	226.829	0.00066249	0.00082753	0.00018346	1233	4.1743e-06	1.4096e-05	1473.6	313.53	6.3557e-06	1.1387e-05	450.94	134.43	76.935	26.468	9.0733e-06	59.584	0.001248	0.0012868	0.00036005	1201.7	1.405e-05	1.4131e-05	1419.1	311.24	1.426e-05	1.4263e-05	447.65	135.96	82.948	28.422	1.4268e-05	60.167	159.665	193.493	135.723	72.975	281.008	204.295	72.632	77.196	113.367	242.372	76.589	81.222	81.981	86.425	275.418	85.228	-8191	255	
36439.910	1	1	0	0	0.09067	0.11685	0.10632	0.088487	0.23504	0.11597	0.35562	0.11201	0.077828	0.16568	0.10913	0.091981	0.16956	0.22088	0.23564	0.35497	-3.1562	-4.1021	-3.9021	-3.4896	-4.2646	-3.6396	-3.8688	-4.2167	-3.4625	-4.1188	-4.1792	-3.5833	-4.0646	-3.6583	-3.5521	-4.3938	411.458	258.115	110.369	255.874	157.999	182.990	330.066	405.371	232.631	101.524	325.350	143.303	322.227	375.867	214.819	389.345	0.00059972	0.0004268	0.00012876	1249.1	4.7259e-06	1.0137e-05	1480.7	316.35	3.7823e-06	9.5537e-06	455.14	137.49	78.589	26.968	5.4355e-06	61.021	0.0012859	0.0013176	0.00036782	1214.8	1.448e-05	1.4673e-05	1433.1	314.13	1.4599e-05	1.4674e-05	454.09	138.72	84.389	29.047	1.4695e-05	61.393	179.749	418.831	148.811	73.029	275.911	274.512	72.672	76.873	170.192	173.219	76.817	81.354	81.906	86.199	184.924	84.950	-8191	255	
36440.004	1	1	0	0	0.13821	0.015806	0.10058	0.05411	0.12612	0.099606	0.20726	0.13858	0.12399	0.25275	0.12251	0.1242	0.19131	0.11458	0.18856	0.35648	-3.1104	-3.9292	-4.0062	-3.55	-4.1417	-3.7562	-3.7104	-4.2875	-3.4521	-3.8646	-4.2125	-3.4521	-4.2292	-3.7687	-3.5167	-4.2917	320.342	282.120	342.646	410.957	352.852	258.580	413.844	65.164	209.947	129.278	337.688	395.323	83.234	77.816	322.444	412.967	0.00041528	0.00068843	2.6903e-05	1261.5	7.6931e-06	1.2895e-05	1499.7	319.6	1.2138e-05	1.3361e-05	458.31	137.77	79.401	27.018	6.7459e-06	60.88	0.0013255	0.0013659	0.00037597	1232.2	1.5038e-05	1.5098e-05	1452.7	318.83	1.5086e-05	1.5087e-05	458.35	139.95	84.932	29.095	1.4708e-05	61.176	175.606	403.680	384.651	73.107	287.281	301.545	72.765	77.281	237.203	178.793	76.512	81.556	81.900	86.619	279.218	84.839	-8191	255	
36440.102	1	1	0	0	0.24275	0.080878	0.11649	0.12879	0.24257	0.23211	0.12046	0.034675	0.27211	0.05845	0.10246	0.23101	0.19399	0.067838	0.14244	0.27047	-3.3312	-3.6458	-4.0229	-3.7	-4.1062	-3.8271	-3.5917	-4.3812	-3.4167	-3.8	-4.2229	-3.3604	-4.0167	-3.9229	-3.4104	-4.3229	300.236	328.360	149.512	413.362	150.487	209.419	386.096	197.529	132.523	63.979	86.957	272.076	294.586	62.089	268.248	336.019	0.00048514	0.00075875	0.0004799	1252.6	4.4852e-06	1.5882e-05	1472.6	310.56	6.7494e-06	1.2729e-05	443.65	131.53	74.897	25.593	2.0239e-06	57.054	0.0013101	0.0013426	0.0003693	1221.1	1.4397e-05	1.4504e-05	1425.2	309.23	1.4418e-05	1.4343e-05	440.1	132.79	80.749	27.472	1.4094e-05	57.831	185.370	128.821	235.046	72.855	280.796	262.047	72.876	76.820	282.421	133.951	76.950	81.672	82.068	86.333	341.059	84.987	-8191	255	
36440.199	1	1	0	0	0.25299	0.032711	0.24466	0.22811	0.28844	0.091488	0.31702	0.064126	0.1493	0.19314	0.14533	0.11376	0.1378	0.28074	0.21382	0.25059	-3.5083	-3.6125	-4.0021	-3.5187	-4.0292	-4.0833	-3.6188	-4.3271	-3.6542	-3.5687	-4.1833	-3.4708	-3.9125	-4.0271	-3.3542	-4.4083	174.577	173.158	76.605	389.947	356.250	222.595	320.054	86.352	128.680	91.745	337.098	127.124	61.806	73.926	410.443	400.316	0.00038359	0.0013182	0.00020094	1208.7	8.8359e-06	1.8198e-05	1438.9	304.85	8.9419e-06	8.858e-06	437.56	129.82	74.818	25.283	8.3657e-06	57.505	0.0012694	0.0012832	0.00035863	1179.9	1.4142e-05	1.4186e-05	1394.8	303.31	1.4181e-05	1.4107e-05	434.02	131.8	80.281	27.283	1.4181e-05	57.821	191.748	199.911	306.373	72.885	141.032	225.179	72.657	76.993	288.115	171.168	76.499	81.166	81.593	86.571	245.683	84.645	-8191	255	
36440.293	1	1	0	0	0.18879	0.18413	0.089868	0.12872	0.1423	0.18115	0.27044	0.42551	0.24022	0.046679	0.28611	0.17727	0.22838	0.20124	0.29224	0.096787	-3.3583	-3.4583	-4.15	-3.5083	-3.5958	-4.0667	-3.6875	-4.1146	-3.7292	-3.4354	-4.45	-3.4708	-3.7708	-4.1771	-3.2625	-4.1771	129.318	127.109	71.756	274.196	404.817	196.308	365.664	363.263	104.881	399.976	359.203	107.791	253.475	111.284	91.779	352.011	0.00048388	0.00055764	0.00043483	1207.8	8.1733e-06	1.0119e-05	1445.4	305.34	1.3857e-05	8.0398e-06	434.24	129.98	74.349	25.378	1.2422e-05	57.46	0.0012738	0.0013115	0.00036602	1183	1.4302e-05	1.4298e-05	1403	303.76	1.434e-05	1.4308e-05	434.75	131.85	80.272	27.508	1.4435e-05	58.105	159.405	125.871	141.691	73.002	144.198	213.174	72.859	76.951	210.717	195.822	76.451	81.430	81.736	86.757	146.616	84.767	-8191	255	
36440.414	1	1	0	0	0.075888	0.18382	0.22546	0.26484	0.182	0.10878	0.054877	0.043417	0.084855	0.29007	0.21151	0.16905	0.050692	0.14054	0.11257	0.13569	-3.4688	-3.3396	-4.2188	-3.9	-3.5792	-4.1875	-3.6146	-4.1458	-3.8521	-3.6562	-4.2354	-3.6042	-3.5917	-4.1229	-3.5542	-4.0062	145.208	218.215	59.721	361.463	372.928	214.617	87.975	291.538	101.973	371.282	339.502	409.769	212.518	101.051	230.450	68.293	0.00052512	0.00076987	0.00021575	1215.2	5.8071e-06	1.8192e-05	1452.1	304.68	5.2589e-06	1.6925e-05	440.64	132.28	75.75	25.927	1.119e-05	58.56	0.0012822	0.0013113	0.00036412	1188.9	1.4366e-05	1.4486e-05	1409.1	304.72	1.4335e-05	1.4507e-05	438.46	133.48	81.167	27.815	1.4537e-05	58.892	156.488	231.365	211.086	73.150	257.460	213.064	72.837	76.736	166.076	159.496	76.422	81.351	81.690	86.918	113.951	84.556	-8191	255	
36440.508	1	1	0	0	0.041605	0.28186	0.12722	0.38028	0.053106	0.10049	0.37969	0.20956	0.13677	0.2011	0.19479	0.1385	0.10889	0.081291	0.12457	0.1738	-3.6562	-3.3812	-4.1312	-3.8792	-3.6396	-4.2479	-3.5083	-4.0417	-4.0042	-3.5271	-4.3083	-3.9062	-3.5417	-4.1417	-3.4938	-3.8542	329.212	126.134	336.401	366.524	339.413	345.294	369.207	391.403	395.049	105.594	403.505	355.487	71.969	409.520	359.026	376.364	0.00045081	0.00053422	0.00020902	1237.2	4.7831e-06	9.7672e-06	1469	309.54	2.2927e-06	1.1575e-05	443.45	131	76.441	25.769	1.2825e-05	57.798	0.0012786	0.0013349	0.00037272	1205.6	1.4408e-05	1.462e-05	1421.9	308.51	1.4514e-05	1.4636e-05	442.61	133.49	81.881	27.798	1.4447e-05	58.269	168.843	134.962	187.162	73.407	175.767	97.189	72.817	76.750	258.882	157.593	76.631	81.400	81.546	86.494	382.460	84.917	-8191	255	
36440.605	1	1	0	0	0.016065	0.052005	0.24997	0.12064	0.32497	0.31897	0.20201	0.28868	0.26106	0.32333	0.20727	0.32246	0.077782	0.18156	0.085516	0.33936	-3.6958	-3.3	-4.0083	-3.9479	-3.4479	-4.2229	-3.5438	-3.9125	-4.0729	-3.2938	-4.0958	-3.8521	-3.4813	-4.3688	-3.525	-3.7083	266.381	287.877	133.417	416.756	387.948	335.968	366.928	104.259	402.656	366.733	79.792	120.352	99.662	311.137	331.485	364.024	0.00052924	0.00173	0.00015629	1209.5	3.3738e-06	7.9941e-06	1423.5	299.69	8.6782e-06	1.7089e-05	425.57	126.41	73.558	24.904	1.1253e-05	55.307	0.0012678	0.0013219	0.0003659	1178.9	1.4221e-05	1.4394e-05	1381.9	298.91	1.4134e-05	1.4349e-05	425.88	128.52	79.042	26.836	1.4308e-05	56.007	184.628	167.050	253.223	72.907	196.948	273.599	72.965	76.984	217.780	199.315	76.490	81.238	81.373	86.720	151.082	84.808	-8191	255	
36440.699	1	1	0	0	0.045948	0.083173	0.17265	0.22001	0.20256	0.32607	0.18722	0.082484	0.079547	0.086423	0.17484	0.15847	0.14188	0.22006	0.13276	0.24533	-3.7229	-3.3688	-3.9646	-4.1542	-3.2854	-4.3042	-3.825	-3.5854	-4.1917	-3.3708	-3.9104	-3.875	-3.6271	-4.2438	-3.7396	-3.5708	93.654	220.805	296.996	107.891	375.850	355.834	300.187	351.707	297.645	300.481	348.665	348.385	221.067	283.280	126.836	59.995	0.00035863	0.0017028	0.00029135	1189.7	6.9414e-06	3.7828e-06	1412.9	296.75	7.3866e-06	1.4202e-05	428.55	125.81	73.476	24.773	7.0863e-06	55.668	0.0012637	0.0013168	0.00036509	1163.7	1.4327e-05	1.4316e-05	1371.1	297.25	1.4174e-05	1.4468e-05	426.92	128.14	79.208	26.789	1.4265e-05	56.074	134.509	203.444	143.291	72.740	190.089	215.555	72.723	76.815	379.807	413.521	75.940	81.194	81.733	86.143	154.032	84.634	-8191	255	
36440.773	1	1	0	0	0.18256	0.026596	0.15284	0.023788	0.12575	0.11743	0.21598	0.25432	0.09455	0.10056	0.12341	0.16386	0.21499	0.14334	0.11783	0.16904	-3.7917	-3.325	-3.8375	-4.1438	-3.4708	-4.0708	-4.0188	-3.5167	-4.2729	-3.4271	-3.8438	-4.3354	-3.4958	-4.0958	-3.9354	-3.5875	367.975	81.531	275.896	72.098	367.706	284.008	382.199	410.268	381.672	200.770	375.839	147.400	76.379	397.739	252.103	345.331	0.00026866	0.0011323	0.00010182	1201.5	5.6703e-06	3.1995e-06	1422.6	299.93	4.5401e-06	1.6822e-07	427.81	126.54	73.492	24.809	5.2106e-06	55.751	0.0012726	0.001321	0.00036287	1171.7	1.4341e-05	1.441e-05	1377.4	298.53	1.4416e-05	1.4386e-05	427.01	128.63	79.615	26.954	1.4286e-05	56.491	156.257	194.596	141.580	72.860	157.750	317.782	73.060	76.624	183.548	282.066	76.316	81.206	81.747	86.170	294.739	84.939	-8191	255	
36440.895	1	1	0	0	0.15437	0.074228	0.072483	0.22941	0.015976	0.16084	0.27693	0.19739	0.084535	0.08955	0.23804	0.13189	0.17294	0.35383	0.18576	0.17114	-3.8333	-3.4375	-3.7729	-4.2958	-3.3792	-3.9958	-4.1229	-3.6583	-4.0583	-3.6708	-3.6979	-4.2979	-3.3583	-3.9479	-3.8792	-3.5563	100.655	390.799	80.731	351.299	92.795	346.440	382.496	307.627	398.015	383.078	340.807	381.014	64.693	92.129	192.857	416.617	0.00055562	0.00029712	0.00036657	1202.5	2.4147e-06	1.1841e-05	1419.2	301.17	1.0368e-05	1.0386e-05	429.82	128.94	74.25	25.583	4.9568e-06	57.238	0.0012715	0.0013164	0.00036164	1174.9	1.4298e-05	1.4277e-05	1378.7	300.65	1.4286e-05	1.4521e-05	429.73	130.58	80.502	27.362	1.4265e-05	57.638	168.676	170.664	185.748	72.970	141.776	200.178	72.880	76.729	237.612	229.448	76.011	81.641	81.869	86.327	270.813	84.467	-8191	255	
