BOXY.EXE: ISS Imagent and Oximeter Data Acquisition Program Version 0.80
Ascii Record File

#ACQ INFORMATION
2  Detector Channels 
16  External MUX Channels 
1  Auxiliary Channels 
5000  Waveform (CCF) Frequency (Hz)
1  Waveforms Skipped 
30  Waveforms Averaged 
1  Cycles Averaged 
16  Acquisitions per Waveform 
10.0806  Updata Rate (Hz) 

#FILE INFORMATION
TRUE -- External MUX Channel results are PARSED.
FALSE -- AC DC and Phase are NOT grouped.
TRUE -- Companion Program Settings File CREATED.
FALSE -- AC data not excluded
FALSE -- DC data not excluded
FALSE -- Phase data not excluded
FALSE -- Auxillary Chn. data not excluded
Tab delimiters

#CALIBRATION STATE
TRUE -- Waveform Calibration Values APPLIED.


#AUX CALIBRATION VALUES
Val Type	aux-1	

Term	1.0000e+00	
Factor	0.0000e+00	


#WF CALIBRATION VALUES
A = Detector Channel
Val Type	A-AC1	A-AC2	A-AC3	A-AC4	A-AC5	A-AC6	A-AC7	A-AC8	A-AC9	A-AC10	A-AC11	A-AC12	A-AC13	A-AC14	A-AC15	A-AC16	A-DC1	A-DC2	A-DC3	A-DC4	A-DC5	A-DC6	A-DC7	A-DC8	A-DC9	A-DC10	A-DC11	A-DC12	A-DC13	A-DC14	A-DC15	A-DC16	A-Ph1	A-Ph2	A-Ph3	A-Ph4	A-Ph5	A-Ph6	A-Ph7	A-Ph8	A-Ph9	A-Ph10	A-Ph11	A-Ph12	A-Ph13	A-Ph14	A-Ph15	A-Ph16	

Term	0.00000e+00	0.00000e+00	0.00000e+00	0.00000e+00	0.00000e+00	0.00000e+00	0.00000e+00	0.00000e+00	0.00000e+00	0.00000e+00	0.00000e+00	0.00000e+00	0.00000e+00	0.00000e+00	0.00000e+00	0.00000e+00	0.00000e+00	0.00000e+00	0.00000e+00	0.00000e+00	0.00000e+00	0.00000e+00	0.00000e+00	0.00000e+00	0.00000e+00	0.00000e+00	0.00000e+00	0.00000e+00	0.00000e+00	0.00000e+00	0.00000e+00	0.00000e+00	0.00000e+00	0.00000e+00	0.00000e+00	0.00000e+00	0.00000e+00	0.00000e+00	0.00000e+00	0.00000e+00	0.00000e+00	0.00000e+00	0.00000e+00	0.00000e+00	0.00000e+00	0.00000e+00	0.00000e+00	0.00000e+00	
Factor	1.00000e+00	1.00000e+00	1.00000e+00	1.00000e+00	1.00000e+00	1.00000e+00	1.00000e+00	1.00000e+00	1.00000e+00	1.00000e+00	1.00000e+00	1.00000e+00	1.00000e+00	1.00000e+00	1.00000e+00	1.00000e+00	1.00000e+00	1.00000e+00	1.00000e+00	1.00000e+00	1.00000e+00	1.00000e+00	1.00000e+00	1.00000e+00	1.00000e+00	1.00000e+00	1.00000e+00	1.00000e+00	1.00000e+00	1.00000e+00	1.00000e+00	1.00000e+00	X	X	X	X	X	X	X	X	X	X	X	X	X	X	X	X	

B = Detector Channel
Val Type	B-AC1	B-AC2	B-AC3	B-AC4	B-AC5	B-AC6	B-AC7	B-AC8	B-AC9	B-AC10	B-AC11	B-AC12	B-AC13	B-AC14	B-AC15	B-AC16	B-DC1	B-DC2	B-DC3	B-DC4	B-DC5	B-DC6	B-DC7	B-DC8	B-DC9	B-DC10	B-DC11	B-DC12	B-DC13	B-DC14	B-DC15	B-DC16	B-Ph1	B-Ph2	B-Ph3	B-Ph4	B-Ph5	B-Ph6	B-Ph7	B-Ph8	B-Ph9	B-Ph10	B-Ph11	B-Ph12	B-Ph13	B-Ph14	B-Ph15	B-Ph16	

Term	0.00000e+00	0.00000e+00	0.00000e+00	0.00000e+00	0.00000e+00	0.00000e+00	0.00000e+00	0.00000e+00	0.00000e+00	0.00000e+00	0.00000e+00	0.00000e+00	0.00000e+00	0.00000e+00	0.00000e+00	0.00000e+00	0.00000e+00	0.00000e+00	0.00000e+00	0.00000e+00	0.00000e+00	0.00000e+00	0.00000e+00	0.00000e+00	0.00000e+00	0.00000e+00	0.00000e+00	0.00000e+00	0.00000e+00	0.00000e+00	0.00000e+00	0.00000e+00	2.30140e+01	-1.20181e+02	-1.19907e+02	-1.83653e+02	-6.30298e+01	-5.18358e+01	-1.58195e+02	-1.62015e+02	-5.19289e+01	-7.20987e+01	-1.70726e+02	-1.70915e+02	-1.78976e+02	-1.76655e+02	-6.37239e+01	-1.49757e+02	
Factor	5.08546e-05	1.47758e-04	3.78023e-05	1.55087e-01	1.88521e-06	1.77159e-06	1.71671e-01	5.62650e-02	2.22537e-06	1.53002e-06	9.34834e-02	3.14727e-02	2.91465e-02	9.72571e-03	2.02248e-06	1.39640e-02	4.02956e-06	4.41231e-06	1.22925e-06	7.62458e-02	4.73918e-08	4.85632e-08	7.91440e-02	2.76715e-02	4.75700e-08	4.85441e-08	4.45230e-02	1.49399e-02	1.44346e-02	4.81122e-03	4.80407e-08	6.69290e-03	X	X	X	X	X	X	X	X	X	X	X	X	X	X	X	X	



#DISTANCE SETTINGS
A = Detector Channel
A-1	A-2	A-3	A-4	A-5	A-6	A-7	A-8	A-9	A-10	A-11	A-12	A-13	A-14	A-15	A-16	

2.5000e+00	3.0000e+00	2.5000e+00	3.0000e+00	2.0000e+00	3.0000e+00	1.5000e+00	3.0000e+00	3.0000e+00	3.0000e+00	3.0000e+00	3.0000e+00	3.0000e+00	3.0000e+00	1.5000e+00	3.0000e+00	

B = Detector Channel
B-1	B-2	B-3	B-4	B-5	B-6	B-7	B-8	B-9	B-10	B-11	B-12	B-13	B-14	B-15	B-16	

1.0000e+01	1.0000e+01	1.0000e+01	1.4400e+00	1.0000e+01	1.0000e+01	1.5100e+00	1.9400e+00	1.0000e+01	1.0000e+01	1.9900e+00	2.4900e+00	2.4100e+00	2.9000e+00	1.0000e+01	2.9800e+00	




#DATA BEGINS
time	group	step	mark	flag	A-AC1	A-AC2	A-AC3	A-AC4	A-AC5	A-AC6	A-AC7	A-AC8	A-AC9	A-AC10	A-AC11	A-AC12	A-AC13	A-AC14	A-AC15	A-AC16	A-DC1	A-DC2	A-DC3	A-DC4	A-DC5	A-DC6	A-DC7	A-DC8	A-DC9	A-DC10	A-DC11	A-DC12	A-DC13	A-DC14	A-DC15	A-DC16	A-Ph1	A-Ph2	A-Ph3	A-Ph4	A-Ph5	A-Ph6	A-Ph7	A-Ph8	A-Ph9	A-Ph10	A-Ph11	A-Ph12	A-Ph13	A-Ph14	A-Ph15	A-Ph16	B-AC1	B-AC2	B-AC3	B-AC4	B-AC5	B-AC6	B-AC7	B-AC8	B-AC9	B-AC10	B-AC11	B-AC12	B-AC13	B-AC14	B-AC15	B-AC16	B-DC1	B-DC2	B-DC3	B-DC4	B-DC5	B-DC6	B-DC7	B-DC8	B-DC9	B-DC10	B-DC11	B-DC12	B-DC13	B-DC14	B-DC15	B-DC16	B-Ph1	B-Ph2	B-Ph3	B-Ph4	B-Ph5	B-Ph6	B-Ph7	B-Ph8	B-Ph9	B-Ph10	B-Ph11	B-Ph12	B-Ph13	B-Ph14	B-Ph15	B-Ph16	aux-1	digaux	

29827.994	1	1	0	512	0.065905	0.15187	0.069226	0.14101	0.21946	0.17294	0.075333	0.085275	0.072392	0.10963	0.11035	0.14423	0.21089	0.17506	0.18111	0.27043	-4.3979	-4.1312	-5.15	-4.6062	-4.2417	-4.8958	-4.2396	-4.7167	-4.9708	-4.0729	-5.1188	-4.5771	-4.3354	-5.1583	-4.3063	-4.6375	416.432	174.658	91.921	74.832	424.285	142.607	411.607	352.715	334.126	122.989	169.238	303.856	406.476	120.932	427.885	300.648	0.0028171	0.0012412	0.0002643	955.54	2.8591e-05	1.6028e-05	1042.4	374.05	6.5237e-06	1.9838e-05	471.21	187.73	137.76	56.046	3.9827e-06	87.872	0.0077467	0.0084413	0.0023432	1004.9	9.0891e-05	9.3877e-05	1087	388.79	9.2209e-05	9.466e-05	508.47	195.82	149.89	59.883	9.3326e-05	91.903	324.733	157.777	363.029	86.906	284.135	228.996	85.266	91.535	318.019	259.742	89.194	93.952	95.687	100.383	335.504	96.903	-8191	255	
29828.115	1	1	0	0	0.13278	0.12712	0.11546	0.25438	0.10118	0.17954	0.21589	0.20648	0.33487	0.24536	0.14462	0.1098	0.012862	0.27443	0.42035	0.20178	-4.5771	-4.0604	-5.0479	-4.7417	-4.2063	-5.0146	-4.2896	-4.5333	-4.9	-4.0167	-4.9542	-4.6771	-4.15	-5.1813	-4.2542	-4.5583	288.755	207.476	413.790	87.702	278.586	404.754	294.513	419.059	99.745	122.383	416.548	427.610	104.289	381.709	121.991	397.129	0.0024839	0.00082303	0.00032602	969.83	1.4824e-05	1.368e-05	1052.7	377.01	1.9421e-05	1.0034e-05	466.87	184.99	134.23	54.821	2.4252e-05	85.684	0.007892	0.0084188	0.0023296	1012.3	8.9744e-05	9.1601e-05	1089	389.18	8.932e-05	9.1807e-05	503.13	193.63	147.86	59.027	9.2949e-05	89.983	301.006	201.833	238.116	86.952	266.396	285.688	85.393	91.081	112.237	222.465	89.526	93.922	96.336	100.318	208.403	97.002	-8191	255	
29828.213	1	1	0	0	0.16594	0.10015	0.16266	0.18665	0.23258	0.094963	0.19065	0.4292	0.087101	0.028494	0.34034	0.24874	0.17335	0.17413	0.079652	0.076134	-4.5979	-4.0375	-4.7542	-4.6937	-4.0104	-5.0437	-4.3187	-4.4208	-5.0604	-4.0542	-4.9021	-4.7958	-4.1583	-5.1083	-4.2958	-4.3375	410.576	267.000	411.972	328.481	304.848	125.996	415.479	368.637	122.107	187.463	402.422	373.043	422.289	386.612	252.665	252.449	0.0018555	0.0011502	0.0001315	952.55	1.3204e-05	1.3166e-05	1027.9	366.27	3.5603e-05	1.1207e-05	459.29	181.36	133.17	54.462	1.8286e-05	84.32	0.0078578	0.0085442	0.0023554	996.95	8.9813e-05	9.2753e-05	1067.3	379.63	9.1062e-05	9.2661e-05	494.84	190.2	145.96	58.484	9.217e-05	89.31	304.064	127.841	232.569	86.612	150.885	333.987	85.551	91.067	273.255	204.122	89.429	93.681	96.165	99.985	399.614	96.750	-8191	255	
29828.309	1	1	0	0	0.25745	0.12571	0.17677	0.13275	0.10983	0.087051	0.19122	0.41158	0.044101	0.25938	0.15734	0.44555	0.14499	0.24103	0.14798	0.063323	-4.7479	-4.0646	-4.775	-4.9667	-4.0083	-5.0125	-4.5771	-4.4208	-4.8167	-3.9875	-4.6375	-4.8187	-4.0458	-4.9271	-4.5917	-4.1854	85.930	404.994	83.963	354.573	201.404	239.793	425.635	346.434	168.781	162.057	373.913	416.261	316.876	429.404	101.389	287.144	0.0023003	0.0020058	0.00061403	947.92	1.755e-05	1.0692e-05	1026.8	364.81	1.2541e-05	1.3237e-05	462.36	182.68	134.45	54.865	6.4876e-06	85.913	0.0079073	0.0085978	0.0023824	996.86	9.2451e-05	9.4789e-05	1070.2	381.66	9.2026e-05	9.4336e-05	499.45	192.07	147.31	58.953	9.2995e-05	90.292	297.928	157.490	237.751	86.426	194.009	137.878	85.651	91.439	139.240	273.610	88.969	93.501	95.489	100.484	131.138	97.026	-8191	255	
29828.430	1	1	0	0	0.22816	0.090226	0.24955	0.085828	0.034871	0.17133	0.065868	0.34203	0.057361	0.074067	0.35733	0.27303	0.19066	0.094575	0.12936	0.26926	-4.7333	-4.0437	-4.4167	-4.9729	-3.9604	-4.7479	-4.5917	-4.2104	-5.0604	-4.1292	-4.4688	-5.0104	-4	-4.8729	-4.5042	-4.1	268.026	102.097	96.826	169.624	279.933	93.903	309.539	354.426	311.598	390.563	365.226	315.591	427.714	341.479	174.260	328.326	0.0023998	0.00012732	0.00088494	956.38	9.3488e-06	2.5191e-05	1036.3	370.62	1.0213e-05	1.2061e-05	468.68	186.29	136.19	55.474	4.3538e-05	87.191	0.0079602	0.0086821	0.0023904	1002.3	9.3009e-05	9.4448e-05	1078.9	385.2	9.2096e-05	9.4405e-05	503.72	194.56	148.89	59.534	9.212e-05	91.275	314.669	371.707	145.369	86.491	261.636	206.697	85.422	91.747	366.917	216.441	89.116	93.953	95.663	100.142	141.483	96.757	-8191	255	
29828.500	1	1	0	0	0.11542	0.11809	0.16226	0.19569	0.19529	0.20771	0.28938	0.033787	0.17208	0.11345	0.17483	0.28759	0.15918	0.090001	0.20726	0.017794	-4.7083	-4.1583	-4.2625	-5.0687	-3.8625	-4.7167	-4.7458	-4.0417	-4.9917	-4.3125	-4.2937	-4.8688	-3.9958	-4.7292	-4.6813	-4.1042	397.652	209.469	391.487	392.103	275.843	344.335	419.942	247.560	229.454	410.799	318.349	386.421	229.856	376.807	387.573	200.760	0.0020394	0.0013841	0.00029943	964.75	4.0206e-05	2.22e-05	1052.3	376.67	3.6772e-05	1.1424e-05	473.61	186.62	135.47	55.79	2.3419e-05	87.372	0.0078599	0.0085312	0.0023788	1010.8	9.2569e-05	9.5154e-05	1093	390.96	9.3955e-05	9.6872e-05	511.7	196.76	150.24	60.358	9.8058e-05	92.268	301.149	252.235	183.859	86.656	309.181	247.115	85.549	91.369	156.896	118.808	89.144	93.689	95.768	100.165	192.801	96.762	-8191	255	
29828.596	1	1	0	0	0.058935	0.099011	0.11471	0.05428	0.14571	0.18235	0.21449	0.18964	0.061627	0.12328	0.056243	0.01445	0.047382	0.24611	0.17069	0.14774	-4.6521	-4.2458	-3.9729	-4.9667	-4.0542	-4.525	-4.825	-4.05	-4.8708	-4.3458	-4.2438	-4.9896	-4.1104	-4.4563	-4.875	-4.1083	372.125	187.189	405.034	81.528	140.321	223.117	342.965	84.036	237.321	104.699	350.301	432.712	359.607	376.719	117.254	137.781	0.00093765	0.0022546	0.00022934	952.52	1.9756e-05	8.7905e-06	1029.8	367.36	3.4247e-05	9.1815e-06	462.66	182.94	133.15	54.287	6.0734e-06	84.736	0.0083029	0.0090685	0.0025005	1012.6	9.6053e-05	9.8462e-05	1083.8	385.1	9.5551e-05	9.7143e-05	502.3	192.97	147.86	58.82	9.4725e-05	89.528	302.176	122.782	275.566	86.672	183.260	376.504	85.698	91.563	217.243	168.970	89.550	93.764	96.028	99.917	353.425	97.056	-8191	255	
29828.715	1	1	0	0	0.13927	0.30671	0.19143	0.13814	0.07433	0.12809	0.14483	0.16349	0.021904	0.069402	0.020146	0.23101	0.1969	0.032706	0.16607	0.13251	-4.5208	-4.4688	-4.0417	-5.0167	-4.1271	-4.3812	-4.9812	-4.1854	-4.7958	-4.6062	-4.0396	-5.1042	-4.2521	-4.3979	-4.8417	-4.0687	349.736	417.002	272.024	432.962	82.485	215.601	349.964	117.408	356.281	335.668	142.630	353.011	116.895	89.468	350.353	347.850	0.0023383	0.00066961	0.00067926	943.82	1.9836e-05	2.1115e-05	1011.6	362.16	3.2985e-05	2.6804e-05	452.51	179.5	130.52	53.928	1.229e-05	83.821	0.0080729	0.0087265	0.0024104	993.38	9.3354e-05	9.4443e-05	1061.4	378.82	9.2419e-05	9.4427e-05	490.95	189.03	144.83	58.15	9.4012e-05	88.819	311.914	171.623	336.842	86.532	347.754	339.332	85.532	91.479	213.184	153.932	89.347	93.798	95.929	99.833	179.476	97.099	-8191	255	
29828.811	1	1	0	0	0.32639	0.083622	0.16198	0.038822	0.14886	0.022384	0.22342	0.096835	0.1852	0.12672	0.21806	0.3124	0.3762	0.16576	0.25195	0.12993	-4.4167	-4.6396	-3.9646	-4.8604	-4.2792	-4.275	-5.0312	-3.9854	-4.5854	-4.7729	-4.0292	-4.9563	-4.3729	-4.1896	-4.875	-4.1146	278.319	430.179	98.854	355.893	258.991	353.222	372.809	83.942	220.661	222.459	139.164	365.751	97.021	376.812	405.646	290.313	0.001712	0.0030344	0.00070233	942.7	3.2041e-05	3.7643e-05	1018.9	362.76	9.2447e-06	1.6261e-05	454.87	179.64	131.94	54.29	1.1613e-05	84.929	0.0080132	0.0087145	0.0024075	993.6	9.2676e-05	9.5372e-05	1062	378.1	9.2465e-05	9.5253e-05	493.56	189.49	146.29	58.414	9.3756e-05	89.49	325.319	195.541	168.191	86.980	93.536	271.393	85.569	91.678	315.324	181.436	89.316	93.725	96.393	100.054	128.420	96.904	-8191	255	
29828.908	1	1	0	0	0.031891	0.067689	0.10241	0.12134	0.17475	0.034603	0.30365	0.12349	0.22999	0.23814	0.17744	0.13695	0.13221	0.11431	0.045944	0.09615	-4.2208	-4.8438	-3.8833	-5.0417	-4.3125	-4.2	-5.1229	-4.2104	-4.4333	-4.7875	-4.1125	-5.1	-4.6896	-4.3167	-4.9417	-4.2333	185.090	406.552	399.486	373.096	354.205	415.477	405.464	336.576	82.057	175.651	334.924	329.250	370.322	386.802	118.880	305.579	0.0015016	0.0014154	0.00074127	937.79	1.2476e-05	5.8367e-06	1020.6	362.08	1.8125e-05	2.1758e-05	454.52	180	132.33	54.714	9.9466e-06	85.491	0.0079692	0.008604	0.0024028	993.26	9.3291e-05	9.5278e-05	1068.9	379.89	9.3899e-05	9.7074e-05	496.67	190.73	147.15	59.085	9.6966e-05	90.395	343.876	171.994	227.281	86.737	427.446	250.231	85.543	91.335	282.558	100.697	89.291	94.001	96.197	100.051	229.660	96.764	-8191	255	
29829.004	1	1	0	0	0.17351	0.069859	0.17976	0.14609	0.069076	0.094987	0.13325	0.27564	0.12736	0.093795	0.28068	0.1165	0.1779	0.12303	0.040577	0.095843	-4.2083	-4.7729	-4.0104	-4.9458	-4.5583	-3.9854	-5.1062	-4.3875	-4.2917	-4.9125	-3.9688	-4.7292	-4.7208	-4.0458	-4.9604	-4.4583	81.496	415.997	162.776	377.886	412.173	238.335	133.735	415.814	161.433	136.467	386.695	114.340	405.864	371.560	184.125	392.788	0.0020491	0.0018038	0.00022442	945.59	3.6664e-05	1.868e-05	1011.3	365.98	2.168e-05	3.4544e-05	462.45	181.62	132.39	54.497	2.3761e-05	85.091	0.0082477	0.0089362	0.0024979	1001.2	9.6369e-05	9.8673e-05	1072	383.11	9.759e-05	0.00010055	503.68	193.5	148.63	59.533	0.00010191	90.943	321.237	103.160	266.046	86.527	230.701	369.211	85.751	91.351	224.263	273.574	89.189	93.947	96.133	99.688	383.836	97.269	-8191	255	
29829.100	1	1	0	0	0.080877	0.16888	0.078778	0.22241	0.079426	0.15203	0.26045	0.10609	0.18701	0.14246	0.079601	0.11078	0.17045	0.10111	0.069141	0.086114	-4.0021	-4.9375	-4.025	-4.6979	-4.7396	-3.9875	-4.9646	-4.6	-4.2958	-4.9583	-4.2292	-4.7083	-4.8583	-4.1458	-5.0333	-4.6312	335.137	226.725	79.705	377.340	219.958	329.043	393.766	330.827	193.941	412.145	414.593	287.660	74.098	391.121	379.822	428.564	0.0019578	0.0027929	0.00036465	946.92	2.1994e-05	1.1687e-05	1028.3	364.25	1.6399e-05	2.6036e-06	458.17	180.45	131.31	53.884	2.0442e-05	84.338	0.0085629	0.0093268	0.002585	1010.3	9.8334e-05	0.00010138	1079.9	383.45	9.6718e-05	9.8401e-05	498.97	190.98	146.1	58.303	9.4974e-05	89.073	335.550	363.048	295.508	86.467	208.390	240.085	85.453	91.525	209.335	92.882	89.498	93.831	96.181	100.077	207.527	96.896	-8191	255	
29829.195	1	1	0	0	0.068389	0.15352	0.12125	0.054709	0.15988	0.097495	0.23586	0.19196	0.10983	0.10204	0.18624	0.19954	0.083321	0.027403	0.090872	0.19218	-3.8104	-5.0979	-4.0104	-4.6667	-4.7708	-4.0687	-4.9146	-4.5771	-4.0375	-5.0188	-4.1854	-4.4583	-4.8708	-3.9479	-4.7958	-4.5375	99.834	369.023	207.455	275.084	167.176	165.162	307.395	420.026	92.551	258.320	326.456	404.519	304.406	208.219	342.401	424.265	0.0020749	0.00029287	0.00039026	956.61	9.3229e-06	3.5785e-05	1025.8	363.35	1.0664e-05	1.9686e-05	455.41	180.73	133.21	54.302	4.8147e-05	84.937	0.0080849	0.0086622	0.0024469	1001.8	9.3064e-05	9.5828e-05	1072.9	380.46	9.2101e-05	9.3566e-05	494.36	190.26	146	58.321	9.1301e-05	89.193	303.987	175.291	129.367	86.445	360.602	332.899	85.390	91.442	242.438	257.430	89.408	93.630	96.084	100.005	182.001	96.622	-8191	255	
29829.293	1	1	0	0	0.070216	0.075424	0.11929	0.22487	0.058646	0.1392	0.19483	0.23083	0.21981	0.14863	0.095338	0.11002	0.16837	0.16817	0.091766	0.23345	-3.7938	-4.7667	-4.2396	-4.6292	-4.8479	-4.0625	-4.9229	-4.7167	-3.95	-4.9896	-4.1896	-4.3187	-4.7562	-4.1562	-4.5583	-4.7188	256.363	260.014	78.471	374.900	210.086	163.750	347.029	349.993	281.136	103.415	321.497	408.258	349.369	133.413	197.927	428.997	0.0013304	0.0015906	0.00030298	951.63	2.335e-05	4.6294e-06	1032.4	368.89	2.8871e-05	2.7316e-05	458.09	181.4	134.01	54.64	1.4683e-05	85.775	0.007756	0.008462	0.0023468	1000.9	9.064e-05	9.2785e-05	1074.6	384.27	9.1185e-05	9.4324e-05	498.42	191.25	146.9	58.849	9.281e-05	90.258	324.908	195.019	340.626	86.299	205.818	330.368	85.806	91.585	221.178	316.117	89.661	94.144	96.080	100.124	193.143	96.822	-8191	255	
29829.389	1	1	0	0	0.16285	0.053388	0.16688	0.17207	0.13135	0.22415	0.28835	0.18185	0.088154	0.28882	0.1588	0.17521	0.11206	0.053216	0.15346	0.30923	-3.55	-4.9375	-4.3021	-4.4354	-4.9917	-4.0083	-4.5938	-4.8	-4.05	-4.8417	-4.3938	-4.1333	-4.9667	-4.1542	-4.3479	-5.0417	259.151	366.938	385.666	91.090	153.386	86.591	313.117	118.934	172.033	93.621	406.624	369.159	364.701	302.950	398.785	401.734	0.0013253	0.0015489	0.00067412	953.79	2.4257e-05	7.3688e-06	1038.5	373.07	6.6101e-06	2.0662e-05	465.92	184.59	134.68	55.434	5.1646e-06	87.207	0.0078742	0.0084922	0.0023705	1003.5	9.0802e-05	9.3532e-05	1083	386.44	9.1121e-05	9.3332e-05	502.22	193.53	148.26	59.233	9.3142e-05	91.309	314.382	408.625	186.445	86.507	169.212	292.350	85.428	91.579	314.671	188.487	89.519	93.801	95.898	100.407	295.795	97.257	-8191	255	
29829.508	1	1	0	0	0.087868	0.22477	0.16242	0.18367	0.21596	0.098893	0.14152	0.22	0.21492	0.065623	0.24463	0.15812	0.25072	0.079025	0.32843	0.066524	-3.7042	-4.9708	-4.3771	-4.0833	-4.8646	-4.0521	-4.5292	-5.0083	-3.9792	-4.8458	-4.6646	-4.0854	-4.9771	-4.2229	-4.4	-4.9313	169.555	276.932	382.081	413.430	259.283	353.694	326.687	406.595	412.877	94.889	399.096	396.030	385.666	115.969	81.166	305.605	0.0018481	0.0015461	0.00068827	962.6	1.1666e-05	8.269e-06	1048.1	373.4	1.2891e-05	2.3101e-05	472.46	186.17	135.96	55.519	5.1399e-06	87.604	0.0079513	0.0086412	0.0024125	1011.4	9.233e-05	9.4231e-05	1093.7	389.61	9.2304e-05	9.3668e-05	509.74	194.98	148.76	59.254	8.9683e-05	91.061	318.066	163.963	230.418	86.649	264.137	133.788	85.609	91.675	409.254	268.225	89.365	93.542	95.982	100.177	268.374	97.055	-8191	255	
29829.604	1	1	0	0	0.35133	0.067036	0.15079	0.082152	0.18668	0.010407	0.28393	0.13917	0.1526	0.20668	0.076283	0.08824	0.10673	0.19932	0.20917	0.10552	-3.6771	-4.6917	-4.5771	-4.2937	-4.8542	-4.2479	-4.3625	-4.9979	-3.8708	-4.5813	-4.8458	-4.1875	-5.0104	-4.2833	-4.35	-5.1146	298.668	415.079	411.975	366.142	411.919	231.875	397.556	311.179	331.579	417.840	407.309	328.301	108.992	84.602	265.399	361.004	0.0012776	0.0010741	0.00041269	964.72	2.4831e-05	1.0723e-05	1037.7	370.02	3.2857e-05	1.3411e-05	465.31	181.65	132.43	54.415	2.9249e-05	85.245	0.0075996	0.0082392	0.0023021	1005.8	8.8091e-05	9.1304e-05	1076.2	383.74	8.8128e-05	8.9573e-05	496.51	189.7	144.86	57.902	8.6766e-05	88.659	324.875	241.418	271.699	86.326	295.222	388.804	85.074	91.519	257.105	157.270	89.583	93.543	96.039	100.305	217.918	97.184	-8191	255	
29829.699	1	1	0	0	0.18414	0.11183	0.051455	0.37536	0.10336	0.088185	0.079036	0.24529	0.13518	0.12169	0.30769	0.21082	0.15578	0.2071	0.071548	0.15076	-3.6771	-4.5813	-4.7896	-4.0813	-5	-4.2229	-4.3479	-5.0375	-3.95	-4.4167	-4.9	-4.1354	-4.9375	-4.5729	-4.1687	-5.0896	278.402	271.339	326.756	93.814	272.904	379.984	157.575	388.730	325.119	239.938	416.080	413.502	354.830	370.697	107.780	310.296	0.0011773	0.0027733	0.00047959	950	2.3136e-05	6.3861e-06	1034.4	365.42	1.6428e-05	9.8432e-06	458.89	180.43	132.5	54.453	2.3164e-05	84.891	0.0073449	0.0078765	0.0022156	990.48	8.5661e-05	8.6993e-05	1058.6	377.97	8.5426e-05	8.7128e-05	489.58	187.53	144.1	57.787	8.7195e-05	88.485	324.414	179.535	131.683	86.533	235.367	154.423	85.451	91.539	296.625	195.680	89.372	93.632	95.885	100.239	332.744	96.721	-8191	255	
