BOXY.EXE: ISS Imagent and Oximeter Data Acquisition Program Version 0.80
Ascii Record File

#ACQ INFORMATION
2  Detector Channels 
16  External MUX Channels 
1  Auxiliary Channels 
5000  Waveform (CCF) Frequency (Hz)
1  Waveforms Skipped 
30  Waveforms Averaged 
1  Cycles Averaged 
16  Acquisitions per Waveform 
10.0806  Updata Rate (Hz) 

#FILE INFORMATION
TRUE -- External MUX Channel results are PARSED.
FALSE -- AC DC and Phase are NOT grouped.
TRUE -- Companion Program Settings File CREATED.
FALSE -- AC data not excluded
FALSE -- DC data not excluded
FALSE -- Phase data not excluded
FALSE -- Auxillary Chn. data not excluded
Tab delimiters

#CALIBRATION STATE
TRUE -- Waveform Calibration Values APPLIED.


#AUX CALIBRATION VALUES
Val Type	aux-1	

Term	1.0000e+00	
Factor	0.0000e+00	


#WF CALIBRATION VALUES
A = Detector Channel
Val Type	A-AC1	A-AC2	A-AC3	A-AC4	A-AC5	A-AC6	A-AC7	A-AC8	A-AC9	A-AC10	A-AC11	A-AC12	A-AC13	A-AC14	A-AC15	A-AC16	A-DC1	A-DC2	A-DC3	A-DC4	A-DC5	A-DC6	A-DC7	A-DC8	A-DC9	A-DC10	A-DC11	A-DC12	A-DC13	A-DC14	A-DC15	A-DC16	A-Ph1	A-Ph2	A-Ph3	A-Ph4	A-Ph5	A-Ph6	A-Ph7	A-Ph8	A-Ph9	A-Ph10	A-Ph11	A-Ph12	A-Ph13	A-Ph14	A-Ph15	A-Ph16	

Term	0.00000e+00	0.00000e+00	0.00000e+00	0.00000e+00	0.00000e+00	0.00000e+00	0.00000e+00	0.00000e+00	0.00000e+00	0.00000e+00	0.00000e+00	0.00000e+00	0.00000e+00	0.00000e+00	0.00000e+00	0.00000e+00	0.00000e+00	0.00000e+00	0.00000e+00	0.00000e+00	0.00000e+00	0.00000e+00	0.00000e+00	0.00000e+00	0.00000e+00	0.00000e+00	0.00000e+00	0.00000e+00	0.00000e+00	0.00000e+00	0.00000e+00	0.00000e+00	0.00000e+00	0.00000e+00	0.00000e+00	0.00000e+00	0.00000e+00	0.00000e+00	0.00000e+00	0.00000e+00	0.00000e+00	0.00000e+00	0.00000e+00	0.00000e+00	0.00000e+00	0.00000e+00	0.00000e+00	0.00000e+00	
Factor	1.00000e+00	1.00000e+00	1.00000e+00	1.00000e+00	1.00000e+00	1.00000e+00	1.00000e+00	1.00000e+00	1.00000e+00	1.00000e+00	1.00000e+00	1.00000e+00	1.00000e+00	1.00000e+00	1.00000e+00	1.00000e+00	1.00000e+00	1.00000e+00	1.00000e+00	1.00000e+00	1.00000e+00	1.00000e+00	1.00000e+00	1.00000e+00	1.00000e+00	1.00000e+00	1.00000e+00	1.00000e+00	1.00000e+00	1.00000e+00	1.00000e+00	1.00000e+00	X	X	X	X	X	X	X	X	X	X	X	X	X	X	X	X	

B = Detector Channel
Val Type	B-AC1	B-AC2	B-AC3	B-AC4	B-AC5	B-AC6	B-AC7	B-AC8	B-AC9	B-AC10	B-AC11	B-AC12	B-AC13	B-AC14	B-AC15	B-AC16	B-DC1	B-DC2	B-DC3	B-DC4	B-DC5	B-DC6	B-DC7	B-DC8	B-DC9	B-DC10	B-DC11	B-DC12	B-DC13	B-DC14	B-DC15	B-DC16	B-Ph1	B-Ph2	B-Ph3	B-Ph4	B-Ph5	B-Ph6	B-Ph7	B-Ph8	B-Ph9	B-Ph10	B-Ph11	B-Ph12	B-Ph13	B-Ph14	B-Ph15	B-Ph16	

Term	0.00000e+00	0.00000e+00	0.00000e+00	0.00000e+00	0.00000e+00	0.00000e+00	0.00000e+00	0.00000e+00	0.00000e+00	0.00000e+00	0.00000e+00	0.00000e+00	0.00000e+00	0.00000e+00	0.00000e+00	0.00000e+00	0.00000e+00	0.00000e+00	0.00000e+00	0.00000e+00	0.00000e+00	0.00000e+00	0.00000e+00	0.00000e+00	0.00000e+00	0.00000e+00	0.00000e+00	0.00000e+00	0.00000e+00	0.00000e+00	0.00000e+00	0.00000e+00	4.67397e+01	-1.30593e+02	-1.28560e+02	-1.82133e+02	-7.13561e+01	-6.37854e+01	-1.59775e+02	-1.62015e+02	-3.55692e+01	-6.66304e+01	-1.82301e+02	-1.72751e+02	-1.82364e+02	-1.77708e+02	-6.69385e+01	-1.50988e+02	
Factor	5.16967e-05	2.20746e-04	6.02337e-05	2.02139e-01	3.18311e-06	2.24735e-06	1.81842e-01	6.28231e-02	4.81416e-06	2.76037e-06	1.95858e-01	3.19635e-02	2.65861e-02	9.75009e-03	3.16166e-06	1.39849e-02	1.97713e-05	3.80923e-05	1.06821e-05	9.89599e-02	3.61803e-07	4.32140e-07	8.38008e-02	3.08556e-02	3.53419e-07	4.30013e-07	9.30715e-02	1.52886e-02	1.31760e-02	4.84352e-03	3.78907e-07	6.73875e-03	X	X	X	X	X	X	X	X	X	X	X	X	X	X	X	X	



#DISTANCE SETTINGS
A = Detector Channel
A-1	A-2	A-3	A-4	A-5	A-6	A-7	A-8	A-9	A-10	A-11	A-12	A-13	A-14	A-15	A-16	

2.5000e+00	3.0000e+00	2.5000e+00	3.0000e+00	2.0000e+00	3.0000e+00	1.5000e+00	3.0000e+00	3.0000e+00	3.0000e+00	3.0000e+00	3.0000e+00	3.0000e+00	3.0000e+00	1.5000e+00	3.0000e+00	

B = Detector Channel
B-1	B-2	B-3	B-4	B-5	B-6	B-7	B-8	B-9	B-10	B-11	B-12	B-13	B-14	B-15	B-16	

1.0000e+01	1.0000e+01	1.0000e+01	1.4400e+00	1.0000e+01	1.0000e+01	1.5100e+00	1.9400e+00	1.0000e+01	1.0000e+01	1.9900e+00	2.4900e+00	2.4100e+00	2.9000e+00	1.0000e+01	2.9800e+00	




#DATA BEGINS
time	group	step	mark	flag	A-AC1	A-AC2	A-AC3	A-AC4	A-AC5	A-AC6	A-AC7	A-AC8	A-AC9	A-AC10	A-AC11	A-AC12	A-AC13	A-AC14	A-AC15	A-AC16	A-DC1	A-DC2	A-DC3	A-DC4	A-DC5	A-DC6	A-DC7	A-DC8	A-DC9	A-DC10	A-DC11	A-DC12	A-DC13	A-DC14	A-DC15	A-DC16	A-Ph1	A-Ph2	A-Ph3	A-Ph4	A-Ph5	A-Ph6	A-Ph7	A-Ph8	A-Ph9	A-Ph10	A-Ph11	A-Ph12	A-Ph13	A-Ph14	A-Ph15	A-Ph16	B-AC1	B-AC2	B-AC3	B-AC4	B-AC5	B-AC6	B-AC7	B-AC8	B-AC9	B-AC10	B-AC11	B-AC12	B-AC13	B-AC14	B-AC15	B-AC16	B-DC1	B-DC2	B-DC3	B-DC4	B-DC5	B-DC6	B-DC7	B-DC8	B-DC9	B-DC10	B-DC11	B-DC12	B-DC13	B-DC14	B-DC15	B-DC16	B-Ph1	B-Ph2	B-Ph3	B-Ph4	B-Ph5	B-Ph6	B-Ph7	B-Ph8	B-Ph9	B-Ph10	B-Ph11	B-Ph12	B-Ph13	B-Ph14	B-Ph15	B-Ph16	aux-1	digaux	

405.605	1	1	0	256	0.25192	0.1184	0.10793	0.10462	0.26674	0.068275	0.41739	0.22486	0.147	0.18698	0.16003	0.22065	0.27051	0.22944	0.087212	0.090966	-2.7771	-3.1417	-3.0333	-3.4167	-3.1917	-3.1833	-3.7833	-3.3604	-3.1333	-3.4313	-3.1625	-3.4688	-3.4771	-3.15	-3.3896	-3.3646	338.777	180.866	343.196	398.319	264.931	207.559	342.767	109.703	440.660	424.222	278.846	345.597	339.270	102.329	188.236	430.332	0.0014559	0.00053642	0.00015381	1359.3	9.1182e-06	5.0724e-06	1354.8	366.37	1.5966e-05	8.5375e-06	416.35	139.4	121.5	41.253	1.2372e-05	50.692	0.0010007	0.0010898	0.00030956	1395.5	1.1315e-05	1.2326e-05	1386.8	376.67	1.1284e-05	1.2348e-05	427.68	143.49	124.75	43.03	1.141e-05	52.734	343.482	186.219	159.428	96.970	230.404	233.949	96.729	101.722	279.913	240.589	101.587	105.862	106.221	110.756	250.209	109.773	-8191	255	
405.702	1	1	0	0	0.1874	0.097868	0.028266	0.3338	0.16094	0.10591	0.47888	0.27195	0.10049	0.12398	0.12569	0.066308	0.15225	0.31865	0.14728	0.16911	-2.8458	-3.5042	-3.0896	-3.3896	-3.3521	-3.1021	-3.5771	-3.2479	-3.2521	-3.5104	-3.0208	-3.3292	-3.4979	-3.2083	-3.4729	-3.2729	353.206	413.354	140.912	86.766	91.312	157.994	383.929	343.438	115.924	203.402	400.517	433.071	443.194	419.065	219.959	427.884	0.0013401	0.00062448	0.00013794	1360.8	9.2446e-06	5.0255e-06	1355.8	366.08	1.5147e-05	3.9765e-06	416.93	139.9	120.85	41.3	1.043e-05	50.668	0.00098585	0.0011047	0.00030633	1395.4	1.1044e-05	1.2356e-05	1386.2	376.42	1.1147e-05	1.2597e-05	428.13	143.4	124.5	42.982	1.1835e-05	52.65	346.749	173.252	179.052	97.058	246.356	214.268	96.960	101.780	270.528	243.828	101.398	105.486	106.347	110.550	253.136	109.654	-8191	255	
405.798	1	1	0	0	0.075353	0.01423	0.14691	0.25651	0.20977	0.067208	0.26098	0.1866	0.18885	0.16843	0.16285	0.32494	0.10215	0.19653	0.035716	0.29543	-2.6688	-3.4667	-3.2542	-3.3417	-3.2979	-3.0146	-3.5812	-3.3875	-3.05	-3.3312	-3.1021	-3.3458	-3.5708	-3.0021	-3.325	-3.3417	404.679	229.174	323.821	402.923	109.994	420.623	429.228	436.771	148.419	129.002	275.072	375.311	87.764	397.639	109.704	416.035	0.0013439	0.00043158	0.00013333	1359.9	1.4565e-05	4.0267e-06	1357.6	367	1.9207e-05	5.6173e-06	413.75	139.07	121.39	41.245	7.8713e-06	50.888	0.0009835	0.0010775	0.00031259	1393.5	1.1224e-05	1.2508e-05	1385.9	376.93	1.0699e-05	1.1928e-05	427.35	143.18	124.61	42.987	1.1492e-05	52.728	345.136	168.550	173.012	97.026	231.381	253.480	96.715	101.922	271.322	236.535	101.355	105.574	106.100	110.893	236.756	109.807	-8191	255	
405.894	1	1	0	0	0.27372	0.098563	0.11278	0.084723	0.20049	0.1691	0.15122	0.30844	0.26038	0.21034	0.17572	0.20481	0.062979	0.12452	0.1171	0.12925	-2.65	-3.3604	-3.0833	-3.3458	-3.4125	-3.2646	-3.4437	-3.2687	-2.9854	-3.5604	-3.175	-3.2854	-3.5375	-3.1854	-3.2146	-3.4333	378.316	180.255	160.996	435.269	376.057	391.118	380.427	363.138	324.310	150.096	436.054	412.190	175.838	169.933	401.201	414.318	0.0014146	0.00033675	0.00012134	1358.7	8.6265e-06	5.169e-06	1354.2	365.65	1.376e-05	7.8972e-06	414.72	138.55	121.63	41.206	9.4501e-06	50.311	0.00097942	0.0011028	0.00031984	1392.8	1.1245e-05	1.2511e-05	1384.7	375.64	1.0676e-05	1.2349e-05	427.21	143.07	124.55	42.948	1.126e-05	52.557	344.841	169.190	160.933	96.988	246.449	224.593	96.912	101.649	265.684	232.005	101.094	105.738	106.282	110.625	230.047	109.666	-8191	255	
405.990	1	1	0	0	0.18461	0.10603	0.18863	0.1853	0.11429	0.077207	0.12292	0.33027	0.097419	0.1373	0.12273	0.23876	0.15339	0.070728	0.12076	0.16885	-2.7083	-3.4604	-3.1417	-3.2687	-3.5542	-3.1083	-3.5792	-3.5292	-3.1604	-3.3375	-3.3292	-3.3063	-3.4521	-3.2854	-3.2646	-3.5563	360.668	437.055	155.303	354.509	238.849	178.254	394.718	436.282	261.087	196.947	375.072	337.291	98.521	104.993	407.462	190.348	0.0013991	0.00054938	0.00014141	1355.3	8.8815e-06	5.5215e-06	1349	365.75	1.7905e-05	5.5711e-06	413.05	139.28	121.01	41.288	6.9366e-06	50.436	0.00097382	0.0011036	0.00031069	1391.2	1.1217e-05	1.2463e-05	1382	375.63	1.0763e-05	1.2424e-05	426.86	143.18	124.6	42.954	1.1707e-05	52.588	346.124	167.513	178.354	97.005	233.573	236.960	96.763	101.668	272.923	231.108	101.172	105.710	106.258	110.860	234.483	109.709	-8191	255	
406.111	1	1	0	0	0.052707	0.23993	0.25882	0.40393	0.15104	0.14676	0.43046	0.21278	0.13947	0.16183	0.1654	0.42228	0.3442	0.1693	0.098965	0.25275	-2.8375	-3.3854	-3.2854	-3.4042	-3.4979	-3.2208	-3.3042	-3.5917	-3.0792	-3.3042	-3.2313	-3.0563	-3.5167	-3.3812	-3.3	-3.5479	104.677	392.677	399.256	394.451	347.225	391.930	380.374	395.604	308.246	104.161	373.586	427.087	391.679	436.640	128.599	100.875	0.0013999	0.0003901	0.00016391	1353	8.8062e-06	5.8636e-06	1353.6	365.81	1.8377e-05	7.9855e-06	412.51	139.28	120.79	41.317	1.1113e-05	50.699	0.00098926	0.0011112	0.00031109	1390.2	1.1147e-05	1.2245e-05	1381.7	375.5	1.1251e-05	1.2394e-05	426.15	143.06	124.31	42.923	1.162e-05	52.575	345.000	172.565	187.326	97.123	209.013	234.125	96.861	101.802	276.078	234.730	101.456	105.841	106.322	110.775	236.888	109.671	-8191	255	
406.207	1	1	0	0	0.41278	0.072937	0.093701	0.34274	0.051816	0.2154	0.26718	0.23962	0.20366	0.21764	0.076181	0.093259	0.24929	0.28325	0.2125	0.23358	-2.6917	-3.2271	-3.4	-3.1042	-3.5021	-3.3979	-3.3979	-3.5375	-3.0542	-3.2729	-3.5062	-3.2521	-3.4688	-3.3792	-3.1917	-3.4208	364.853	319.094	139.609	424.987	286.859	247.659	421.746	349.411	419.985	150.110	91.489	309.614	426.967	403.531	109.851	358.216	0.0013933	0.00051459	0.00010803	1351.5	9.0356e-06	7.3258e-06	1344.7	365.99	1.8801e-05	9.5145e-06	414.48	138.73	120.47	41.118	9.053e-06	50.539	0.00098078	0.0010792	0.0003025	1386.1	1.1433e-05	1.2221e-05	1375.8	375.54	1.1269e-05	1.2262e-05	426.16	142.78	123.95	42.808	1.1157e-05	52.501	345.866	158.116	175.042	97.024	253.179	242.270	96.685	101.657	272.439	252.824	101.322	105.720	106.265	110.655	238.279	109.668	-8191	255	
406.303	1	1	0	0	0.22038	0.038612	0.062266	0.13426	0.13861	0.27116	0.2814	0.062457	0.054671	0.087714	0.14532	0.24088	0.2692	0.22478	0.23318	0.2835	-2.5354	-3.2479	-3.5729	-3.2396	-3.3917	-3.3896	-3.4479	-3.5917	-3.1896	-3.3937	-3.5958	-3.25	-3.6125	-3.3063	-3.2521	-3.5	182.550	133.837	306.160	317.375	224.036	409.571	372.660	144.210	204.648	228.973	418.167	435.604	375.888	438.687	126.170	336.928	0.0014094	0.00052012	0.00014842	1349.5	9.6216e-06	4.3654e-06	1346.8	364.41	1.7116e-05	5.1412e-06	414.13	138.5	120.95	40.929	8.7485e-06	50.325	0.00096311	0.0010935	0.00030284	1385.5	1.1229e-05	1.2057e-05	1376.5	375.25	1.119e-05	1.2178e-05	426.41	142.56	124.05	42.747	1.1577e-05	52.351	347.748	175.515	189.774	97.104	234.750	224.548	96.794	101.833	279.208	247.079	101.170	105.709	106.232	110.757	241.738	109.514	-8191	255	
406.399	1	1	0	0	0.14237	0.13945	0.22427	0.2632	0.1632	0.14193	0.17422	0.080434	0.12531	0.079197	0.071055	0.27974	0.13228	0.38893	0.17224	0.082001	-2.7812	-3.2604	-3.375	-3.4104	-3.2687	-3.5062	-3.3083	-3.575	-3.2354	-3.2229	-3.5312	-3.2562	-3.3271	-3.5646	-3.0625	-3.4958	297.244	125.380	145.137	387.553	168.130	252.802	413.447	390.448	336.771	217.538	215.654	339.081	166.747	419.034	151.809	174.558	0.0013695	0.00047498	0.00010865	1344.1	9.6839e-06	4.3662e-06	1344.7	363.61	1.723e-05	8.0095e-06	413.35	138.44	120.39	41.065	1.0597e-05	50.437	0.00099116	0.0011017	0.00030502	1383.7	1.1341e-05	1.2593e-05	1376.7	374.26	1.1295e-05	1.2731e-05	425.87	142.34	123.71	42.678	1.1898e-05	52.346	347.151	168.234	174.089	97.149	226.079	253.177	96.863	101.841	275.807	240.316	101.393	105.696	106.305	110.810	250.922	109.775	-8191	255	
406.495	1	1	0	0	0.067575	0.14155	0.06091	0.099519	0.25365	0.26014	0.13888	0.13354	0.15717	0.17806	0.18556	0.22859	0.33237	0.089105	0.2065	0.13998	-2.7438	-3.2	-3.3375	-3.1396	-3.3563	-3.4396	-3.2646	-3.6292	-3.2479	-3.1979	-3.5417	-3.1708	-3.3604	-3.6333	-3.1708	-3.3729	392.506	212.032	219.210	140.370	360.462	311.649	319.636	325.915	310.310	141.514	100.898	271.708	357.065	262.223	426.689	393.700	0.0013567	0.0004668	0.00019038	1352	8.5738e-06	3.4853e-06	1342.9	363.66	1.9957e-05	5.8118e-06	411.03	137.55	120.49	40.869	1.3038e-05	50.454	0.0010078	0.0011448	0.0003119	1384.1	1.1576e-05	1.2745e-05	1374.4	374.38	1.1343e-05	1.2695e-05	425.43	141.96	123.64	42.566	1.199e-05	52.325	345.643	186.014	149.600	97.243	238.898	233.416	96.739	101.796	284.719	226.139	101.687	105.709	106.266	110.727	227.715	109.354	-8191	255	
406.591	1	1	0	0	0.065029	0.082142	0.099501	0.030801	0.21317	0.27299	0.23727	0.074765	0.2669	0.28488	0.022362	0.087082	0.13167	0.13652	0.28179	0.43331	-2.8167	-2.9854	-3.5062	-3.3229	-3.2958	-3.4729	-3.2229	-3.4167	-3.1542	-2.9167	-3.5125	-3.2062	-3.3979	-3.4646	-2.8625	-3.3729	302.534	327.574	176.292	244.170	128.997	418.732	382.883	341.703	241.290	242.989	104.512	388.391	401.397	120.904	387.039	358.926	0.0013633	0.00047252	0.00012519	1345.3	9.6756e-06	5.2147e-06	1343.3	364.35	1.7683e-05	4.143e-06	411.01	137.74	119.82	41.124	9.4354e-06	50.235	0.00099705	0.0010907	0.00031356	1380.6	1.1584e-05	1.2844e-05	1373.9	374.06	1.1486e-05	1.2431e-05	424.65	141.9	123.4	42.614	1.1759e-05	52.256	344.571	157.926	179.056	97.095	223.922	221.360	96.795	101.958	279.931	236.603	101.590	105.766	106.198	110.785	243.700	109.808	-8191	255	
406.686	1	1	0	0	0.21648	0.093357	0.13833	0.26732	0.025789	0.18903	0.28382	0.23275	0.10309	0.17357	0.027931	0.29637	0.17888	0.2226	0.046736	0.13298	-2.9521	-3.0938	-3.4229	-3.3042	-3.1542	-3.3354	-3.2833	-3.4188	-3.2083	-3.0979	-3.3063	-3.3375	-3.1583	-3.4417	-3.2	-3.3604	292.575	328.549	291.461	433.251	373.955	189.038	417.640	358.669	261.893	227.657	171.827	439.473	96.164	229.130	341.702	366.129	0.0014323	0.00055854	0.0002114	1346.5	8.2354e-06	4.9361e-06	1346.2	364.94	2.1335e-05	5.5806e-06	410.68	137.7	120.44	40.834	8.712e-06	50.259	0.00098996	0.0011521	0.0003196	1382.6	1.1816e-05	1.2926e-05	1374.8	374.47	1.1541e-05	1.307e-05	425.03	141.82	123.5	42.548	1.2004e-05	52.26	348.327	159.663	197.141	96.987	225.789	241.414	96.894	101.958	271.688	231.625	101.335	105.537	106.046	110.820	228.021	109.609	-8191	255	
406.806	1	1	0	0	0.31412	0.13072	0.13504	0.088486	0.31942	0.18815	0.0082131	0.13492	0.10915	0.062209	0.22711	0.16217	0.21407	0.19289	0.24305	0.24724	-2.9208	-3.0125	-3.5104	-3.3375	-3.2062	-3.6917	-3.3917	-3.4646	-3.3833	-3.1125	-3.3771	-3.4542	-3.4313	-3.5438	-3.2604	-3.3354	340.067	174.510	200.422	417.971	299.010	274.108	351.202	330.076	214.238	408.229	343.421	88.713	433.815	342.869	225.112	94.326	0.0014086	0.00063462	0.00012183	1351.7	9.2072e-06	5.8376e-06	1348.2	364.71	1.6693e-05	8.349e-06	412.42	137.76	120.16	40.729	8.6886e-06	50.118	0.0010083	0.0011465	0.00033192	1384.2	1.1445e-05	1.3042e-05	1376.6	374.06	1.148e-05	1.2827e-05	425.41	142.02	123.5	42.529	1.1846e-05	52.222	345.550	178.698	187.308	97.061	226.126	234.864	96.793	101.830	274.738	230.495	101.526	105.697	106.346	110.698	214.649	109.648	-8191	255	
406.903	1	1	0	0	0.1529	0.23572	0.040822	0.20514	0.075746	0.12733	0.18218	0.079325	0.096833	0.22589	0.07063	0.17351	0.16778	0.10033	0.20739	0.14152	-3.15	-3.1021	-3.4417	-3.5	-3.1688	-3.3833	-3.475	-3.5021	-3.3917	-3.0917	-3.5417	-3.3167	-3.2	-3.6083	-3.2104	-3.1021	437.311	95.094	435.214	116.031	85.243	192.371	122.633	328.614	195.780	256.453	99.836	405.820	94.919	360.981	210.555	402.727	0.0013453	0.00068198	0.00022762	1346.8	7.9793e-06	3.5406e-06	1346.9	364.9	1.2644e-05	6.0462e-06	411.82	137.93	120.25	40.725	8.323e-06	50.192	0.00099977	0.0011801	0.00032267	1384.8	1.148e-05	1.3269e-05	1378.1	374.61	1.127e-05	1.3003e-05	425.41	142	123.54	42.495	1.1977e-05	52.226	345.472	174.812	179.423	97.095	225.257	210.212	96.703	101.689	260.873	225.545	101.409	105.582	106.505	110.788	250.295	109.790	-8191	255	
406.999	1	1	0	0	0.32991	0.036046	0.20361	0.035044	0.12685	0.16426	0.23169	0.22428	0.12026	0.072279	0.046298	0.29791	0.219	0.18865	0.18284	0.06623	-3.1958	-3.3896	-3.3854	-3.5729	-3.2917	-3.5938	-3.3771	-3.3354	-3.5271	-3.0812	-3.4583	-3.3875	-3.3	-3.4583	-3.325	-3.4042	359.103	225.906	119.550	285.710	399.702	273.090	369.225	430.850	90.997	267.033	313.509	372.680	423.282	407.361	160.857	87.544	0.0014402	0.00065769	0.00016996	1348.5	1.1415e-05	2.5154e-06	1345.3	365.3	1.8536e-05	5.5493e-06	411.89	138.19	120.37	40.817	6.7024e-06	50.282	0.0010129	0.0011648	0.00032932	1384.2	1.1687e-05	1.3155e-05	1375	374.1	1.1521e-05	1.2935e-05	425.62	142	123.34	42.531	1.1707e-05	52.233	345.331	164.906	169.293	97.162	224.053	243.092	96.874	101.738	263.273	231.412	101.314	105.683	106.319	110.936	255.390	109.637	-8191	255	
407.095	1	1	0	0	0.20442	0.071791	0.16705	0.12713	0.16489	0.15737	0.098876	0.093279	0.054913	0.14003	0.035058	0.2105	0.17214	0.19032	0.24494	0.044147	-3.0979	-3.2042	-3.2375	-3.5583	-3.2604	-3.2646	-3.4083	-3.325	-3.5375	-3.2	-3.4417	-3.3708	-3.1229	-3.3958	-3.4271	-3.3333	335.284	277.952	291.315	355.112	202.591	89.473	114.457	140.497	262.276	277.435	331.761	110.811	160.960	422.965	401.298	139.505	0.0013932	0.0005881	0.00012511	1353.1	8.6836e-06	4.8738e-06	1340.9	364.1	1.5958e-05	5.406e-06	413.87	137.32	119.86	40.803	1.1859e-05	50.148	0.0010031	0.0011536	0.00032175	1383.3	1.2031e-05	1.2784e-05	1374.5	374.04	1.1351e-05	1.2643e-05	426.29	141.83	123.22	42.536	1.1803e-05	52.169	343.868	172.282	171.645	97.034	227.100	247.618	96.720	101.872	275.312	256.978	101.117	105.788	106.366	110.739	231.443	109.808	-8191	255	
407.191	1	1	0	0	0.21184	0.27103	0.30817	0.16029	0.13509	0.13756	0.25751	0.15674	0.19442	0.083521	0.13618	0.1204	0.1916	0.052083	0.22018	0.24961	-2.975	-3.1979	-3.2917	-3.5146	-3.0375	-3.4562	-3.5021	-3.1833	-3.3854	-3.2958	-3.2458	-3.4625	-3.2521	-3.4729	-3.5312	-3.1667	340.235	324.607	234.313	113.042	173.082	408.382	89.482	354.931	439.769	294.346	335.404	315.528	310.662	106.483	184.376	357.836	0.0013622	0.00058728	0.00019261	1346.2	1.0849e-05	5.5676e-06	1347.1	364.08	2.0439e-05	7.4339e-06	413.74	137.61	120.02	40.842	1.0505e-05	50.074	0.0010021	0.001159	0.00032652	1382.9	1.1752e-05	1.3145e-05	1377.4	373.82	1.1569e-05	1.2871e-05	425.96	142	123.44	42.534	1.1913e-05	52.252	345.270	190.645	181.496	97.060	219.045	250.406	96.787	101.692	276.935	242.775	101.472	105.691	106.334	110.785	244.624	109.692	-8191	255	
407.287	1	1	0	0	0.013735	0.20565	0.169	0.1025	0.17204	0.062869	0.3166	0.081549	0.25466	0.14286	0.085227	0.087247	0.21475	0.0067583	0.095943	0.31479	-2.9562	-3.2583	-3.1854	-3.4146	-3.0042	-3.4854	-3.6458	-3.2562	-3.5583	-3.3187	-3.3167	-3.5896	-3.325	-3.375	-3.3688	-3.1625	119.151	315.759	322.819	390.233	366.204	241.997	375.544	416.602	184.113	260.866	332.606	89.396	343.425	174.992	283.965	138.208	0.001412	0.00063699	0.00015518	1353.2	1.1e-05	4.3784e-06	1347.3	365.01	1.5935e-05	6.0897e-06	413.03	137.84	120.1	40.884	7.9438e-06	50.207	0.0010052	0.001159	0.00031281	1385.6	1.1623e-05	1.2702e-05	1377.6	374.53	1.1252e-05	1.2598e-05	426.02	142.01	123.37	42.537	1.1644e-05	52.209	345.523	187.413	186.803	97.042	234.359	222.944	96.853	102.048	290.840	238.332	101.327	105.603	106.344	110.927	258.531	109.653	-8191	255	
