BOXY.EXE: ISS Imagent and Oximeter Data Acquisition Program Version 0.80
Ascii Record File

#ACQ INFORMATION
2  Detector Channels 
16  External MUX Channels 
1  Auxiliary Channels 
5000  Waveform (CCF) Frequency (Hz)
1  Waveforms Skipped 
30  Waveforms Averaged 
1  Cycles Averaged 
16  Acquisitions per Waveform 
10.0806  Updata Rate (Hz) 

#FILE INFORMATION
TRUE -- External MUX Channel results are PARSED.
FALSE -- AC DC and Phase are NOT grouped.
TRUE -- Companion Program Settings File CREATED.
FALSE -- AC data not excluded
FALSE -- DC data not excluded
FALSE -- Phase data not excluded
FALSE -- Auxillary Chn. data not excluded
Tab delimiters

#CALIBRATION STATE
TRUE -- Waveform Calibration Values APPLIED.


#AUX CALIBRATION VALUES
Val Type	aux-1	

Term	1.0000e+00	
Factor	0.0000e+00	


#WF CALIBRATION VALUES
A = Detector Channel
Val Type	A-AC1	A-AC2	A-AC3	A-AC4	A-AC5	A-AC6	A-AC7	A-AC8	A-AC9	A-AC10	A-AC11	A-AC12	A-AC13	A-AC14	A-AC15	A-AC16	A-DC1	A-DC2	A-DC3	A-DC4	A-DC5	A-DC6	A-DC7	A-DC8	A-DC9	A-DC10	A-DC11	A-DC12	A-DC13	A-DC14	A-DC15	A-DC16	A-Ph1	A-Ph2	A-Ph3	A-Ph4	A-Ph5	A-Ph6	A-Ph7	A-Ph8	A-Ph9	A-Ph10	A-Ph11	A-Ph12	A-Ph13	A-Ph14	A-Ph15	A-Ph16	

Term	0.00000e+00	0.00000e+00	0.00000e+00	0.00000e+00	0.00000e+00	0.00000e+00	0.00000e+00	0.00000e+00	0.00000e+00	0.00000e+00	0.00000e+00	0.00000e+00	0.00000e+00	0.00000e+00	0.00000e+00	0.00000e+00	0.00000e+00	0.00000e+00	0.00000e+00	0.00000e+00	0.00000e+00	0.00000e+00	0.00000e+00	0.00000e+00	0.00000e+00	0.00000e+00	0.00000e+00	0.00000e+00	0.00000e+00	0.00000e+00	0.00000e+00	0.00000e+00	0.00000e+00	0.00000e+00	0.00000e+00	0.00000e+00	0.00000e+00	0.00000e+00	0.00000e+00	0.00000e+00	0.00000e+00	0.00000e+00	0.00000e+00	0.00000e+00	0.00000e+00	0.00000e+00	0.00000e+00	0.00000e+00	
Factor	1.00000e+00	1.00000e+00	1.00000e+00	1.00000e+00	1.00000e+00	1.00000e+00	1.00000e+00	1.00000e+00	1.00000e+00	1.00000e+00	1.00000e+00	1.00000e+00	1.00000e+00	1.00000e+00	1.00000e+00	1.00000e+00	1.00000e+00	1.00000e+00	1.00000e+00	1.00000e+00	1.00000e+00	1.00000e+00	1.00000e+00	1.00000e+00	1.00000e+00	1.00000e+00	1.00000e+00	1.00000e+00	1.00000e+00	1.00000e+00	1.00000e+00	1.00000e+00	X	X	X	X	X	X	X	X	X	X	X	X	X	X	X	X	

B = Detector Channel
Val Type	B-AC1	B-AC2	B-AC3	B-AC4	B-AC5	B-AC6	B-AC7	B-AC8	B-AC9	B-AC10	B-AC11	B-AC12	B-AC13	B-AC14	B-AC15	B-AC16	B-DC1	B-DC2	B-DC3	B-DC4	B-DC5	B-DC6	B-DC7	B-DC8	B-DC9	B-DC10	B-DC11	B-DC12	B-DC13	B-DC14	B-DC15	B-DC16	B-Ph1	B-Ph2	B-Ph3	B-Ph4	B-Ph5	B-Ph6	B-Ph7	B-Ph8	B-Ph9	B-Ph10	B-Ph11	B-Ph12	B-Ph13	B-Ph14	B-Ph15	B-Ph16	

Term	0.00000e+00	0.00000e+00	0.00000e+00	0.00000e+00	0.00000e+00	0.00000e+00	0.00000e+00	0.00000e+00	0.00000e+00	0.00000e+00	0.00000e+00	0.00000e+00	0.00000e+00	0.00000e+00	0.00000e+00	0.00000e+00	0.00000e+00	0.00000e+00	0.00000e+00	0.00000e+00	0.00000e+00	0.00000e+00	0.00000e+00	0.00000e+00	0.00000e+00	0.00000e+00	0.00000e+00	0.00000e+00	0.00000e+00	0.00000e+00	0.00000e+00	0.00000e+00	-1.94344e+02	-1.48674e+02	-1.07227e+02	-1.84987e+02	-9.08407e+01	-7.85829e+01	-1.57988e+02	-1.62015e+02	-1.11268e+02	-7.23283e+01	-1.72886e+02	-1.71881e+02	-1.86190e+02	-1.78141e+02	-8.04851e+01	-1.51352e+02	
Factor	3.67444e-05	1.62840e-04	4.87540e-05	1.57284e-01	1.62940e-06	1.66336e-06	1.76798e-01	5.88739e-02	1.65447e-06	1.74198e-06	9.00523e-02	2.90411e-02	3.90052e-02	9.40174e-03	1.81285e-06	1.35102e-02	2.66912e-06	2.86867e-06	7.96089e-07	8.04055e-02	3.10196e-08	3.14591e-08	8.49095e-02	3.00481e-02	3.10529e-08	3.13860e-08	4.43970e-02	1.43626e-02	1.94229e-02	4.81836e-03	3.11608e-08	6.69425e-03	X	X	X	X	X	X	X	X	X	X	X	X	X	X	X	X	



#DISTANCE SETTINGS
A = Detector Channel
A-1	A-2	A-3	A-4	A-5	A-6	A-7	A-8	A-9	A-10	A-11	A-12	A-13	A-14	A-15	A-16	

2.5000e+00	3.0000e+00	2.5000e+00	3.0000e+00	2.0000e+00	3.0000e+00	1.5000e+00	3.0000e+00	3.0000e+00	3.0000e+00	3.0000e+00	3.0000e+00	3.0000e+00	3.0000e+00	1.5000e+00	3.0000e+00	

B = Detector Channel
B-1	B-2	B-3	B-4	B-5	B-6	B-7	B-8	B-9	B-10	B-11	B-12	B-13	B-14	B-15	B-16	

1.0000e+01	1.0000e+01	1.0000e+01	1.4400e+00	1.0000e+01	1.0000e+01	1.5100e+00	1.9400e+00	1.0000e+01	1.0000e+01	1.9900e+00	2.4900e+00	2.4100e+00	2.9000e+00	1.0000e+01	2.9800e+00	




#DATA BEGINS
time	group	step	mark	flag	A-AC1	A-AC2	A-AC3	A-AC4	A-AC5	A-AC6	A-AC7	A-AC8	A-AC9	A-AC10	A-AC11	A-AC12	A-AC13	A-AC14	A-AC15	A-AC16	A-DC1	A-DC2	A-DC3	A-DC4	A-DC5	A-DC6	A-DC7	A-DC8	A-DC9	A-DC10	A-DC11	A-DC12	A-DC13	A-DC14	A-DC15	A-DC16	A-Ph1	A-Ph2	A-Ph3	A-Ph4	A-Ph5	A-Ph6	A-Ph7	A-Ph8	A-Ph9	A-Ph10	A-Ph11	A-Ph12	A-Ph13	A-Ph14	A-Ph15	A-Ph16	B-AC1	B-AC2	B-AC3	B-AC4	B-AC5	B-AC6	B-AC7	B-AC8	B-AC9	B-AC10	B-AC11	B-AC12	B-AC13	B-AC14	B-AC15	B-AC16	B-DC1	B-DC2	B-DC3	B-DC4	B-DC5	B-DC6	B-DC7	B-DC8	B-DC9	B-DC10	B-DC11	B-DC12	B-DC13	B-DC14	B-DC15	B-DC16	B-Ph1	B-Ph2	B-Ph3	B-Ph4	B-Ph5	B-Ph6	B-Ph7	B-Ph8	B-Ph9	B-Ph10	B-Ph11	B-Ph12	B-Ph13	B-Ph14	B-Ph15	B-Ph16	aux-1	digaux	

1149.833	1	1	0	256	0.13281	0.23426	0.1811	0.049115	0.12546	0.19673	0.068094	0.14168	0.31148	0.30571	0.21003	0.15567	0.12419	0.3085	0.098318	0.099888	-1.8125	-2.0438	-1.7021	-2.3354	-1.9771	-1.8667	-2.45	-2.0187	-1.9333	-2.1083	-1.8375	-2.3937	-2.075	-2.0312	-2.3021	-2.1083	391.641	431.676	191.825	157.458	221.597	452.363	132.133	332.400	306.050	475.969	409.228	367.329	249.945	124.246	296.804	466.487	0.0011259	0.00039347	0.00015621	507.17	3.1626e-06	3.7913e-06	581.61	187.97	2.1926e-06	7.3492e-06	249.76	119.99	90.349	43.642	7.9071e-06	55.867	0.00094936	0.00094793	0.00026304	547.82	1.0245e-05	1.0405e-05	623.64	203.26	1.0369e-05	1.0403e-05	269.99	127.33	97.798	46.802	1.0279e-05	59.897	476.990	156.441	267.847	135.943	197.161	322.955	135.138	141.432	177.476	231.631	140.207	143.132	144.986	148.281	277.076	145.547	-8191	255	
1149.953	1	1	0	0	0.29809	0.15189	0.080023	0.077388	0.18283	0.41397	0.17519	0.13589	0.16086	0.092869	0.33331	0.17849	0.18793	0.43416	0.12205	0.13453	-1.6083	-2.2458	-1.7625	-2.075	-2.2354	-1.7729	-2.2979	-2.2292	-2.0625	-2.2417	-1.8813	-2.4188	-2.2417	-1.8958	-2.2438	-2.0896	241.614	430.597	476.958	185.145	417.582	266.598	427.728	400.963	197.453	429.676	413.509	421.416	462.169	479.323	334.854	202.056	0.0012625	0.00017581	5.8803e-05	509.18	5.2907e-06	6.6384e-06	585.63	189.62	8.0595e-06	3.3921e-06	250.76	120.59	91.046	43.648	9.134e-06	56.285	0.00093592	0.00094094	0.00026114	550.32	1.0197e-05	1.0263e-05	628.03	204.88	1.0226e-05	1.0338e-05	271.42	128.34	98.231	46.995	1.014e-05	60.297	474.093	275.409	377.841	135.979	181.821	210.036	135.105	141.896	205.796	311.714	140.005	142.941	145.057	148.379	246.468	145.657	-8191	255	
1150.049	1	1	0	0	0.22574	0.25848	0.20402	0.19877	0.11122	0.097012	0.19979	0.015754	0.22828	0.1413	0.16748	0.12197	0.11502	0.013669	0.27433	0.15562	-1.6396	-2.3	-1.6833	-2.2396	-2.1271	-2.0042	-2.2979	-2.2	-1.8354	-2.5208	-1.9208	-2.2812	-2.1396	-1.7583	-2.2479	-2.2125	194.515	460.920	471.845	366.328	303.036	211.194	416.234	478.332	370.756	356.905	223.549	158.613	356.539	284.875	326.824	448.851	0.00126	0.00032846	5.1065e-05	510.32	2.9677e-06	2.6163e-06	589.42	190.79	8.5121e-06	6.9676e-06	251.6	122.37	91.471	43.963	4.4186e-06	56.266	0.00093568	0.00092718	0.00025772	549.41	1.0062e-05	1.0189e-05	630.74	205.49	1.0199e-05	1.0285e-05	272.6	129.4	98.648	47.276	1.0335e-05	60.474	475.778	420.888	166.861	136.228	272.996	184.811	135.327	141.822	227.288	282.109	139.860	142.792	144.979	148.314	239.142	145.857	-8191	255	
1150.146	1	1	0	0	0.15216	0.092849	0.19205	0.13087	0.16179	0.25923	0.19879	0.12531	0.29146	0.040431	0.10985	0.1459	0.12873	0.24506	0.10645	0.30061	-1.4604	-2.3896	-1.9333	-2.2792	-2.1271	-1.8021	-2.3625	-1.7917	-1.7229	-2.3292	-2.0812	-2.1437	-2.2625	-1.8104	-2.1312	-2.0563	247.534	476.840	409.751	293.901	225.874	357.507	129.292	238.594	190.770	133.190	373.362	440.230	166.096	437.095	316.086	475.814	0.0011208	0.00080988	0.00012852	510.65	9.669e-07	6.2298e-06	588.25	191.32	6.3345e-06	5.9128e-06	252.19	121.24	91.531	44.174	4.8214e-06	56.379	0.00094242	0.00093263	0.00026051	551.19	1.0148e-05	1.0196e-05	631.19	205.71	1.0169e-05	1.0226e-05	272.96	129.27	98.796	47.423	1.0308e-05	60.382	480.238	220.141	149.503	135.853	443.417	257.978	135.357	141.971	282.502	231.090	140.145	142.965	144.806	148.327	228.621	145.861	-8191	255	
1150.242	1	1	0	0	0.28125	0.22762	0.040045	0.23624	0.25422	0.13103	0.27797	0.4751	0.12339	0.25731	0.19589	0.21742	0.13066	0.29354	0.24355	0.18655	-1.3708	-2.5021	-1.8896	-2.1083	-2.0833	-1.7938	-2.3333	-2.1917	-1.7313	-2.2833	-2.2271	-2.0521	-2.3354	-1.9833	-2.1688	-2.3542	227.861	295.882	380.472	426.663	356.521	341.561	404.810	451.898	300.094	433.817	400.536	478.935	214.314	473.736	397.143	277.720	0.0012078	0.00036786	0.00013477	507.31	9.9288e-06	8.1164e-06	584.41	188.88	1.0774e-05	5.4095e-06	251.8	121.6	91.263	44.277	2.6579e-06	56.581	0.00093894	0.00093551	0.00025865	547.89	1.0093e-05	1.0158e-05	625.96	204.39	1.0106e-05	1.0226e-05	271.52	129.69	98.862	47.439	1.0161e-05	60.426	474.306	153.658	244.837	136.156	229.479	306.800	135.103	141.690	265.268	273.272	140.174	143.207	144.883	148.241	240.816	145.791	-8191	255	
1150.338	1	1	0	0	0.12665	0.297	0.12132	0.13002	0.11534	0.23616	0.066818	0.19419	0.10417	0.13876	0.13764	0.14161	0.35852	0.23464	0.19024	0.26262	-1.4312	-2.1542	-2.0667	-2.0729	-2.3312	-1.9208	-2.0563	-2.2604	-1.7771	-2.3896	-2.1875	-2.1562	-2.2271	-2.0229	-2.1021	-2.4	404.146	418.309	363.297	247.890	135.795	158.237	148.365	376.628	299.735	395.273	340.729	476.064	326.672	481.849	292.461	357.240	0.0012254	0.00029388	8.9053e-05	507.01	8.8081e-06	2.8238e-06	586.56	189.81	4.4427e-06	1.8451e-06	252.52	121.4	91.024	43.926	1.0274e-05	56.469	0.0009299	0.00093343	0.00026007	548.6	1.0218e-05	1.0262e-05	629.3	204.95	1.0178e-05	1.0281e-05	273.07	129.02	98.698	47.371	1.0317e-05	60.733	479.475	464.228	238.709	136.039	215.079	237.671	135.265	142.017	201.623	155.722	140.127	143.013	145.191	148.296	291.150	145.653	-8191	255	
1150.434	1	1	0	0	0.30383	0.13626	0.31964	0.084466	0.053373	0.075604	0.31742	0.24021	0.1849	0.19276	0.28843	0.46654	0.14243	0.080318	0.085887	0.17481	-1.35	-2.15	-2.0229	-1.925	-2.175	-2.1229	-2.0958	-2.3917	-1.8875	-2.3063	-2.1792	-2.075	-2.3542	-2.0958	-2.1542	-2.4521	239.297	270.403	146.405	419.594	423.606	166.801	443.252	435.425	366.915	456.371	404.953	147.145	280.316	396.989	461.234	395.146	0.0014575	0.0006009	0.00019314	511.53	5.1071e-06	1.1141e-06	590.17	191.25	6.2132e-06	1.186e-05	254.07	121.95	91.283	44.354	8.0744e-06	57.049	0.00093831	0.00094118	0.00026011	551.87	1.022e-05	1.0314e-05	633.88	206.69	1.0265e-05	1.0443e-05	275.45	129.76	99.06	47.645	1.0478e-05	60.974	473.304	166.324	245.056	136.298	211.214	200.182	135.060	142.072	278.324	324.773	140.020	142.839	144.848	148.296	257.114	145.859	-8191	255	
1150.553	1	1	0	0	0.10331	0.10177	0.092345	0.13689	0.088848	0.12425	0.22069	0.012868	0.3366	0.12523	0.10501	0.087852	0.15122	0.3045	0.27868	0.019108	-1.3438	-2.0979	-2.1896	-1.7958	-2.3937	-1.9646	-2.0208	-2.4292	-1.6896	-2.0542	-2.2333	-2.0271	-2.3521	-2.2708	-1.925	-2.4479	437.327	201.478	452.661	139.305	313.662	372.981	409.549	479.693	344.768	176.459	357.970	271.241	385.418	463.119	449.086	298.820	0.0012966	0.00063725	0.00010695	512.76	5.1699e-06	7.1191e-06	593.39	191.81	4.6715e-06	7.1427e-06	254.44	122.39	91.651	44.41	1.1617e-05	56.745	0.00095875	0.0009666	0.00026573	553.37	1.035e-05	1.0448e-05	635.55	207.06	1.0338e-05	1.0467e-05	275.93	130.25	99.229	47.681	1.033e-05	60.873	479.926	205.544	228.985	136.133	233.677	222.795	135.304	141.921	206.797	228.994	139.907	142.927	145.015	148.528	281.616	145.952	-8191	255	
1150.649	1	1	0	0	0.081684	0.11651	0.10969	0.13703	0.22003	0.19691	0.03482	0.32253	0.22323	0.1535	0.20814	0.30783	0.16533	0.12312	0.16291	0.13957	-1.5833	-2.0271	-2.2083	-1.8708	-2.3771	-2.15	-1.9062	-2.3896	-1.7292	-2.0438	-2.1646	-1.9167	-2.3208	-2.3312	-1.7687	-2.575	276.629	361.111	276.703	420.096	404.505	296.464	371.814	387.239	189.824	376.142	364.828	438.787	173.511	438.616	466.198	459.674	0.0014321	0.0002362	0.00021407	514.23	6.9786e-06	4.8564e-06	588.3	191.5	1.1329e-05	3.9706e-06	254.6	122.25	91.599	44.472	1.0521e-05	56.822	0.00094969	0.0009475	0.0002664	553.89	1.0384e-05	1.0398e-05	631.76	206.76	1.0253e-05	1.0415e-05	275.56	129.78	99.001	47.802	1.0347e-05	61.022	473.553	444.677	182.101	136.169	261.716	231.777	135.364	142.059	271.001	275.432	140.047	143.030	144.745	148.389	279.976	145.952	-8191	255	
1150.745	1	1	0	0	0.10018	0.034155	0.098502	0.16221	0.142	0.096299	0.15409	0.32762	0.060332	0.19	0.10034	0.16945	0.1395	0.32144	0.35223	0.26965	-1.5688	-2.0771	-2.35	-1.7313	-2.2562	-2.0583	-2.0042	-2.4083	-1.9583	-1.9458	-2.4229	-1.9125	-2.1979	-2.3708	-1.9438	-2.5833	279.037	381.230	324.901	436.624	364.896	325.893	131.989	472.369	406.407	347.620	169.441	128.749	345.550	453.952	479.439	131.479	0.0013782	5.5946e-05	0.00017437	513.24	3.491e-06	2.4136e-06	594.34	192.39	5.9898e-06	7.2899e-06	255.28	122.05	91.605	44.371	2.3151e-06	56.989	0.00094152	0.00095839	0.00026397	552.57	1.0344e-05	1.0456e-05	635.06	207.47	1.0264e-05	1.0391e-05	276.15	129.91	99.192	47.764	1.0358e-05	61.233	475.556	137.146	251.859	136.204	257.932	231.056	135.285	141.976	242.267	280.893	139.974	142.824	145.245	148.617	288.222	145.934	-8191	255	
1150.841	1	1	0	0	0.12149	0.27025	0.15899	0.17092	0.17422	0.098343	0.52616	0.16047	0.28174	0.20721	0.17087	0.097204	0.25702	0.31367	0.39598	0.2405	-1.5021	-2.0563	-2.2938	-1.9479	-2.0979	-2.0312	-1.8167	-2.4521	-2.1125	-2.1063	-2.4813	-1.8833	-2.1437	-2.4813	-1.8583	-2.5438	450.667	359.649	451.736	150.339	340.254	435.098	418.171	370.981	267.096	267.789	409.321	403.355	476.232	465.057	198.667	287.211	0.0013193	0.00018862	5.9594e-05	514.77	6.2006e-06	7.9555e-07	592.84	192.39	8.1613e-06	2.7784e-06	255.57	122.62	91.997	44.458	3.3609e-06	56.988	0.00094369	0.00094732	0.00026225	553.31	1.0251e-05	1.0402e-05	636.87	207.51	1.0276e-05	1.0361e-05	277.02	130.25	99.377	47.721	1.0352e-05	61.208	478.536	246.726	175.989	136.008	257.988	206.445	135.157	141.676	217.087	240.827	140.089	143.148	144.898	148.683	161.187	146.070	-8191	255	
1150.938	1	1	0	0	0.10788	0.2116	0.29305	0.14597	0.21734	0.19102	0.13435	0.18261	0.26993	0.1862	0.0095492	0.20322	0.10088	0.084856	0.10877	0.26105	-1.8937	-1.8396	-2.4813	-2.0021	-2.2313	-2.2729	-1.8687	-2.3542	-2.15	-1.8771	-2.3729	-2.1437	-2.0812	-2.5375	-1.9333	-2.3625	461.899	266.151	262.748	417.629	205.602	422.726	371.915	419.500	437.298	194.750	473.984	440.251	172.855	194.888	231.459	441.723	0.001276	0.0010454	8.7244e-05	511	2.8575e-06	4.2407e-06	594.09	191.95	8.4324e-06	7.926e-07	256.49	122.53	91.449	44.536	1.8677e-06	57.044	0.00095125	0.00095356	0.00026368	552.71	1.0294e-05	1.0454e-05	637.69	206.98	1.0174e-05	1.0289e-05	276.92	130.48	99.268	47.923	1.0264e-05	61.239	479.428	221.283	207.683	136.247	473.145	292.146	135.280	141.793	231.272	216.704	140.244	143.005	145.400	148.467	175.539	146.012	-8191	255	
1151.034	1	1	0	0	0.14321	0.067729	0.23587	0.26373	0.036215	0.11259	0.13259	0.26034	0.14179	0.048846	0.22184	0.33574	0.22055	0.13245	0.074816	0.1578	-1.6854	-2.0917	-2.3312	-2.15	-1.9708	-2.1667	-1.9875	-2.325	-2.1188	-1.95	-2.2104	-2.1521	-1.9479	-2.4146	-1.9458	-2.3146	207.796	247.527	325.378	142.678	448.396	144.266	447.785	163.166	390.886	281.252	185.345	401.768	382.532	137.692	393.466	455.483	0.0012285	0.0011596	6.5821e-05	510.73	5.3976e-06	4.9857e-06	590.24	192.1	6.3487e-06	4.5424e-06	255.97	122.54	92.25	44.859	2.5328e-06	56.886	0.00095726	0.00094851	0.00026457	551.84	1.0353e-05	1.0442e-05	633	207.52	1.0286e-05	1.0392e-05	276.4	130.32	99.442	48.079	1.0357e-05	61.265	475.493	184.192	278.925	136.388	249.111	283.750	135.237	141.750	298.806	258.480	139.909	143.201	145.091	148.622	188.396	145.915	-8191	255	
1151.130	1	1	0	0	0.092007	0.15643	0.31109	0.25144	0.17754	0.2165	0.26902	0.38391	0.090808	0.16252	0.079194	0.28362	0.23508	0.13323	0.22987	0.1141	-1.9833	-1.75	-2.1646	-1.9625	-2.1	-2.4646	-2.1521	-2.325	-2.1896	-1.8937	-2.3312	-2.1208	-1.8917	-2.4208	-2.0646	-2.0646	216.585	275.790	323.514	209.588	423.261	410.900	478.906	418.868	457.869	407.829	326.858	432.303	236.845	273.984	355.317	186.053	0.0012289	0.00042325	0.0002911	513.25	2.6984e-06	4.1881e-06	592.11	192.27	3.6986e-06	1.4147e-06	257.61	122.87	92.351	44.597	5.8928e-06	57.41	0.00095007	0.00095168	0.00026631	553.15	1.0327e-05	1.0392e-05	635.05	207.51	1.0316e-05	1.0472e-05	277.79	130.61	99.674	48.091	1.0427e-05	61.676	473.745	299.901	225.980	136.298	253.049	276.099	135.201	141.834	204.824	216.049	139.881	142.961	144.944	148.673	266.286	146.082	-8191	255	
1151.250	1	1	0	0	0.333	0.15688	0.1105	0.34648	0.2348	0.087627	0.21304	0.21773	0.052187	0.11191	0.24407	0.25712	0.18241	0.27291	0.12925	0.19588	-1.7958	-1.7396	-2.1	-2.0958	-1.8563	-2.4104	-2.0812	-1.9333	-2.3875	-1.8625	-2.3583	-2.2271	-2.0167	-2.3833	-2.1917	-1.9271	347.231	349.575	147.242	415.604	199.116	195.726	360.913	400.471	384.750	315.293	372.733	442.217	205.723	461.383	264.084	478.538	0.0012628	0.00052687	0.00015986	515.05	8.4497e-06	4.8461e-06	596.85	194.09	5.3162e-06	3.4653e-06	259.25	123.34	92.791	45.419	4.9518e-06	57.974	0.00096068	0.00095756	0.00026773	555.93	1.0426e-05	1.0547e-05	638.4	209.32	1.0622e-05	1.0571e-05	280.01	131.63	100.41	48.695	1.0575e-05	62.123	474.158	152.461	232.618	136.198	253.892	269.338	135.616	141.738	254.670	291.050	140.049	142.875	145.199	148.420	249.527	145.940	-8191	255	
1151.345	1	1	0	0	0.28878	0.15294	0.035086	0.17055	0.15026	0.2517	0.16845	0.2409	0.3517	0.10951	0.24113	0.06057	0.033517	0.23898	0.18234	0.079831	-1.9167	-1.7583	-2.0854	-2.3167	-1.775	-2.4979	-2.3187	-2.0979	-2.3271	-1.8813	-2.2083	-2.1667	-1.8333	-2.3729	-1.9333	-1.9438	342.247	305.846	283.733	442.460	359.794	438.162	390.549	424.716	353.526	235.268	366.687	418.902	143.697	152.785	346.418	201.847	0.0012682	0.00077698	0.00014714	515.84	5.7466e-06	9.0102e-06	597.84	193.7	1.1592e-05	5.1663e-06	257.52	123.82	93.163	45.229	3.6603e-06	57.694	0.00096682	0.00097174	0.00026971	556.64	1.0462e-05	1.0634e-05	640.34	209.56	1.0489e-05	1.057e-05	279.37	131.69	100.46	48.589	1.0544e-05	61.805	479.655	169.897	275.527	136.132	216.141	359.696	135.514	141.926	200.833	275.388	139.995	143.133	144.968	148.527	148.722	145.923	-8191	255	
1151.441	1	1	0	0	0.1974	0.21056	0.16637	0.21694	0.23823	0.16988	0.10176	0.15074	0.18147	0.13668	0.25964	0.17985	0.30189	0.10561	0.34781	0.1936	-1.9958	-1.9375	-2.025	-2.3958	-1.9667	-2.275	-2.4271	-1.9688	-2.4896	-1.8271	-2.1125	-2.2417	-1.7	-2.075	-2.2604	-1.9292	447.342	466.812	162.436	469.516	308.801	178.309	479.207	150.764	204.046	274.604	192.996	476.985	151.077	151.496	452.175	415.729	0.0012834	0.00086222	9.7184e-05	513	4.1475e-06	1.202e-06	590.91	192.04	3.503e-06	5.724e-06	256.59	123.49	92.694	45.107	1.2087e-05	57.534	0.00097307	0.00096879	0.00026603	554.18	1.0393e-05	1.0614e-05	634.28	208.01	1.05e-05	1.0481e-05	277.5	131.62	100.31	48.59	1.049e-05	61.835	473.683	208.209	205.922	136.333	234.139	393.637	135.411	141.743	191.034	263.862	140.057	143.042	145.129	148.568	250.946	145.892	-8191	255	
1151.514	1	1	0	0	0.29355	0.20197	0.33578	0.2782	0.094559	0.12066	0.3131	0.24345	0.13553	0.08984	0.27906	0.19059	0.15125	0.18229	0.20519	0.2368	-2.0021	-2.1854	-1.9646	-2.5354	-1.8188	-2.175	-2.1271	-2.0229	-2.35	-2.0354	-2.1271	-2.3187	-1.8917	-2.2083	-2.1667	-2	191.796	144.870	278.458	465.429	448.823	149.754	386.161	470.503	261.982	198.246	130.871	425.839	389.051	197.007	262.142	451.943	0.0013335	0.00029601	0.00011645	512.67	9.007e-06	9.7883e-06	592.7	194.94	5.5713e-06	4.6058e-06	257.81	124.47	93.886	45.727	8.3104e-06	58.245	0.00096698	0.00096311	0.00026849	554.36	1.0454e-05	1.0635e-05	636.27	209.41	1.0476e-05	1.0558e-05	279.37	132.17	100.85	49.167	1.0535e-05	62.676	476.202	475.586	294.345	136.285	285.266	276.668	135.323	141.744	252.645	282.704	139.899	143.050	145.120	148.658	227.543	145.888	-8191	255	
