BOXY.EXE: ISS Imagent and Oximeter Data Acquisition Program Version 0.80
Ascii Record File

#ACQ INFORMATION
2  Detector Channels 
16  External MUX Channels 
1  Auxiliary Channels 
5000  Waveform (CCF) Frequency (Hz)
1  Waveforms Skipped 
30  Waveforms Averaged 
1  Cycles Averaged 
16  Acquisitions per Waveform 
10.0806  Updata Rate (Hz) 

#FILE INFORMATION
TRUE -- External MUX Channel results are PARSED.
FALSE -- AC DC and Phase are NOT grouped.
TRUE -- Companion Program Settings File CREATED.
FALSE -- AC data not excluded
FALSE -- DC data not excluded
FALSE -- Phase data not excluded
FALSE -- Auxillary Chn. data not excluded
Tab delimiters

#CALIBRATION STATE
TRUE -- Waveform Calibration Values APPLIED.


#AUX CALIBRATION VALUES
Val Type	aux-1	

Term	1.0000e+00	
Factor	0.0000e+00	


#WF CALIBRATION VALUES
A = Detector Channel
Val Type	A-AC1	A-AC2	A-AC3	A-AC4	A-AC5	A-AC6	A-AC7	A-AC8	A-AC9	A-AC10	A-AC11	A-AC12	A-AC13	A-AC14	A-AC15	A-AC16	A-DC1	A-DC2	A-DC3	A-DC4	A-DC5	A-DC6	A-DC7	A-DC8	A-DC9	A-DC10	A-DC11	A-DC12	A-DC13	A-DC14	A-DC15	A-DC16	A-Ph1	A-Ph2	A-Ph3	A-Ph4	A-Ph5	A-Ph6	A-Ph7	A-Ph8	A-Ph9	A-Ph10	A-Ph11	A-Ph12	A-Ph13	A-Ph14	A-Ph15	A-Ph16	

Term	0.00000e+00	0.00000e+00	0.00000e+00	0.00000e+00	0.00000e+00	0.00000e+00	0.00000e+00	0.00000e+00	0.00000e+00	0.00000e+00	0.00000e+00	0.00000e+00	0.00000e+00	0.00000e+00	0.00000e+00	0.00000e+00	0.00000e+00	0.00000e+00	0.00000e+00	0.00000e+00	0.00000e+00	0.00000e+00	0.00000e+00	0.00000e+00	0.00000e+00	0.00000e+00	0.00000e+00	0.00000e+00	0.00000e+00	0.00000e+00	0.00000e+00	0.00000e+00	0.00000e+00	0.00000e+00	0.00000e+00	0.00000e+00	0.00000e+00	0.00000e+00	0.00000e+00	0.00000e+00	0.00000e+00	0.00000e+00	0.00000e+00	0.00000e+00	0.00000e+00	0.00000e+00	0.00000e+00	0.00000e+00	
Factor	1.00000e+00	1.00000e+00	1.00000e+00	1.00000e+00	1.00000e+00	1.00000e+00	1.00000e+00	1.00000e+00	1.00000e+00	1.00000e+00	1.00000e+00	1.00000e+00	1.00000e+00	1.00000e+00	1.00000e+00	1.00000e+00	1.00000e+00	1.00000e+00	1.00000e+00	1.00000e+00	1.00000e+00	1.00000e+00	1.00000e+00	1.00000e+00	1.00000e+00	1.00000e+00	1.00000e+00	1.00000e+00	1.00000e+00	1.00000e+00	1.00000e+00	1.00000e+00	X	X	X	X	X	X	X	X	X	X	X	X	X	X	X	X	

B = Detector Channel
Val Type	B-AC1	B-AC2	B-AC3	B-AC4	B-AC5	B-AC6	B-AC7	B-AC8	B-AC9	B-AC10	B-AC11	B-AC12	B-AC13	B-AC14	B-AC15	B-AC16	B-DC1	B-DC2	B-DC3	B-DC4	B-DC5	B-DC6	B-DC7	B-DC8	B-DC9	B-DC10	B-DC11	B-DC12	B-DC13	B-DC14	B-DC15	B-DC16	B-Ph1	B-Ph2	B-Ph3	B-Ph4	B-Ph5	B-Ph6	B-Ph7	B-Ph8	B-Ph9	B-Ph10	B-Ph11	B-Ph12	B-Ph13	B-Ph14	B-Ph15	B-Ph16	

Term	0.00000e+00	0.00000e+00	0.00000e+00	0.00000e+00	0.00000e+00	0.00000e+00	0.00000e+00	0.00000e+00	0.00000e+00	0.00000e+00	0.00000e+00	0.00000e+00	0.00000e+00	0.00000e+00	0.00000e+00	0.00000e+00	0.00000e+00	0.00000e+00	0.00000e+00	0.00000e+00	0.00000e+00	0.00000e+00	0.00000e+00	0.00000e+00	0.00000e+00	0.00000e+00	0.00000e+00	0.00000e+00	0.00000e+00	0.00000e+00	0.00000e+00	0.00000e+00	-5.52834e+01	-1.33387e+02	-1.26565e+02	-1.82540e+02	-5.55431e+01	-6.43973e+01	-1.56586e+02	-1.62015e+02	-4.36106e+01	-7.42587e+01	-1.74623e+02	-1.70094e+02	-1.82744e+02	-1.76742e+02	-5.93975e+01	-1.49658e+02	
Factor	1.78881e-05	1.49563e-04	4.68658e-05	1.78184e-01	1.61833e-06	1.89682e-06	1.77342e-01	5.82412e-02	1.18634e-06	1.65967e-06	8.82662e-02	2.80200e-02	2.53411e-02	8.65087e-03	1.41064e-06	1.27050e-02	4.88401e-06	6.02286e-06	1.67489e-06	8.81332e-02	6.42629e-08	6.60018e-08	8.18783e-02	2.88789e-02	6.38437e-08	6.60667e-08	4.22472e-02	1.34971e-02	1.26457e-02	4.32564e-03	6.44515e-08	6.12258e-03	X	X	X	X	X	X	X	X	X	X	X	X	X	X	X	X	



#DISTANCE SETTINGS
A = Detector Channel
A-1	A-2	A-3	A-4	A-5	A-6	A-7	A-8	A-9	A-10	A-11	A-12	A-13	A-14	A-15	A-16	

2.5000e+00	3.0000e+00	2.5000e+00	3.0000e+00	2.0000e+00	3.0000e+00	1.5000e+00	3.0000e+00	3.0000e+00	3.0000e+00	3.0000e+00	3.0000e+00	3.0000e+00	3.0000e+00	1.5000e+00	3.0000e+00	

B = Detector Channel
B-1	B-2	B-3	B-4	B-5	B-6	B-7	B-8	B-9	B-10	B-11	B-12	B-13	B-14	B-15	B-16	

1.0000e+01	1.0000e+01	1.0000e+01	1.4400e+00	1.0000e+01	1.0000e+01	1.5100e+00	1.9400e+00	1.0000e+01	1.0000e+01	1.9900e+00	2.4900e+00	2.4100e+00	2.9000e+00	1.0000e+01	2.9800e+00	




#DATA BEGINS
time	group	step	mark	flag	A-AC1	A-AC2	A-AC3	A-AC4	A-AC5	A-AC6	A-AC7	A-AC8	A-AC9	A-AC10	A-AC11	A-AC12	A-AC13	A-AC14	A-AC15	A-AC16	A-DC1	A-DC2	A-DC3	A-DC4	A-DC5	A-DC6	A-DC7	A-DC8	A-DC9	A-DC10	A-DC11	A-DC12	A-DC13	A-DC14	A-DC15	A-DC16	A-Ph1	A-Ph2	A-Ph3	A-Ph4	A-Ph5	A-Ph6	A-Ph7	A-Ph8	A-Ph9	A-Ph10	A-Ph11	A-Ph12	A-Ph13	A-Ph14	A-Ph15	A-Ph16	B-AC1	B-AC2	B-AC3	B-AC4	B-AC5	B-AC6	B-AC7	B-AC8	B-AC9	B-AC10	B-AC11	B-AC12	B-AC13	B-AC14	B-AC15	B-AC16	B-DC1	B-DC2	B-DC3	B-DC4	B-DC5	B-DC6	B-DC7	B-DC8	B-DC9	B-DC10	B-DC11	B-DC12	B-DC13	B-DC14	B-DC15	B-DC16	B-Ph1	B-Ph2	B-Ph3	B-Ph4	B-Ph5	B-Ph6	B-Ph7	B-Ph8	B-Ph9	B-Ph10	B-Ph11	B-Ph12	B-Ph13	B-Ph14	B-Ph15	B-Ph16	aux-1	digaux	

969.278	1	1	0	256	0.12737	0.41981	0.16063	0.36107	0.1693	0.19036	0.071125	0.17311	0.097668	0.068672	0.16611	0.055513	0.18236	0.15965	0.16633	0.30412	-4.6354	-4.6333	-4.5646	-5.0771	-4.5667	-4.6937	-5.075	-4.425	-4.7562	-4.775	-4.6292	-4.9938	-4.5979	-4.7583	-4.9583	-4.3625	307.184	101.439	177.701	381.823	329.859	249.493	384.207	204.145	246.891	275.291	128.683	199.484	122.938	391.170	112.025	290.991	0.00024837	0.00011296	5.2047e-05	646.16	3.5512e-06	2.6482e-06	558.22	194.87	2.269e-06	2.1994e-06	205.17	71.04	59.763	20.956	3.0816e-06	30.021	0.0001785	0.00015432	4.1028e-05	652.76	1.62e-06	1.5787e-06	562.09	198.27	1.6117e-06	1.6211e-06	207.61	72.164	60.907	21.556	1.5839e-06	30.737	233.327	104.802	119.955	61.218	206.707	206.744	60.725	65.707	262.261	181.487	63.953	68.799	70.208	76.136	217.204	73.645	-8191	255	
969.374	1	1	0	0	0.02747	0.15107	0.14002	0.086669	0.06719	0.054301	0.23839	0.099494	0.18897	0.10907	0.18287	0.22396	0.08191	0.092428	0.2134	0.22117	-4.5083	-4.6729	-4.4646	-5.2042	-4.5104	-4.6958	-5.1271	-4.5542	-4.8521	-4.825	-4.425	-4.9729	-4.5042	-4.5979	-5.1646	-4.5792	111.044	256.760	297.397	373.287	385.931	207.580	366.941	306.500	99.368	277.845	372.960	401.824	222.539	394.897	49.728	376.032	0.00025179	0.00029023	3.1846e-05	644.94	3.8629e-06	3.3308e-06	558.79	194.85	4.1624e-06	2.3984e-06	204.47	71.212	59.938	20.935	2.6178e-06	30.214	0.00017163	0.00015012	4.1206e-05	653.99	1.624e-06	1.5912e-06	562.31	198.56	1.6579e-06	1.5527e-06	207.41	72.36	60.949	21.534	1.629e-06	30.942	231.546	143.169	116.658	61.219	205.028	210.507	60.355	65.756	249.333	162.145	64.004	68.823	69.984	76.087	248.520	73.383	-8191	255	
969.495	1	1	0	0	0.085849	0.055195	0.1235	0.21664	0.065403	0.047189	0.22359	0.11699	0.11126	0.16313	0.19838	0.079379	0.15801	0.11373	0.16174	0.11342	-4.3583	-4.825	-4.4479	-5.1062	-4.5958	-4.6771	-5.0146	-4.4167	-4.7833	-4.8583	-4.4146	-5.0188	-4.85	-4.4854	-5.0021	-4.3875	351.417	170.085	262.464	382.111	151.013	215.649	317.702	137.866	185.339	85.496	197.455	183.669	337.593	299.282	218.290	392.698	0.00026735	0.00023803	0.00010045	643.95	2.8125e-06	2.222e-06	558.63	195.46	2.1323e-06	2.8496e-06	203.27	70.851	59.461	20.676	3.3522e-06	29.738	0.000175	0.00014801	4.0477e-05	650.31	1.6348e-06	1.6012e-06	561.3	198.65	1.6256e-06	1.546e-06	207.11	72.033	60.646	21.236	1.5608e-06	30.451	233.580	113.888	143.286	61.238	259.805	204.985	60.297	65.758	232.237	213.287	63.906	68.472	70.439	76.000	206.320	73.449	-8191	255	
969.591	1	1	0	0	0.14849	0.15002	0.078862	0.16626	0.21536	0.13166	0.14547	0.041292	0.19331	0.2444	0.092883	0.0477	0.32044	0.13373	0.093663	0.10751	-4.4854	-4.8354	-4.4187	-5.1813	-4.7083	-4.6729	-5.0958	-4.6167	-4.8604	-4.9042	-4.4167	-4.8729	-4.8667	-4.5938	-5.1667	-4.5708	378.868	314.104	55.808	387.931	371.648	388.605	380.183	52.972	237.711	100.876	193.401	338.239	90.347	401.548	189.564	203.366	0.00024285	0.00031614	0.00011861	641.32	4.0399e-06	2.0328e-06	550.24	194.91	3.4575e-06	1.7525e-06	204.35	69.942	59.212	20.482	3.0757e-06	29.781	0.00017041	0.0001526	4.0449e-05	648.27	1.6447e-06	1.5916e-06	557.53	197.65	1.6151e-06	1.5285e-06	207.05	71.427	60.267	21.098	1.5765e-06	30.345	228.324	104.296	121.880	61.233	213.468	190.427	60.405	65.679	257.409	214.663	64.211	68.771	70.268	76.258	201.257	73.395	-8191	255	
969.663	1	1	0	0	0.059289	0.28287	0.18898	0.14984	0.086778	0.087327	0.24673	0.11725	0.17186	0.04327	0.077795	0.28045	0.11905	0.070673	0.043164	0.095083	-4.4229	-4.9042	-4.4104	-4.8792	-4.8542	-4.4792	-5.1687	-4.6729	-4.5833	-5.0333	-4.5917	-4.8542	-4.9625	-4.3313	-4.9917	-4.6583	147.792	241.562	277.069	381.522	80.626	244.391	376.445	356.842	114.783	352.114	155.333	369.573	338.107	292.791	81.366	333.735	0.00023726	0.00024786	6.1816e-05	637.03	2.9762e-06	3.2698e-06	552.28	195.17	3.1582e-06	3.3917e-06	205.41	69.982	58.976	20.56	2.4953e-06	29.917	0.00017296	0.00014845	3.9719e-05	644.96	1.5815e-06	1.5616e-06	555.98	197.62	1.62e-06	1.5945e-06	207.95	71.505	60.114	21.248	1.6188e-06	30.699	227.767	147.817	110.585	61.023	219.170	213.252	60.266	65.953	222.494	187.276	64.084	68.925	70.319	76.313	211.428	73.479	-8191	255	
969.759	1	1	0	0	0.15766	0.19311	0.12441	0.19322	0.16144	0.10386	0.22443	0.12816	0.19845	0.17619	0.14796	0.038199	0.030319	0.091744	0.22733	0.13057	-4.1813	-5.0333	-4.4333	-4.75	-4.8625	-4.4833	-4.9812	-4.5667	-4.5687	-5.1708	-4.5708	-4.9333	-5.0146	-4.3896	-4.9729	-4.7562	294.188	346.115	202.879	400.957	372.474	277.374	349.982	49.846	382.395	172.029	58.288	278.692	91.663	69.289	265.646	330.284	0.00026529	0.00019754	6.9058e-05	635.15	1.5367e-06	3.0447e-06	550.11	195.2	2.5153e-06	2.7378e-06	206.63	70.268	58.988	20.665	3.3054e-06	30.56	0.00018036	0.0001487	4.1447e-05	643.42	1.6674e-06	1.6304e-06	555.33	197.96	1.6359e-06	1.6034e-06	209.36	71.886	60.074	21.347	1.6263e-06	31.058	231.904	112.691	118.990	60.941	231.017	204.124	60.370	65.790	200.315	202.662	63.834	68.734	70.371	76.377	211.605	73.276	-8191	255	
969.880	1	1	0	0	0.10388	0.10213	0.1487	0.12161	0.1531	0.14866	0.075468	0.1168	0.083869	0.075137	0.15978	0.18358	0.16178	0.10899	0.13418	0.23175	-4.3271	-4.9417	-4.5208	-4.7979	-4.8021	-4.5167	-5.0542	-4.8	-4.5271	-5.1396	-4.6562	-4.6417	-5.15	-4.575	-4.8438	-4.7083	365.085	65.906	59.189	347.902	138.955	262.479	316.718	396.391	290.152	105.852	387.865	134.214	391.850	237.743	102.886	369.241	0.00024979	0.00023419	6.024e-05	633.84	1.8288e-06	4.0775e-06	550.17	195.19	2.209e-06	2.3735e-06	206.36	70.768	58.501	20.757	3.7094e-06	30.645	0.00018039	0.00014755	4.3069e-05	641.22	1.5977e-06	1.6214e-06	556.91	198.54	1.6647e-06	1.6295e-06	210.33	72.092	59.554	21.391	1.6291e-06	31.293	234.402	157.947	147.653	61.161	203.778	189.750	60.403	65.889	268.619	196.155	63.572	69.284	70.319	76.192	201.963	73.323	-8191	255	
969.974	1	1	0	0	0.22178	0.16728	0.30985	0.28908	0.012667	0.17136	0.06651	0.12863	0.16316	0.19219	0.24336	0.13327	0.075793	0.080239	0.075003	0.25068	-4.1396	-5.0021	-4.625	-4.5938	-5.0813	-4.3417	-4.9083	-5.0125	-4.4542	-5.1083	-4.7063	-4.4667	-4.9854	-4.45	-4.7063	-5.0208	179.178	262.552	59.144	396.220	404.456	55.184	81.689	171.818	291.188	307.899	254.064	260.751	114.978	162.266	79.177	134.955	0.00023333	0.00030165	7.3151e-05	626.72	8.2311e-07	2.348e-06	546.32	193.85	4.0034e-06	2.251e-06	207.91	69.916	57.38	20.741	2.8334e-06	30.573	0.00018168	0.00014717	4.2434e-05	634.05	1.6544e-06	1.6601e-06	552.29	196.84	1.7126e-06	1.6269e-06	210.9	71.44	58.519	21.459	1.6493e-06	31.248	229.003	116.640	139.133	61.212	237.860	214.903	60.449	65.815	223.356	201.467	63.727	69.154	70.401	76.560	194.100	73.791	-8191	255	
970.070	1	1	0	0	0.18873	0.10379	0.16606	0.19172	0.047313	0.17954	0.14112	0.12382	0.17784	0.15319	0.028324	0.098343	0.10882	0.19008	0.11048	0.078445	-4.2812	-4.7729	-4.6042	-4.525	-4.9646	-4.5292	-4.8021	-5.0333	-4.4292	-4.7875	-4.8063	-4.5646	-4.8938	-4.7417	-4.6312	-5.0042	229.784	332.025	164.563	273.901	325.126	222.291	337.760	110.311	360.868	307.796	102.224	59.381	238.858	295.291	178.880	174.878	0.00023613	0.00017994	4.7596e-05	631.64	3.2214e-06	4.0816e-06	554.23	195.66	2.5824e-06	2.413e-06	209.17	70.39	57.743	20.712	4.8027e-07	30.704	0.00017774	0.00015139	4.3383e-05	638.89	1.6165e-06	1.5736e-06	559.25	199.21	1.6228e-06	1.6168e-06	212.6	71.639	58.844	21.306	1.6744e-06	31.242	233.485	110.034	147.094	61.084	236.737	182.028	60.388	66.192	241.725	188.469	63.750	68.937	70.471	76.478	207.523	73.463	-8191	255	
970.166	1	1	0	0	0.12351	0.23832	0.15121	0.17601	0.083342	0.055676	0.11868	0.0044743	0.14931	0.070445	0.13908	0.051889	0.33773	0.047091	0.10782	0.10793	-4.0958	-4.8854	-4.7229	-4.4583	-5.0375	-4.5083	-4.8771	-4.9958	-4.3625	-4.8688	-4.7917	-4.3875	-5.0437	-4.6625	-4.5604	-4.8896	124.351	335.981	313.782	314.344	214.212	363.425	347.767	115.244	250.544	243.257	165.402	124.130	406.099	403.036	296.803	165.651	0.00025322	0.00011341	9.7881e-05	636.14	2.8691e-06	4.1345e-06	559.74	197.36	2.5985e-06	1.7098e-06	212.13	70.727	58.011	20.61	1.0896e-06	30.567	0.0001775	0.0001511	4.2336e-05	641.93	1.6636e-06	1.6467e-06	564.79	200.33	1.6103e-06	1.6089e-06	215.21	72.287	59.029	21.23	1.6342e-06	31.214	229.311	117.319	108.544	61.017	204.546	186.400	60.920	65.791	237.886	230.012	63.540	69.298	70.364	76.571	230.807	73.695	-8191	255	
970.287	1	1	0	0	0.096334	0.12046	0.090994	0.23595	0.077919	0.18628	0.099373	0.25313	0.119	0.12217	0.1652	0.098117	0.19192	0.16562	0.086721	0.23522	-4.0729	-4.8792	-4.8	-4.4417	-5.2208	-4.6312	-4.6167	-4.9479	-4.3583	-4.8979	-5.1667	-4.4646	-5.0958	-4.7854	-4.6292	-5.0479	275.814	338.821	328.900	385.460	244.291	211.533	352.920	382.788	353.531	385.417	138.728	385.998	326.105	311.979	220.604	356.375	0.00025783	0.00024722	5.6656e-05	642.67	1.5698e-06	4.079e-06	567.79	200.27	2.1613e-06	3.1478e-06	214.07	71.715	58.571	20.568	2.5088e-06	30.489	0.00018095	0.00014988	4.3369e-05	648.96	1.6605e-06	1.5957e-06	573.48	202.57	1.7041e-06	1.5457e-06	217.18	73.031	59.811	21.192	1.6739e-06	31.073	228.090	156.584	145.525	61.172	237.678	217.509	60.441	65.821	239.047	158.177	63.782	69.102	70.388	76.400	183.725	73.312	-8191	255	
970.359	1	1	0	0	0.10841	0.12392	0.2074	0.1211	0.10932	0.12182	0.14473	0.083188	0.14028	0.040051	0.24052	0.043652	0.17179	0.14174	0.019343	0.11769	-4.2125	-4.7937	-5.0687	-4.4667	-4.85	-4.7562	-4.4875	-5.0958	-4.5792	-4.6312	-4.925	-4.6208	-4.8229	-4.7646	-4.4	-5.1667	269.617	68.189	151.274	291.007	238.843	330.861	397.487	288.863	158.173	301.692	177.659	111.402	312.348	132.266	400.008	55.281	0.00025556	0.0002278	0.00011881	646.79	2.7458e-06	5.3088e-06	570.71	201.47	2.468e-06	2.0092e-06	213.52	71.536	58.78	20.276	4.5033e-06	29.73	0.000176	0.00014464	4.1691e-05	657	1.6245e-06	1.5538e-06	577.56	204.01	1.645e-06	1.6219e-06	216.61	72.671	60.006	20.859	1.6342e-06	30.352	229.142	156.943	143.411	61.146	209.580	215.681	60.539	65.949	203.346	225.633	63.904	68.703	70.256	76.328	192.982	73.613	-8191	255	
970.479	1	1	0	0	0.097512	0.14248	0.058147	0.25313	0.066646	0.15186	0.25166	0.026998	0.12149	0.051671	0.11373	0.20496	0.1698	0.073274	0.087979	0.061714	-4.1479	-4.6708	-4.95	-4.4542	-4.8396	-4.8854	-4.425	-4.9646	-4.6625	-4.7333	-4.9542	-4.3771	-4.85	-4.9104	-4.3646	-5.1167	278.869	201.528	352.210	402.841	268.323	302.306	370.494	197.211	78.516	221.690	330.983	358.521	303.646	112.984	271.667	107.977	0.00025625	0.00036389	8.9793e-05	651.35	2.9103e-06	5.0316e-06	568.76	200.35	2.424e-06	2.8086e-06	213.61	70.804	58.693	20.04	2.3997e-06	29.421	0.00017083	0.00014666	4.0344e-05	657.98	1.5936e-06	1.5587e-06	575.16	203.52	1.5421e-06	1.5501e-06	215.97	72.205	59.597	20.566	1.5405e-06	29.993	234.472	141.989	156.802	61.198	187.176	183.852	60.338	65.972	221.682	183.735	63.935	68.742	70.277	76.096	223.347	73.487	-8191	255	
970.575	1	1	0	0	0.10645	0.25281	0.070143	0.31306	0.18824	0.22662	0.3026	0.17588	0.19884	0.12149	0.046923	0.18073	0.18038	0.16171	0.076876	0.092465	-4.2875	-4.4604	-5.1021	-4.5896	-4.775	-4.9542	-4.3354	-5.1562	-4.5646	-4.4125	-4.9521	-4.4604	-4.8	-4.7708	-4.4542	-4.8667	212.962	298.014	149.722	402.080	146.527	154.973	381.657	324.348	153.449	235.820	268.225	282.434	276.377	395.030	310.720	332.201	0.00023613	0.00025051	8.234e-05	652.05	2.7984e-06	3.4714e-06	569.9	200.32	2.5673e-06	2.557e-06	213.74	70.939	58.36	19.714	2.986e-06	29.15	0.00016491	0.00014273	3.9964e-05	658.32	1.5604e-06	1.4739e-06	576.14	203.81	1.5902e-06	1.5586e-06	217.05	72.183	59.423	20.321	1.5326e-06	29.813	228.289	151.078	154.052	61.111	215.109	194.114	60.357	65.899	240.338	174.488	63.900	68.937	70.236	76.185	202.992	73.480	-8191	255	
970.672	1	1	0	0	0.087627	0.18786	0.043951	0.058553	0.055828	0.13111	0.058379	0.27132	0.041092	0.25671	0.087817	0.23763	0.1119	0.10721	0.07382	0.078559	-4.1896	-4.3042	-5.0729	-4.525	-4.7396	-5.0625	-4.4062	-4.8771	-4.7729	-4.4313	-5.15	-4.5646	-4.7937	-5.0417	-4.5062	-4.8833	358.806	91.978	239.301	330.401	310.962	373.808	168.160	52.218	406.339	226.857	280.116	172.592	127.238	96.711	213.349	293.647	0.00025722	0.00018074	7.4552e-05	651.5	2.9827e-06	3.1612e-06	574.6	202.53	1.6764e-06	3.6954e-06	215.04	71.199	58.332	19.738	3.4358e-06	29.205	0.00016464	0.0001378	3.8589e-05	660.53	1.5594e-06	1.4738e-06	579.61	205.4	1.56e-06	1.5365e-06	218.27	72.69	59.657	20.352	1.5572e-06	29.896	231.546	158.603	145.534	61.311	218.595	219.434	60.322	65.779	226.018	211.028	63.682	68.892	70.105	76.474	220.648	73.746	-8191	255	
970.768	1	1	0	0	0.28958	0.1144	0.23252	0.074073	0.11697	0.23358	0.21917	0.14462	0.14958	0.3223	0.09584	0.075621	0.26485	0.25267	0.057214	0.25408	-4.6813	-4.2167	-4.9854	-4.7021	-4.5542	-5.1062	-4.6208	-4.9563	-4.9396	-4.3979	-5.0604	-4.5708	-4.4437	-4.9917	-4.3958	-4.8896	152.874	91.184	315.758	326.670	86.936	366.021	206.301	375.159	330.579	221.297	96.777	355.388	401.660	301.278	135.692	368.861	0.00026371	0.00020318	9.0785e-05	655.85	2.5662e-06	3.5082e-06	575.72	202.72	2.9109e-06	2.8655e-06	215.23	71.394	58.438	19.668	2.4229e-06	28.947	0.00017095	0.00014142	3.8208e-05	662.84	1.5439e-06	1.4628e-06	580.68	205.44	1.5632e-06	1.4952e-06	217.87	72.553	59.74	20.186	1.5714e-06	29.54	229.350	150.971	153.206	61.234	199.741	201.734	60.324	65.938	242.040	172.283	63.626	69.106	70.070	75.974	189.412	73.390	-8191	255	
970.887	1	1	0	0	0.1072	0.07369	0.20248	0.094046	0.067714	0.13253	0.024655	0.067587	0.12007	0.15825	0.22458	0.1947	0.25263	0.17725	0.11378	0.18049	-4.6458	-4.4042	-4.8792	-4.7229	-4.4479	-4.8313	-4.5979	-4.6875	-4.8375	-4.5396	-5.125	-4.9021	-4.4604	-4.9479	-4.5625	-4.6646	73.294	305.803	325.782	92.210	118.442	192.587	203.426	214.693	229.910	87.175	350.025	145.323	79.316	354.136	97.758	293.829	0.0002524	0.00021907	0.00014082	656.13	3.1687e-06	3.9932e-06	573.71	201.21	2.3791e-06	2.8177e-06	213.67	70.529	58.49	19.486	3.1535e-06	28.726	0.00016308	0.00013915	3.7287e-05	663.19	1.5119e-06	1.4677e-06	579.97	205.02	1.547e-06	1.485e-06	217.27	72.07	59.639	20.002	1.5264e-06	29.272	231.862	114.009	131.019	61.266	220.631	216.507	60.401	65.775	214.292	189.444	63.920	68.701	70.333	76.179	223.877	73.731	-8191	255	
970.958	1	1	0	0	0.062429	0.16113	0.19484	0.12294	0.2217	0.16128	0.2689	0.14309	0.12138	0.1717	0.081308	0.093275	0.11942	0.28514	0.11205	0.11541	-4.6062	-4.4854	-4.9229	-4.8313	-4.3625	-5.0521	-4.6229	-4.75	-4.8875	-4.5542	-4.7958	-4.9625	-4.6083	-5.0104	-4.7083	-4.7458	383.240	354.573	128.970	277.813	114.107	233.029	341.038	301.674	226.938	267.031	256.174	295.388	214.652	406.770	264.629	352.147	0.00024682	0.00022424	6.2756e-05	655.19	3.4373e-06	2.8864e-06	570.94	201.25	2.5426e-06	2.7526e-06	214.1	70.927	58.737	19.601	1.5488e-06	28.663	0.0001632	0.00013652	3.8543e-05	662.11	1.5281e-06	1.4421e-06	576.73	204.87	1.528e-06	1.4965e-06	217.21	72.315	59.867	20.046	1.5734e-06	29.301	233.597	92.498	156.326	61.411	206.524	213.634	60.349	65.937	235.632	192.103	63.725	69.058	70.345	76.034	177.670	73.545	-8191	255	
