BOXY.EXE: ISS Imagent and Oximeter Data Acquisition Program Version 0.80
Ascii Record File

#ACQ INFORMATION
2  Detector Channels 
16  External MUX Channels 
1  Auxiliary Channels 
5000  Waveform (CCF) Frequency (Hz)
1  Waveforms Skipped 
30  Waveforms Averaged 
1  Cycles Averaged 
16  Acquisitions per Waveform 
10.0806  Updata Rate (Hz) 

#FILE INFORMATION
TRUE -- External MUX Channel results are PARSED.
FALSE -- AC DC and Phase are NOT grouped.
TRUE -- Companion Program Settings File CREATED.
FALSE -- AC data not excluded
FALSE -- DC data not excluded
FALSE -- Phase data not excluded
FALSE -- Auxillary Chn. data not excluded
Tab delimiters

#CALIBRATION STATE
TRUE -- Waveform Calibration Values APPLIED.


#AUX CALIBRATION VALUES
Val Type	aux-1	

Term	1.0000e+00	
Factor	0.0000e+00	


#WF CALIBRATION VALUES
A = Detector Channel
Val Type	A-AC1	A-AC2	A-AC3	A-AC4	A-AC5	A-AC6	A-AC7	A-AC8	A-AC9	A-AC10	A-AC11	A-AC12	A-AC13	A-AC14	A-AC15	A-AC16	A-DC1	A-DC2	A-DC3	A-DC4	A-DC5	A-DC6	A-DC7	A-DC8	A-DC9	A-DC10	A-DC11	A-DC12	A-DC13	A-DC14	A-DC15	A-DC16	A-Ph1	A-Ph2	A-Ph3	A-Ph4	A-Ph5	A-Ph6	A-Ph7	A-Ph8	A-Ph9	A-Ph10	A-Ph11	A-Ph12	A-Ph13	A-Ph14	A-Ph15	A-Ph16	

Term	0.00000e+00	0.00000e+00	0.00000e+00	0.00000e+00	0.00000e+00	0.00000e+00	0.00000e+00	0.00000e+00	0.00000e+00	0.00000e+00	0.00000e+00	0.00000e+00	0.00000e+00	0.00000e+00	0.00000e+00	0.00000e+00	0.00000e+00	0.00000e+00	0.00000e+00	0.00000e+00	0.00000e+00	0.00000e+00	0.00000e+00	0.00000e+00	0.00000e+00	0.00000e+00	0.00000e+00	0.00000e+00	0.00000e+00	0.00000e+00	0.00000e+00	0.00000e+00	0.00000e+00	0.00000e+00	0.00000e+00	0.00000e+00	0.00000e+00	0.00000e+00	0.00000e+00	0.00000e+00	0.00000e+00	0.00000e+00	0.00000e+00	0.00000e+00	0.00000e+00	0.00000e+00	0.00000e+00	0.00000e+00	
Factor	1.00000e+00	1.00000e+00	1.00000e+00	1.00000e+00	1.00000e+00	1.00000e+00	1.00000e+00	1.00000e+00	1.00000e+00	1.00000e+00	1.00000e+00	1.00000e+00	1.00000e+00	1.00000e+00	1.00000e+00	1.00000e+00	1.00000e+00	1.00000e+00	1.00000e+00	1.00000e+00	1.00000e+00	1.00000e+00	1.00000e+00	1.00000e+00	1.00000e+00	1.00000e+00	1.00000e+00	1.00000e+00	1.00000e+00	1.00000e+00	1.00000e+00	1.00000e+00	X	X	X	X	X	X	X	X	X	X	X	X	X	X	X	X	

B = Detector Channel
Val Type	B-AC1	B-AC2	B-AC3	B-AC4	B-AC5	B-AC6	B-AC7	B-AC8	B-AC9	B-AC10	B-AC11	B-AC12	B-AC13	B-AC14	B-AC15	B-AC16	B-DC1	B-DC2	B-DC3	B-DC4	B-DC5	B-DC6	B-DC7	B-DC8	B-DC9	B-DC10	B-DC11	B-DC12	B-DC13	B-DC14	B-DC15	B-DC16	B-Ph1	B-Ph2	B-Ph3	B-Ph4	B-Ph5	B-Ph6	B-Ph7	B-Ph8	B-Ph9	B-Ph10	B-Ph11	B-Ph12	B-Ph13	B-Ph14	B-Ph15	B-Ph16	

Term	0.00000e+00	0.00000e+00	0.00000e+00	0.00000e+00	0.00000e+00	0.00000e+00	0.00000e+00	0.00000e+00	0.00000e+00	0.00000e+00	0.00000e+00	0.00000e+00	0.00000e+00	0.00000e+00	0.00000e+00	0.00000e+00	0.00000e+00	0.00000e+00	0.00000e+00	0.00000e+00	0.00000e+00	0.00000e+00	0.00000e+00	0.00000e+00	0.00000e+00	0.00000e+00	0.00000e+00	0.00000e+00	0.00000e+00	0.00000e+00	0.00000e+00	0.00000e+00	-5.52834e+01	-1.33387e+02	-1.26565e+02	-1.82540e+02	-5.55431e+01	-6.43973e+01	-1.56586e+02	-1.62015e+02	-4.36106e+01	-7.42587e+01	-1.74623e+02	-1.70094e+02	-1.82744e+02	-1.76742e+02	-5.93975e+01	-1.49658e+02	
Factor	1.78881e-05	1.49563e-04	4.68658e-05	1.78184e-01	1.61833e-06	1.89682e-06	1.77342e-01	5.82412e-02	1.18634e-06	1.65967e-06	8.82662e-02	2.80200e-02	2.53411e-02	8.65087e-03	1.41064e-06	1.27050e-02	4.88401e-06	6.02286e-06	1.67489e-06	8.81332e-02	6.42629e-08	6.60018e-08	8.18783e-02	2.88789e-02	6.38437e-08	6.60667e-08	4.22472e-02	1.34971e-02	1.26457e-02	4.32564e-03	6.44515e-08	6.12258e-03	X	X	X	X	X	X	X	X	X	X	X	X	X	X	X	X	



#DISTANCE SETTINGS
A = Detector Channel
A-1	A-2	A-3	A-4	A-5	A-6	A-7	A-8	A-9	A-10	A-11	A-12	A-13	A-14	A-15	A-16	

2.5000e+00	3.0000e+00	2.5000e+00	3.0000e+00	2.0000e+00	3.0000e+00	1.5000e+00	3.0000e+00	3.0000e+00	3.0000e+00	3.0000e+00	3.0000e+00	3.0000e+00	3.0000e+00	1.5000e+00	3.0000e+00	

B = Detector Channel
B-1	B-2	B-3	B-4	B-5	B-6	B-7	B-8	B-9	B-10	B-11	B-12	B-13	B-14	B-15	B-16	

1.0000e+01	1.0000e+01	1.0000e+01	1.4400e+00	1.0000e+01	1.0000e+01	1.5100e+00	1.9400e+00	1.0000e+01	1.0000e+01	1.9900e+00	2.4900e+00	2.4100e+00	2.9000e+00	1.0000e+01	2.9800e+00	




#DATA BEGINS
time	group	step	mark	flag	A-AC1	A-AC2	A-AC3	A-AC4	A-AC5	A-AC6	A-AC7	A-AC8	A-AC9	A-AC10	A-AC11	A-AC12	A-AC13	A-AC14	A-AC15	A-AC16	A-DC1	A-DC2	A-DC3	A-DC4	A-DC5	A-DC6	A-DC7	A-DC8	A-DC9	A-DC10	A-DC11	A-DC12	A-DC13	A-DC14	A-DC15	A-DC16	A-Ph1	A-Ph2	A-Ph3	A-Ph4	A-Ph5	A-Ph6	A-Ph7	A-Ph8	A-Ph9	A-Ph10	A-Ph11	A-Ph12	A-Ph13	A-Ph14	A-Ph15	A-Ph16	B-AC1	B-AC2	B-AC3	B-AC4	B-AC5	B-AC6	B-AC7	B-AC8	B-AC9	B-AC10	B-AC11	B-AC12	B-AC13	B-AC14	B-AC15	B-AC16	B-DC1	B-DC2	B-DC3	B-DC4	B-DC5	B-DC6	B-DC7	B-DC8	B-DC9	B-DC10	B-DC11	B-DC12	B-DC13	B-DC14	B-DC15	B-DC16	B-Ph1	B-Ph2	B-Ph3	B-Ph4	B-Ph5	B-Ph6	B-Ph7	B-Ph8	B-Ph9	B-Ph10	B-Ph11	B-Ph12	B-Ph13	B-Ph14	B-Ph15	B-Ph16	aux-1	digaux	

488.386	1	1	0	768	0.28345	0.12343	0.038148	0.26146	0.053264	0.071705	0.27505	0.2608	0.13145	0.23684	0.22675	0.32664	0.065193	0.090028	0.17914	0.25578	-4.5729	-4.2958	-4.8812	-4.8625	-4.4542	-5.0167	-4.8375	-4.9083	-4.9458	-4.4187	-4.8833	-4.8792	-4.4542	-5.0896	-4.7583	-4.7438	407.533	234.880	226.670	420.292	412.869	287.813	408.564	366.046	170.892	170.677	367.630	338.254	381.202	364.914	277.633	354.123	0.00051845	0.00035004	0.00015072	1361.8	5.6258e-06	9.2308e-07	1361.7	365.91	6.41e-06	5.6737e-06	417.11	140.56	121.94	42.04	5.7995e-06	51.933	0.0005605	0.00055711	0.0001587	1381.7	6.2075e-06	6.1545e-06	1378.7	372.75	6.1144e-06	6.1094e-06	425.86	143.49	124.8	43.35	6.0884e-06	53.278	243.044	143.540	179.469	88.460	217.430	236.998	88.409	93.335	280.417	216.972	92.567	97.513	98.035	101.960	242.930	101.192	-8191	255	
488.482	1	1	0	0	0.17951	0.10019	0.16613	0.22355	0.046939	0.1188	0.27694	0.093013	0.1068	0.01496	0.27379	0.097287	0.15287	0.10786	0.082872	0.030609	-4.775	-4.4938	-4.7312	-4.9896	-4.3354	-4.8896	-4.8771	-4.825	-5.05	-4.6312	-4.7937	-5.0437	-4.7	-5.0521	-4.6542	-4.5125	126.829	400.674	126.367	413.094	217.802	110.467	368.358	105.575	211.987	194.813	341.890	284.048	121.697	82.898	191.968	329.740	0.00051729	0.00082475	0.00012008	1355.3	5.7409e-06	3.616e-06	1355.6	362.94	5.3677e-06	5.0865e-06	415.88	140.54	121.99	42.076	4.2132e-06	51.797	0.00055695	0.00055467	0.00015507	1376.8	6.0106e-06	5.9965e-06	1374.4	371.97	5.8912e-06	5.9251e-06	424.37	143.54	124.75	43.315	5.9879e-06	53.266	236.923	148.782	170.789	88.518	229.825	228.374	88.333	93.488	249.658	210.644	92.498	97.477	97.892	102.016	244.422	101.122	-8191	255	
488.578	1	1	0	0	0.30513	0.1546	0.033511	0.19169	0.038644	0.27565	0.41027	0.4303	0.29459	0.13998	0.061393	0.11052	0.20985	0.12568	0.056126	0.063803	-4.7667	-4.8167	-4.7542	-5.2375	-4.4333	-5.0667	-5.2271	-4.6375	-5.225	-4.6479	-4.925	-5.075	-4.5417	-4.8833	-4.8896	-4.6604	235.115	240.949	239.854	430.586	283.380	401.419	387.908	362.901	157.759	326.264	377.732	324.608	376.782	271.044	411.108	284.068	0.00054569	0.00053321	0.00017226	1356.5	9.183e-06	5.6899e-06	1356.4	365.41	7.4065e-06	4.182e-06	414.84	140.13	121.71	41.938	5.0489e-06	51.624	0.00055134	0.0005378	0.00015321	1378	5.9111e-06	5.9278e-06	1373.7	372.45	5.7671e-06	5.8143e-06	424.12	143.2	124.54	43.215	5.6919e-06	53.041	239.210	154.905	132.414	88.599	245.127	224.739	88.526	93.284	266.826	223.916	92.439	97.275	97.944	101.837	222.674	101.170	-8191	255	
488.674	1	1	0	0	0.10281	0.10444	0.14519	0.34492	0.096297	0.067782	0.17254	0.25142	0.073027	0.14515	0.29847	0.24658	0.30014	0.19755	0.026917	0.2387	-4.7208	-4.8562	-4.7667	-5.2229	-4.4979	-4.8917	-5.2292	-4.7854	-5.0292	-4.7271	-4.8313	-5.1417	-4.7875	-5.0625	-4.9792	-4.5021	367.834	389.852	187.587	398.750	85.029	328.693	376.757	325.317	100.127	152.986	421.849	426.448	428.032	80.272	311.735	417.233	0.00053729	0.00042122	0.00010167	1348.2	5.1227e-06	4.639e-06	1346.3	362.8	5.8594e-06	5.2872e-06	416.03	140.04	121.69	41.778	5.375e-06	51.662	0.0005277	0.00051861	0.00014567	1368.1	5.6356e-06	5.7261e-06	1363.3	370.26	5.6437e-06	5.5405e-06	423.69	143.15	124.4	43.118	5.5107e-06	52.988	239.933	167.715	188.119	88.399	236.048	212.165	88.502	93.475	253.982	213.606	92.700	97.456	97.700	102.021	231.219	101.025	-8191	255	
488.768	1	1	0	0	0.14183	0.3001	0.13829	0.23654	0.29132	0.20971	0.19015	0.14729	0.10071	0.19741	0.14309	0.19949	0.1272	0.11818	0.1351	0.17658	-4.7292	-4.7042	-4.5708	-5.2271	-4.4625	-4.9167	-5.325	-4.5896	-5.0208	-4.8667	-4.7292	-5.25	-4.6958	-4.8542	-4.9437	-4.6271	160.121	409.559	351.038	360.667	328.488	402.555	334.008	431.138	285.727	311.514	89.590	417.646	131.543	432.239	409.904	426.372	0.00052656	0.00041813	0.00015653	1345.9	7.3488e-06	3.7211e-06	1347.6	363.46	5.1059e-06	4.5925e-06	414.47	139.98	121.92	41.805	5.3314e-06	51.868	0.00051934	0.00051201	0.00014446	1367.7	5.5206e-06	5.609e-06	1364	370.58	5.6898e-06	5.6177e-06	423.58	143.05	124.27	43.142	5.6892e-06	53.066	239.484	157.659	157.914	88.640	258.983	220.488	88.472	93.363	239.912	239.258	92.605	97.392	97.820	101.927	265.896	101.242	-8191	255	
488.866	1	1	0	0	0.30079	0.090502	0.068707	0.18459	0.1141	0.14154	0.1093	0.25419	0.21903	0.14615	0.27798	0.13708	0.10752	0.19516	0.13742	0.19881	-4.7417	-4.8729	-4.4646	-5.3187	-4.6958	-4.7604	-5.1604	-4.6479	-4.925	-4.8812	-4.6729	-5.1479	-4.8	-4.8896	-5.1083	-4.4854	222.064	320.886	202.477	419.078	431.571	119.225	382.190	432.348	120.798	397.524	433.574	330.127	404.142	407.295	118.182	424.261	0.00051558	0.000563	0.00011188	1346.6	3.9303e-06	6.2723e-06	1352.9	363.12	2.983e-06	4.1451e-06	414.06	139.75	121.71	42.04	5.0676e-06	51.593	0.00053629	0.00052738	0.00014554	1367.1	5.7444e-06	5.7324e-06	1364.8	370.52	5.7127e-06	5.5862e-06	422.61	142.66	124.28	43.147	5.5325e-06	52.938	242.189	160.136	168.067	88.374	232.604	228.348	88.474	93.538	249.199	206.913	92.549	97.671	97.820	102.030	233.361	101.011	-8191	255	
488.985	1	1	0	0	0.097907	0.17574	0.11237	0.213	0.049007	0.14918	0.35214	0.1078	0.13503	0.20317	0.11148	0.26845	0.038151	0.092744	0.018408	0.18378	-4.5771	-4.85	-4.4646	-5.2979	-4.7312	-4.5896	-5.1417	-4.6083	-4.8542	-5.1229	-4.5542	-5.1813	-4.8479	-4.6646	-4.9792	-4.6687	90.749	91.175	285.683	417.828	154.974	183.264	422.477	431.167	308.983	124.637	395.029	339.836	263.657	433.709	340.708	427.665	0.00051066	0.00041309	0.00016275	1338	7.4201e-06	6.9302e-06	1342.5	363.77	4.9537e-06	7.6755e-06	413.45	139.85	121.26	41.906	4.8916e-06	51.526	0.00052659	0.00051531	0.00014164	1363.1	5.57e-06	5.5932e-06	1360.9	370.35	5.5833e-06	5.6098e-06	422.57	142.97	124.19	43.104	5.5248e-06	52.897	240.788	178.875	194.540	88.615	251.763	230.304	88.473	93.315	249.132	211.294	92.801	97.458	97.915	102.105	215.584	101.197	-8191	255	
489.081	1	1	0	0	0.09268	0.1447	0.16993	0.21416	0.11506	0.12852	0.17986	0.21316	0.030271	0.22026	0.15189	0.046267	0.14432	0.097564	0.24626	0.16332	-4.5292	-5.0833	-4.4458	-5.0896	-4.8146	-4.5542	-5.3979	-4.6333	-4.8229	-4.9354	-4.5083	-5.0417	-4.7854	-4.5813	-4.9104	-4.75	155.879	82.974	263.915	364.704	261.776	387.064	369.219	81.701	151.477	422.070	406.928	341.884	348.657	97.828	136.453	382.509	0.00050159	0.00054344	0.00016884	1344.3	8.4294e-06	6.1301e-06	1342.8	363.78	5.1748e-06	3.8363e-06	414.02	139.66	121.83	41.75	5.3119e-06	51.645	0.00052592	0.00051248	0.00014212	1362.6	5.6126e-06	5.6449e-06	1361.4	370.93	5.7196e-06	5.6918e-06	423.37	142.91	124.47	43.062	5.5827e-06	52.962	239.848	156.162	183.634	88.585	239.655	222.617	88.439	93.561	274.480	242.098	92.609	97.408	97.905	101.864	244.987	101.314	-8191	255	
489.177	1	1	0	0	0.07939	0.11688	0.24561	0.35887	0.071782	0.10629	0.31519	0.17723	0.15985	0.10637	0.082923	0.2288	0.11661	0.17909	0.14406	0.24736	-4.2792	-4.8187	-4.4667	-5.05	-4.8	-4.3208	-5.1771	-4.8479	-4.7375	-4.9854	-4.6438	-4.8167	-5.0792	-4.6083	-4.9458	-4.8208	225.123	393.302	362.473	415.046	390.593	116.027	363.659	342.835	325.003	325.914	408.467	403.735	344.617	418.030	423.052	347.692	0.0005255	0.0004089	0.00011798	1344	7.1076e-06	5.0079e-06	1346.7	362.22	6.0258e-06	4.3463e-06	414.58	140.4	121.77	41.832	4.9029e-06	51.697	0.00052786	0.00052069	0.00014079	1364.4	5.6622e-06	5.5891e-06	1363.5	370.49	5.6758e-06	5.6706e-06	423.33	143.04	124.31	43.097	5.6034e-06	52.954	237.876	151.881	158.986	88.420	256.795	204.796	88.306	93.393	235.347	204.309	92.633	97.307	97.871	102.128	240.796	101.140	-8191	255	
489.274	1	1	0	0	0.11319	0.043657	0.096275	0.13525	0.011997	0.20457	0.21516	0.084161	0.034713	0.093494	0.14072	0.25221	0.17349	0.066769	0.18604	0.051428	-4.2958	-5.1271	-4.5062	-5.0188	-4.9521	-4.4542	-5.0417	-4.9125	-4.4896	-5	-4.6188	-4.8792	-5.1104	-4.5312	-5.0708	-4.7771	431.199	416.108	385.235	396.150	309.871	287.427	341.715	413.971	156.826	199.372	293.787	404.621	128.495	272.874	92.813	136.341	0.00050746	0.00046571	0.00021476	1340.6	6.944e-06	7.826e-06	1345.4	364.18	4.8013e-06	4.966e-06	415.94	140.03	121.7	42.029	4.8122e-06	51.579	0.00053582	0.00052292	0.00014453	1363.9	5.6648e-06	5.6323e-06	1362.7	371.56	5.6958e-06	5.7457e-06	423.92	143.04	124.52	43.203	5.698e-06	52.942	240.109	175.209	157.818	88.369	237.616	224.959	88.487	93.408	262.229	227.983	92.575	97.426	97.986	101.924	240.772	101.099	-8191	255	
489.370	1	1	0	0	0.14339	0.028044	0.10788	0.3592	0.077175	0.31614	0.078692	0.20528	0.11127	0.04391	0.20904	0.20522	0.24031	0.26329	0.22035	0.17511	-4.1708	-5.0854	-4.4125	-4.7396	-5.0792	-4.4958	-5.0417	-4.9646	-4.5208	-4.9625	-4.7333	-4.6896	-5.0813	-4.4979	-4.6917	-4.9625	356.175	210.775	380.887	390.047	343.592	198.316	315.668	408.911	153.478	233.568	399.927	400.102	191.528	332.543	304.898	394.405	0.00049084	0.00037373	0.00020455	1344.8	6.3102e-06	5.4624e-06	1346.6	364.14	6.7709e-06	5.5725e-06	416.31	139.76	121.15	41.914	3.6283e-06	51.616	0.0005279	0.00052507	0.0001469	1364.3	5.7147e-06	5.7412e-06	1362.1	371.31	5.626e-06	5.6801e-06	424.08	142.91	124.31	43.153	5.6451e-06	52.979	243.525	184.934	177.031	88.605	234.580	262.927	88.469	93.303	253.665	248.067	92.495	97.519	98.023	101.920	252.415	101.232	-8191	255	
489.466	1	1	0	0	0.05086	0.20362	0.15009	0.051953	0.12015	0.056756	0.34021	0.30196	0.20905	0.19049	0.24956	0.28086	0.26458	0.40193	0.15562	0.122	-4.1375	-4.9875	-4.5875	-4.6208	-5.0229	-4.4417	-4.9812	-5.0625	-4.4563	-5.0729	-4.8875	-4.7583	-5.175	-4.6292	-4.7354	-5.0083	338.723	282.705	208.557	380.879	122.217	387.310	342.526	329.863	298.227	285.964	100.248	358.424	381.872	344.655	369.936	369.870	0.00050959	0.00060525	0.00011702	1345.7	4.7778e-06	6.7823e-06	1347.6	364.32	5.7735e-06	5.3319e-06	416.75	139.81	121.75	41.877	5.8532e-06	51.688	0.00053376	0.00052519	0.00014153	1362.8	5.678e-06	5.6463e-06	1361.8	371.08	5.6402e-06	5.6475e-06	423.93	143.01	124.29	43.159	5.5648e-06	52.923	239.435	141.414	183.782	88.449	232.600	240.701	88.560	93.238	259.889	215.231	92.610	97.396	98.073	102.247	261.039	100.932	-8191	255	
489.562	1	1	0	0	0.14991	0.16201	0.11058	0.14623	0.26964	0.14185	0.19207	0.090039	0.098916	0.22632	0.038543	0.16841	0.14273	0.22232	0.099478	0.13832	-4.0917	-4.8167	-4.6417	-4.7125	-4.9688	-4.5417	-4.9604	-5.0604	-4.35	-4.8458	-4.8021	-4.4917	-5.2438	-4.5854	-4.7	-5.1417	224.352	151.383	240.109	372.662	350.810	211.240	272.150	348.402	129.984	191.351	210.037	345.634	419.867	433.822	321.329	343.211	0.00050308	0.00037477	0.00016345	1342.4	6.0995e-06	3.4392e-06	1345.5	364.02	3.693e-06	7.1777e-06	415.44	139.7	121.69	41.754	5.5694e-06	51.54	0.00051729	0.00051981	0.00014169	1362.2	5.5767e-06	5.54e-06	1361.3	371.52	5.6225e-06	5.6296e-06	423.81	142.96	124.38	43.067	5.6787e-06	52.905	241.279	164.827	182.149	88.524	237.189	234.565	88.475	93.257	233.369	217.016	92.513	97.580	97.956	102.086	239.708	101.313	-8191	255	
489.681	1	1	0	0	0.23742	0.083192	0.044235	0.095057	0.26062	0.30188	0.12193	0.2259	0.15014	0.20417	0.19387	0.22015	0.22677	0.20365	0.083369	0.16093	-3.9813	-4.7812	-4.575	-4.6583	-5.0854	-4.6354	-4.9938	-5.0875	-4.3917	-5.1104	-4.8604	-4.5667	-5.0833	-4.5687	-4.6562	-5.0437	372.046	230.712	94.567	339.495	110.631	101.425	370.409	332.808	390.469	110.475	430.043	349.745	98.063	347.738	271.983	337.376	0.00050646	0.00069196	0.00021146	1345.4	7.6947e-06	4.5962e-06	1344.3	364.41	4.697e-06	4.9423e-06	415.75	140.25	121.8	41.909	6.9946e-06	51.55	0.00051681	0.00051017	0.00014214	1363.4	5.6229e-06	5.5859e-06	1362.2	371.13	5.4844e-06	5.6036e-06	423.56	142.88	124.34	43.113	5.5564e-06	52.867	240.558	138.208	147.836	88.512	228.434	208.726	88.337	93.445	257.354	194.313	92.597	97.395	97.952	101.978	255.711	100.852	-8191	255	
489.777	1	1	0	0	0.19433	0.06695	0.2181	0.2546	0.12197	0.1048	0.19183	0.14082	0.06499	0.1599	0.18145	0.091008	0.12665	0.087928	0.18312	0.11783	-4.1979	-4.8375	-4.7604	-4.6958	-5.0625	-4.6312	-4.8792	-5.1104	-4.425	-4.9125	-5.0104	-4.7167	-5.1646	-4.8063	-4.6208	-5.2063	342.933	288.370	132.366	385.511	366.837	363.037	380.131	408.298	289.497	292.870	345.617	155.727	168.899	89.127	428.098	399.045	0.00051199	0.00053425	0.00014775	1344.5	5.5471e-06	4.6672e-06	1342.9	363.62	7.0434e-06	6.2238e-06	415.02	140.14	121.73	41.834	4.0764e-06	51.498	0.00051578	0.00051403	0.0001421	1361.5	5.5354e-06	5.4647e-06	1360.2	371.05	5.4751e-06	5.4793e-06	423.11	143.16	124.35	43.118	5.4334e-06	52.88	241.550	157.101	148.344	88.513	213.078	233.380	88.289	93.329	261.364	217.762	92.689	97.570	97.882	101.999	205.368	101.257	-8191	255	
489.873	1	1	0	0	0.088862	0.1939	0.11648	0.29397	0.28484	0.072976	0.099713	0.11359	0.067376	0.11777	0.32217	0.26355	0.098998	0.20945	0.084471	0.1564	-4.3396	-4.7917	-4.95	-4.5479	-4.9938	-4.7688	-4.6396	-5.3271	-4.6854	-4.6875	-5.1271	-4.675	-5.0854	-4.8688	-4.4583	-5.1167	98.269	420.600	124.875	421.227	327.191	303.304	390.255	396.555	263.225	190.234	82.428	428.192	124.484	407.727	250.249	382.025	0.00050546	0.00061169	0.00018294	1337.9	8.9809e-06	5.5229e-06	1343.7	364.43	4.1291e-06	7.068e-06	417.21	140.09	121.41	41.924	5.386e-06	51.387	0.00050606	0.00050165	0.00013872	1359.6	5.4852e-06	5.4709e-06	1358.9	371.21	5.3835e-06	5.5475e-06	424.01	143.05	124.47	43.16	5.5939e-06	52.981	240.003	148.390	184.061	88.504	248.200	225.155	88.638	93.489	258.576	235.361	92.511	97.491	97.863	102.038	259.441	101.227	-8191	255	
489.969	1	1	0	0	0.30058	0.19975	0.11718	0.23935	0.01179	0.12912	0.1352	0.11532	0.16222	0.084047	0.30796	0.023707	0.18948	0.20783	0.088025	0.064616	-4.4521	-4.8	-4.9479	-4.7104	-5	-4.9375	-4.6604	-5.0958	-4.6333	-4.5458	-5.1958	-4.5938	-5.0542	-5.0833	-4.4125	-5.1854	406.896	208.548	251.881	364.906	189.899	384.920	317.856	91.730	169.292	221.142	417.616	265.264	142.735	366.628	100.414	401.421	0.00054713	0.0003509	0.00013185	1343.5	7.4035e-06	3.8297e-06	1345.5	364.94	4.329e-06	6.5558e-06	416.43	140.43	122.13	41.878	5.1868e-06	51.504	0.00051875	0.00051173	0.00014115	1364	5.5693e-06	5.54e-06	1363.6	371.99	5.4743e-06	5.6343e-06	424.93	143.42	124.78	43.135	5.4639e-06	53.007	241.240	179.672	181.223	88.656	242.649	210.296	88.387	93.354	254.314	210.548	92.497	97.648	97.547	101.848	226.310	101.212	-8191	255	
490.066	1	1	0	0	0.0098175	0.16494	0.27842	0.13572	0.15008	0.30087	0.089908	0.20615	0.044346	0.12658	0.155	0.11933	0.24481	0.13447	0.14544	0.21568	-4.3938	-4.5312	-5.0437	-4.6667	-4.8771	-4.9271	-4.5938	-5.0792	-4.775	-4.5271	-5.3187	-4.6542	-4.8646	-5.0813	-4.425	-5.0917	88.145	193.483	286.763	352.095	248.609	85.300	129.946	407.579	153.154	324.790	301.851	150.967	385.993	88.903	263.120	410.535	0.00049862	0.00041511	0.00016768	1342.6	5.4148e-06	8.5088e-06	1343.9	364.08	6.3601e-06	5.9825e-06	416.83	140.06	121.53	41.875	3.2792e-06	51.464	0.00051051	0.00050252	0.00013782	1363.3	5.5555e-06	5.5125e-06	1360.8	371.24	5.504e-06	5.4036e-06	424.31	143.03	124.4	43.135	5.4856e-06	52.969	240.436	156.781	153.125	88.535	229.937	213.209	88.502	93.498	258.534	229.806	92.743	97.517	97.949	101.866	242.736	101.263	-8191	255	
