BOXY.EXE: ISS Imagent and Oximeter Data Acquisition Program Version 0.80
Ascii Record File

#ACQ INFORMATION
2  Detector Channels 
16  External MUX Channels 
1  Auxiliary Channels 
5000  Waveform (CCF) Frequency (Hz)
1  Waveforms Skipped 
30  Waveforms Averaged 
1  Cycles Averaged 
16  Acquisitions per Waveform 
10.0806  Updata Rate (Hz) 

#FILE INFORMATION
TRUE -- External MUX Channel results are PARSED.
FALSE -- AC DC and Phase are NOT grouped.
TRUE -- Companion Program Settings File CREATED.
FALSE -- AC data not excluded
FALSE -- DC data not excluded
FALSE -- Phase data not excluded
FALSE -- Auxillary Chn. data not excluded
Tab delimiters

#CALIBRATION STATE
TRUE -- Waveform Calibration Values APPLIED.


#AUX CALIBRATION VALUES
Val Type	aux-1	

Term	1.0000e+00	
Factor	0.0000e+00	


#WF CALIBRATION VALUES
A = Detector Channel
Val Type	A-AC1	A-AC2	A-AC3	A-AC4	A-AC5	A-AC6	A-AC7	A-AC8	A-AC9	A-AC10	A-AC11	A-AC12	A-AC13	A-AC14	A-AC15	A-AC16	A-DC1	A-DC2	A-DC3	A-DC4	A-DC5	A-DC6	A-DC7	A-DC8	A-DC9	A-DC10	A-DC11	A-DC12	A-DC13	A-DC14	A-DC15	A-DC16	A-Ph1	A-Ph2	A-Ph3	A-Ph4	A-Ph5	A-Ph6	A-Ph7	A-Ph8	A-Ph9	A-Ph10	A-Ph11	A-Ph12	A-Ph13	A-Ph14	A-Ph15	A-Ph16	

Term	0.00000e+00	0.00000e+00	0.00000e+00	0.00000e+00	0.00000e+00	0.00000e+00	0.00000e+00	0.00000e+00	0.00000e+00	0.00000e+00	0.00000e+00	0.00000e+00	0.00000e+00	0.00000e+00	0.00000e+00	0.00000e+00	0.00000e+00	0.00000e+00	0.00000e+00	0.00000e+00	0.00000e+00	0.00000e+00	0.00000e+00	0.00000e+00	0.00000e+00	0.00000e+00	0.00000e+00	0.00000e+00	0.00000e+00	0.00000e+00	0.00000e+00	0.00000e+00	0.00000e+00	0.00000e+00	0.00000e+00	0.00000e+00	0.00000e+00	0.00000e+00	0.00000e+00	0.00000e+00	0.00000e+00	0.00000e+00	0.00000e+00	0.00000e+00	0.00000e+00	0.00000e+00	0.00000e+00	0.00000e+00	
Factor	1.00000e+00	1.00000e+00	1.00000e+00	1.00000e+00	1.00000e+00	1.00000e+00	1.00000e+00	1.00000e+00	1.00000e+00	1.00000e+00	1.00000e+00	1.00000e+00	1.00000e+00	1.00000e+00	1.00000e+00	1.00000e+00	1.00000e+00	1.00000e+00	1.00000e+00	1.00000e+00	1.00000e+00	1.00000e+00	1.00000e+00	1.00000e+00	1.00000e+00	1.00000e+00	1.00000e+00	1.00000e+00	1.00000e+00	1.00000e+00	1.00000e+00	1.00000e+00	X	X	X	X	X	X	X	X	X	X	X	X	X	X	X	X	

B = Detector Channel
Val Type	B-AC1	B-AC2	B-AC3	B-AC4	B-AC5	B-AC6	B-AC7	B-AC8	B-AC9	B-AC10	B-AC11	B-AC12	B-AC13	B-AC14	B-AC15	B-AC16	B-DC1	B-DC2	B-DC3	B-DC4	B-DC5	B-DC6	B-DC7	B-DC8	B-DC9	B-DC10	B-DC11	B-DC12	B-DC13	B-DC14	B-DC15	B-DC16	B-Ph1	B-Ph2	B-Ph3	B-Ph4	B-Ph5	B-Ph6	B-Ph7	B-Ph8	B-Ph9	B-Ph10	B-Ph11	B-Ph12	B-Ph13	B-Ph14	B-Ph15	B-Ph16	

Term	0.00000e+00	0.00000e+00	0.00000e+00	0.00000e+00	0.00000e+00	0.00000e+00	0.00000e+00	0.00000e+00	0.00000e+00	0.00000e+00	0.00000e+00	0.00000e+00	0.00000e+00	0.00000e+00	0.00000e+00	0.00000e+00	0.00000e+00	0.00000e+00	0.00000e+00	0.00000e+00	0.00000e+00	0.00000e+00	0.00000e+00	0.00000e+00	0.00000e+00	0.00000e+00	0.00000e+00	0.00000e+00	0.00000e+00	0.00000e+00	0.00000e+00	0.00000e+00	-4.24325e+01	-1.27480e+02	-1.29113e+02	-1.83247e+02	-3.31036e+01	-6.42020e+01	-1.56812e+02	-1.62015e+02	-3.27297e+01	-6.89849e+01	-1.75831e+02	-1.71950e+02	-1.80238e+02	-1.77035e+02	-4.28051e+01	-1.49655e+02	
Factor	2.34302e-05	1.84395e-04	5.28880e-05	1.78417e-01	1.82338e-06	2.35056e-06	2.06794e-01	6.19505e-02	1.44642e-06	2.13698e-06	1.21363e-01	3.46114e-02	3.06045e-02	1.06869e-02	2.17603e-06	1.56232e-02	5.23884e-06	6.25852e-06	1.74260e-06	8.57108e-02	6.65713e-08	6.86765e-08	9.29982e-02	2.98139e-02	6.64213e-08	6.86137e-08	5.63353e-02	1.61712e-02	1.48215e-02	5.17988e-03	6.74619e-08	7.31005e-03	X	X	X	X	X	X	X	X	X	X	X	X	X	X	X	X	



#DISTANCE SETTINGS
A = Detector Channel
A-1	A-2	A-3	A-4	A-5	A-6	A-7	A-8	A-9	A-10	A-11	A-12	A-13	A-14	A-15	A-16	

2.5000e+00	3.0000e+00	2.5000e+00	3.0000e+00	2.0000e+00	3.0000e+00	1.5000e+00	3.0000e+00	3.0000e+00	3.0000e+00	3.0000e+00	3.0000e+00	3.0000e+00	3.0000e+00	1.5000e+00	3.0000e+00	

B = Detector Channel
B-1	B-2	B-3	B-4	B-5	B-6	B-7	B-8	B-9	B-10	B-11	B-12	B-13	B-14	B-15	B-16	

1.0000e+01	1.0000e+01	1.0000e+01	1.4400e+00	1.0000e+01	1.0000e+01	1.5100e+00	1.9400e+00	1.0000e+01	1.0000e+01	1.9900e+00	2.4900e+00	2.4100e+00	2.9000e+00	1.0000e+01	2.9800e+00	




#DATA BEGINS
time	group	step	mark	flag	A-AC1	A-AC2	A-AC3	A-AC4	A-AC5	A-AC6	A-AC7	A-AC8	A-AC9	A-AC10	A-AC11	A-AC12	A-AC13	A-AC14	A-AC15	A-AC16	A-DC1	A-DC2	A-DC3	A-DC4	A-DC5	A-DC6	A-DC7	A-DC8	A-DC9	A-DC10	A-DC11	A-DC12	A-DC13	A-DC14	A-DC15	A-DC16	A-Ph1	A-Ph2	A-Ph3	A-Ph4	A-Ph5	A-Ph6	A-Ph7	A-Ph8	A-Ph9	A-Ph10	A-Ph11	A-Ph12	A-Ph13	A-Ph14	A-Ph15	A-Ph16	B-AC1	B-AC2	B-AC3	B-AC4	B-AC5	B-AC6	B-AC7	B-AC8	B-AC9	B-AC10	B-AC11	B-AC12	B-AC13	B-AC14	B-AC15	B-AC16	B-DC1	B-DC2	B-DC3	B-DC4	B-DC5	B-DC6	B-DC7	B-DC8	B-DC9	B-DC10	B-DC11	B-DC12	B-DC13	B-DC14	B-DC15	B-DC16	B-Ph1	B-Ph2	B-Ph3	B-Ph4	B-Ph5	B-Ph6	B-Ph7	B-Ph8	B-Ph9	B-Ph10	B-Ph11	B-Ph12	B-Ph13	B-Ph14	B-Ph15	B-Ph16	aux-1	digaux	

455.537	1	1	0	768	0.27644	0.1056	0.033569	0.19658	0.1768	0.052976	0.12512	0.10469	0.054619	0.16184	0.25595	0.17972	0.14722	0.11223	0.089968	0.14423	-2.9625	-3.6146	-3.7583	-3.6104	-3.7708	-3.5563	-3.6917	-3.8833	-3.5583	-3.4208	-3.8646	-3.4875	-3.625	-3.6646	-3.3812	-3.8	185.781	294.288	243.810	325.952	345.659	221.530	347.454	351.071	334.233	366.749	271.099	352.339	403.970	58.395	253.760	348.044	0.00052391	0.0004532	0.0001342	1359.5	6.2357e-06	8.0023e-06	1363.2	370.66	6.7988e-06	6.061e-06	422.07	143.06	123.73	42.539	5.869e-06	53.08	0.00048073	0.00046853	0.00012602	1380.6	5.1148e-06	5.0496e-06	1378.4	377.81	5.0783e-06	5.0018e-06	430.32	146.11	126.39	43.847	5.0662e-06	54.294	242.643	178.741	112.208	64.691	229.924	197.272	64.753	69.681	254.984	214.381	68.822	73.833	74.179	78.305	256.055	77.328	-8191	255	
455.633	1	1	0	0	0.12574	0.12384	0.25267	0.12381	0.0073022	0.21644	0.29945	0.16424	0.15931	0.14313	0.21113	0.22711	0.12856	0.2338	0.18877	0.090279	-3.2208	-3.5021	-3.7208	-3.4979	-3.5646	-3.6354	-3.4021	-3.9417	-3.4875	-3.4604	-3.7042	-3.5792	-3.7021	-3.6188	-3.3458	-3.7958	399.166	235.177	135.514	324.685	128.087	241.739	298.643	368.353	101.242	283.219	73.465	363.160	281.450	409.480	68.834	246.091	0.00050507	0.00055267	0.00017275	1364	3.2046e-06	5.5853e-06	1361.9	371.89	4.4607e-06	5.0908e-06	423.1	143.02	123.67	42.666	5.512e-06	53.009	0.00048067	0.00046828	0.00012885	1382	5.1701e-06	5.0419e-06	1378.3	378.11	4.9963e-06	5.0438e-06	430.3	146.05	126.5	43.905	5.0551e-06	54.259	245.151	156.923	133.860	64.761	277.060	177.851	64.753	69.689	241.856	207.252	68.821	73.785	74.409	78.273	212.791	77.337	-8191	255	
455.729	1	1	0	0	0.35527	0.1291	0.094203	0.21702	0.25258	0.17245	0.19661	0.17098	0.088649	0.10212	0.11349	0.12832	0.2481	0.1591	0.20439	0.20903	-3.2229	-3.4333	-3.7896	-3.5979	-3.6646	-3.6875	-3.425	-3.7979	-3.4604	-3.5042	-3.7021	-3.5271	-3.7313	-3.8063	-3.5125	-3.7062	148.640	300.242	187.439	352.500	409.093	224.680	270.398	305.232	202.316	333.696	351.304	260.835	115.387	328.490	291.216	390.361	0.00050774	0.00059506	0.00017705	1356.7	6.4396e-06	5.9592e-06	1360.8	370.08	4.8225e-06	5.942e-06	421.85	142.59	124.03	42.66	8.1974e-06	53.23	0.00047573	0.00046861	0.0001293	1378.2	5.1759e-06	5.0845e-06	1377	377.7	5.0588e-06	4.9794e-06	429.72	146	126.56	43.879	5.1504e-06	54.362	241.139	144.554	137.450	64.828	220.399	199.912	64.905	69.632	240.930	192.535	68.589	73.729	74.460	78.412	232.720	77.532	-8191	255	
455.826	1	1	0	0	0.15368	0.18821	0.022971	0.2564	0.03071	0.062294	0.22505	0.31678	0.071945	0.20524	0.31966	0.083026	0.33495	0.13736	0.078114	0.086541	-3.1833	-3.4854	-3.6417	-3.6042	-3.4729	-3.8333	-3.5375	-3.7875	-3.4667	-3.7188	-3.7667	-3.4396	-3.4292	-3.7875	-3.3833	-3.7167	184.349	120.554	52.545	408.235	319.806	322.067	374.007	350.241	132.678	387.287	384.397	179.793	373.444	386.257	124.569	232.732	0.00049057	0.00044261	0.00012144	1361.4	7.8205e-06	3.8559e-06	1360.4	371.75	3.5392e-06	4.3515e-06	422.55	143.21	123.51	42.507	5.5381e-06	53.184	0.0004858	0.00046979	0.00012959	1379.6	5.0933e-06	4.9848e-06	1376.8	377.82	5.0432e-06	5.0432e-06	430.23	146.19	126.42	43.84	5.1167e-06	54.335	243.276	169.971	139.413	64.820	261.128	215.234	64.866	69.731	253.385	199.366	68.915	73.830	74.384	78.292	241.759	77.382	-8191	255	
455.922	1	1	0	0	0.14908	0.1893	0.015127	0.148	0.18339	0.097059	0.21688	0.11673	0.0468	0.31849	0.055886	0.14909	0.24843	0.062209	0.26565	0.23123	-3.2333	-3.4062	-3.5479	-3.5542	-3.5646	-3.7354	-3.6312	-3.6083	-3.5271	-3.35	-3.8042	-3.5729	-3.6312	-3.6896	-3.4646	-3.5146	220.491	410.514	178.918	379.177	159.411	90.418	108.794	181.850	304.163	185.494	183.394	397.212	387.960	58.780	141.265	125.573	0.00051325	0.00054974	0.00010606	1359.9	5.0977e-06	4.2723e-06	1358.1	371.47	4.1974e-06	5.3287e-06	422.91	143.54	124.1	42.678	6.6718e-06	53.062	0.00047919	0.00047421	0.00012851	1380.3	5.1565e-06	5.0333e-06	1377.3	377.93	5.0404e-06	5.0521e-06	430.37	146.16	126.59	43.939	5.1014e-06	54.276	242.008	139.887	148.975	64.791	267.985	212.020	64.759	69.834	234.322	216.540	68.563	73.800	74.110	78.519	264.770	77.402	-8191	255	
456.018	1	1	0	0	0.12545	0.26165	0.050805	0.08882	0.35739	0.099212	0.099145	0.34738	0.28794	0.11135	0.10978	0.047833	0.103	0.07623	0.1643	0.10291	-3.3354	-3.3375	-3.7042	-3.6083	-3.3917	-3.7479	-3.5271	-3.4625	-3.7229	-3.4292	-3.7104	-3.6104	-3.5563	-3.7896	-3.5563	-3.5708	238.275	399.564	370.367	183.141	200.014	287.049	284.164	349.704	63.395	391.948	302.165	264.866	142.831	399.465	162.953	399.860	0.00050166	0.00039726	0.00012469	1359.4	7.5439e-06	5.9401e-06	1359.1	370.7	3.5701e-06	5.2968e-06	422.19	143.35	123.84	42.793	6.1897e-06	52.953	0.00047732	0.00046434	0.00012967	1381	5.1135e-06	4.9748e-06	1378	378.18	5.0524e-06	5.0876e-06	430.52	146.05	126.41	43.927	5.0109e-06	54.324	243.148	141.199	125.015	64.726	241.946	214.904	64.886	69.796	256.164	197.976	69.030	73.934	74.174	78.368	215.949	77.477	-8191	255	
456.138	1	1	0	0	0.17184	0.21753	0.15947	0.23685	0.16386	0.16424	0.067216	0.20959	0.070731	0.020679	0.09934	0.11764	0.17519	0.19568	0.18965	0.14342	-3.3771	-3.2979	-3.6396	-3.7792	-3.5417	-3.725	-3.5146	-3.5729	-3.5167	-3.5479	-3.5229	-3.6292	-3.4688	-3.85	-3.65	-3.4854	164.715	167.665	241.473	314.138	73.859	361.546	139.441	98.176	336.940	274.903	142.664	411.662	377.636	255.682	388.240	381.723	0.00049719	0.00056696	0.00016426	1359.9	5.339e-06	5.0883e-06	1359.4	372.18	6.3665e-06	9.4017e-07	421.82	143.51	124.22	42.804	7.2779e-06	53.108	0.00048021	0.00046544	0.00012915	1379.9	5.127e-06	5.0081e-06	1376.9	378.05	5.0429e-06	4.9959e-06	430.3	146.21	126.6	43.896	5.022e-06	54.285	239.888	167.869	147.262	64.734	239.542	211.769	64.865	69.850	258.220	251.329	68.873	73.791	74.286	78.314	222.599	77.401	-8191	255	
456.235	1	1	0	0	0.054618	0.12399	0.063868	0.11501	0.097892	0.098639	0.13225	0.26121	0.21444	0.22322	0.11394	0.29384	0.020241	0.13303	0.23916	0.18693	-3.3063	-3.275	-3.4771	-3.8083	-3.5229	-3.7062	-3.5979	-3.5896	-3.7958	-3.4562	-3.6458	-3.6917	-3.3563	-3.8646	-3.4729	-3.6479	152.176	315.639	137.535	374.617	58.016	128.287	258.151	406.013	350.180	85.528	355.124	320.367	251.447	118.112	61.901	264.349	0.00052303	0.00045963	0.00022906	1360.9	5.412e-06	8.0316e-06	1362.2	370.83	5.3544e-06	4.247e-06	422.6	143.49	124.08	42.64	6.2389e-06	52.974	0.0004768	0.00045806	0.00012656	1380.6	5.0204e-06	5.0067e-06	1378.4	378.27	5.021e-06	5.0876e-06	430.22	146.11	126.57	43.88	5.0109e-06	54.234	245.434	129.618	135.332	64.732	260.131	220.771	64.802	69.740	252.196	245.482	68.928	73.827	74.325	78.363	266.378	77.443	-8191	255	
456.331	1	1	0	0	0.12888	0.11835	0.13834	0.1143	0.17029	0.13716	0.32022	0.14495	0.18901	0.29784	0.05477	0.22459	0.066074	0.16989	0.11987	0.20676	-3.2604	-3.4896	-3.3292	-3.7938	-3.4271	-3.575	-3.8083	-3.4437	-3.7687	-3.5625	-3.675	-3.9208	-3.4021	-3.5854	-3.6937	-3.4729	92.598	254.671	314.749	338.038	240.433	202.315	331.024	371.733	180.137	74.676	90.704	350.451	248.587	59.114	388.522	369.878	0.00053315	0.00041075	0.00016297	1361.7	5.4419e-06	5.8675e-06	1364.2	371.8	5.7011e-06	2.9283e-06	423.09	142.68	124.06	42.659	5.6588e-06	52.959	0.00047658	0.00045696	0.00012991	1380.9	5.0388e-06	5.0054e-06	1380	378.37	5.0219e-06	4.9968e-06	431.01	146.25	126.54	43.875	5.0338e-06	54.209	240.530	137.275	140.384	64.772	246.146	205.372	64.911	69.728	243.389	196.462	68.836	74.032	74.308	78.440	227.061	77.213	-8191	255	
456.427	1	1	0	0	0.12814	0.17063	0.28575	0.15539	0.11264	0.11476	0.11282	0.32135	0.26969	0.14555	0.14525	0.068624	0.2373	0.26407	0.29723	0.2717	-3.3792	-3.5875	-3.4646	-3.7854	-3.5104	-3.6625	-3.775	-3.4062	-3.6792	-3.4125	-3.5375	-3.6917	-3.4521	-3.675	-3.625	-3.5396	273.957	242.838	329.477	381.737	256.070	307.358	383.905	317.018	193.990	247.822	368.642	297.587	135.858	409.549	372.261	130.368	0.0004938	0.00056818	0.00015605	1361.2	6.0005e-06	3.9244e-06	1365.1	371.92	4.5034e-06	3.101e-06	422.96	142.77	124.25	42.622	5.9106e-06	52.976	0.00047706	0.00045867	0.00012808	1381.6	5.0548e-06	5.0477e-06	1380.7	378.22	5.0855e-06	4.9906e-06	430.85	146.17	126.51	43.893	5.0343e-06	54.26	243.051	133.215	127.059	64.866	230.987	204.301	64.839	69.712	262.663	199.059	68.945	73.808	74.305	78.445	219.713	77.349	-8191	255	
456.521	1	1	0	0	0.26455	0.090721	0.17369	0.28744	0.24506	0.17753	0.27914	0.1712	0.16826	0.040528	0.30687	0.10585	0.055987	0.38775	0.10452	0.092703	-3.3229	-3.4479	-3.3854	-3.8479	-3.45	-3.6146	-3.8604	-3.5125	-3.7375	-3.6104	-3.3667	-3.7417	-3.4917	-3.5417	-3.85	-3.5833	264.012	281.213	316.186	382.464	285.321	121.095	306.337	112.877	77.702	156.489	403.515	293.946	174.535	331.461	404.639	129.701	0.00050024	0.00042577	0.00022805	1359.3	5.6398e-06	5.5217e-06	1362.8	371.98	3.3843e-06	3.6884e-06	422.63	142.56	123.89	42.7	4.3623e-06	52.961	0.00047445	0.00045738	0.00012775	1381.2	5.0413e-06	4.9304e-06	1379	378.4	4.9539e-06	4.9905e-06	430.48	145.98	126.58	43.914	5.0238e-06	54.288	242.160	136.886	148.652	64.957	224.243	237.162	64.785	69.874	259.242	214.752	69.083	73.898	74.479	78.300	259.864	77.539	-8191	255	
456.617	1	1	0	0	0.13176	0.11356	0.22767	0.11205	0.23293	0.0993	0.28871	0.1231	0.12917	0.15785	0.22552	0.20554	0.066773	0.1547	0.12013	0.17418	-3.2917	-3.7167	-3.4646	-4.0125	-3.7208	-3.4375	-3.8688	-3.5187	-3.5563	-3.6708	-3.5563	-3.6833	-3.5062	-3.575	-3.925	-3.5875	155.208	345.858	335.063	79.285	330.783	255.620	330.517	232.009	164.354	72.561	345.580	97.224	321.309	288.903	205.262	325.440	0.00049612	0.00047616	0.00013651	1359.1	5.9979e-06	4.0288e-06	1363.6	370.43	4.6131e-06	6.2303e-06	421.44	142.65	123.55	42.47	7.7062e-06	52.637	0.00047024	0.00046425	0.00012752	1379.4	4.9652e-06	4.9439e-06	1378.9	377.08	4.912e-06	4.9868e-06	429.69	145.82	126.4	43.797	4.9468e-06	54.033	246.450	134.616	150.664	64.753	245.551	222.675	64.915	70.073	257.860	233.892	68.908	73.684	74.405	78.493	225.630	77.364	-8191	255	
456.738	1	1	0	0	0.047436	0.1277	0.22159	0.24137	0.11305	0.10889	0.2524	0.33406	0.21753	0.15821	0.45848	0.13684	0.14335	0.47759	0.21562	0.15426	-3.2188	-3.8125	-3.45	-3.7708	-3.5167	-3.4292	-3.9938	-3.7833	-3.7021	-3.6854	-3.4271	-3.7938	-3.5062	-3.425	-3.8021	-3.5521	410.768	302.541	326.808	346.862	179.414	318.289	297.650	380.326	284.605	373.494	324.676	298.177	96.078	337.952	343.469	230.498	0.00051762	0.00053242	0.00012515	1357.5	5.1234e-06	5.9359e-06	1359.4	369.78	4.3065e-06	7.751e-06	421.03	142.96	123.21	42.503	7.4014e-06	52.853	0.00047572	0.00045069	0.00012475	1377.1	4.9948e-06	4.9789e-06	1375.6	376.87	4.9073e-06	4.9276e-06	428.8	145.72	125.96	43.726	4.9205e-06	54.098	241.132	157.752	138.280	64.890	232.360	212.341	64.800	69.671	274.357	183.819	68.912	73.978	74.292	78.399	236.065	77.475	-8191	255	
456.834	1	1	0	0	0.12895	0.19128	0.10375	0.38258	0.096123	0.093568	0.26195	0.16956	0.16496	0.22158	0.17132	0.17183	0.093401	0.15339	0.062721	0.16271	-3.2271	-3.7417	-3.4271	-3.8937	-3.6417	-3.5271	-3.8583	-3.7354	-3.4917	-3.8708	-3.7062	-3.6458	-3.5229	-3.4521	-3.7917	-3.6875	229.011	306.964	198.361	344.040	180.348	409.163	346.060	198.699	174.830	347.834	314.883	340.831	160.518	57.442	303.443	250.593	0.00050833	0.00048756	0.0001026	1349.9	5.4527e-06	3.0844e-06	1355.7	369.35	3.4126e-06	3.9879e-06	420.43	142	123.04	42.376	4.6151e-06	52.787	0.00046754	0.00045016	0.00012609	1372.3	4.9119e-06	4.9011e-06	1371.5	376.24	4.9272e-06	4.9286e-06	428.7	145.37	125.88	43.663	4.9007e-06	54.063	242.296	133.334	139.065	64.950	245.878	185.979	64.939	69.766	242.889	205.728	68.956	73.828	74.492	78.209	235.078	77.454	-8191	255	
456.930	1	1	0	0	0.022481	0.064	0.18654	0.10028	0.22113	0.33347	0.25782	0.23954	0.13486	0.16697	0.42424	0.2103	0.12459	0.18269	0.1333	0.10068	-2.95	-3.7104	-3.425	-3.6854	-3.6562	-3.5396	-3.9375	-3.525	-3.4333	-3.6792	-3.3812	-3.5521	-3.7604	-3.5979	-3.6479	-3.7188	133.601	221.483	131.476	347.219	62.049	356.026	357.914	355.584	306.606	186.932	355.006	389.618	391.429	357.137	185.920	385.651	0.00049913	0.00054351	0.00017624	1350.2	4.5427e-06	7.7988e-06	1352.1	368.45	4.7186e-06	5.1432e-06	421.93	142.58	123.28	42.537	6.1028e-06	52.731	0.00047269	0.00045618	0.00012517	1372.3	4.9195e-06	4.9109e-06	1371.3	376.06	4.9743e-06	4.841e-06	428.62	145.39	125.93	43.678	4.893e-06	54.075	245.059	140.949	131.727	64.856	240.685	229.083	64.873	69.726	257.290	213.471	68.911	73.676	74.243	78.381	229.595	77.442	-8191	255	
457.027	1	1	0	0	0.097407	0.18408	0.072609	0.34288	0.19701	0.14175	0.14333	0.24551	0.15067	0.16282	0.25051	0.10662	0.17046	0.20279	0.064816	0.10176	-3.0104	-3.6458	-3.25	-3.7125	-3.6937	-3.4104	-3.8042	-3.7125	-3.4979	-3.8312	-3.4313	-3.5854	-3.6875	-3.5604	-3.6583	-3.6583	156.600	340.969	162.165	376.739	352.666	324.067	346.959	356.746	271.744	298.073	289.293	84.728	115.542	395.546	261.998	273.881	0.00050719	0.00051308	0.00015988	1351.7	3.5481e-06	6.8917e-06	1356.9	369.19	4.0577e-06	3.9285e-06	420.44	142	123.3	42.548	5.7519e-06	52.578	0.00047216	0.00044956	0.00012556	1373.8	5.0354e-06	4.9719e-06	1371.2	376.26	4.9874e-06	4.9539e-06	428.53	145.41	125.94	43.708	4.9298e-06	54.023	244.308	121.105	117.119	64.849	273.104	168.854	64.850	69.734	226.130	197.595	69.042	73.583	74.281	78.526	218.470	77.563	-8191	255	
457.098	1	1	0	0	0.076821	0.25496	0.27801	0.094385	0.18256	0.19386	0.13229	0.24723	0.09851	0.071058	0.18754	0.06846	0.08164	0.054081	0.12466	0.16407	-3.0333	-3.7583	-3.5125	-3.5771	-3.8917	-3.4229	-3.8063	-3.8125	-3.2833	-3.7667	-3.6854	-3.5604	-3.7625	-3.5792	-3.5375	-3.7708	84.953	232.394	279.670	355.391	208.017	398.364	318.499	94.596	276.365	249.922	122.455	332.668	283.615	302.643	239.951	215.347	0.00052596	0.00056493	0.00017342	1351.3	2.6256e-06	4.1213e-06	1354.3	369.73	5.6576e-06	6.2175e-06	420.31	142.72	123.42	42.588	6.6363e-06	52.822	0.00046745	0.00045106	0.00012372	1372.6	4.9205e-06	4.8527e-06	1369.8	375.51	4.9114e-06	4.8474e-06	427.99	145.55	125.85	43.707	4.9291e-06	54.023	244.918	122.466	143.955	64.890	244.881	204.903	65.021	69.815	255.461	188.774	69.096	73.925	74.429	78.473	219.290	77.574	-8191	255	
457.219	1	1	0	0	0.16248	0.16284	0.28163	0.21855	0.11051	0.081194	0.21145	0.078957	0.23017	0.047158	0.22146	0.046031	0.16381	0.22019	0.16161	0.04858	-2.975	-3.7417	-3.4604	-3.5333	-3.5854	-3.5563	-3.6729	-3.7792	-3.3771	-3.5312	-3.6875	-3.5875	-3.8375	-3.6125	-3.6354	-3.7646	399.650	192.379	81.840	371.353	99.373	293.412	369.838	55.239	342.169	356.246	318.873	141.907	354.365	320.966	203.592	172.888	0.00051151	0.0004881	0.00018369	1353.2	6.1526e-06	2.318e-06	1357.2	368.98	3.2541e-06	4.8472e-06	419.34	142.69	123.36	42.506	3.2653e-06	52.886	0.00046889	0.00044913	0.00012335	1373.6	4.9499e-06	4.844e-06	1370.5	376.12	4.9929e-06	4.9023e-06	428.29	145.68	126.04	43.645	4.9368e-06	54.031	248.075	178.243	150.164	64.768	243.000	239.464	64.862	69.675	254.580	220.919	68.992	73.803	74.349	78.477	211.872	77.446	-8191	255	
