BOXY.EXE: ISS Imagent and Oximeter Data Acquisition Program Version 0.80
Ascii Record File

#ACQ INFORMATION
2  Detector Channels 
16  External MUX Channels 
1  Auxiliary Channels 
5000  Waveform (CCF) Frequency (Hz)
1  Waveforms Skipped 
30  Waveforms Averaged 
1  Cycles Averaged 
16  Acquisitions per Waveform 
10.0806  Updata Rate (Hz) 

#FILE INFORMATION
TRUE -- External MUX Channel results are PARSED.
FALSE -- AC DC and Phase are NOT grouped.
TRUE -- Companion Program Settings File CREATED.
FALSE -- AC data not excluded
FALSE -- DC data not excluded
FALSE -- Phase data not excluded
FALSE -- Auxillary Chn. data not excluded
Tab delimiters

#CALIBRATION STATE
TRUE -- Waveform Calibration Values APPLIED.


#AUX CALIBRATION VALUES
Val Type	aux-1	

Term	1.0000e+00	
Factor	0.0000e+00	


#WF CALIBRATION VALUES
A = Detector Channel
Val Type	A-AC1	A-AC2	A-AC3	A-AC4	A-AC5	A-AC6	A-AC7	A-AC8	A-AC9	A-AC10	A-AC11	A-AC12	A-AC13	A-AC14	A-AC15	A-AC16	A-DC1	A-DC2	A-DC3	A-DC4	A-DC5	A-DC6	A-DC7	A-DC8	A-DC9	A-DC10	A-DC11	A-DC12	A-DC13	A-DC14	A-DC15	A-DC16	A-Ph1	A-Ph2	A-Ph3	A-Ph4	A-Ph5	A-Ph6	A-Ph7	A-Ph8	A-Ph9	A-Ph10	A-Ph11	A-Ph12	A-Ph13	A-Ph14	A-Ph15	A-Ph16	

Term	0.00000e+00	0.00000e+00	0.00000e+00	0.00000e+00	0.00000e+00	0.00000e+00	0.00000e+00	0.00000e+00	0.00000e+00	0.00000e+00	0.00000e+00	0.00000e+00	0.00000e+00	0.00000e+00	0.00000e+00	0.00000e+00	0.00000e+00	0.00000e+00	0.00000e+00	0.00000e+00	0.00000e+00	0.00000e+00	0.00000e+00	0.00000e+00	0.00000e+00	0.00000e+00	0.00000e+00	0.00000e+00	0.00000e+00	0.00000e+00	0.00000e+00	0.00000e+00	0.00000e+00	0.00000e+00	0.00000e+00	0.00000e+00	0.00000e+00	0.00000e+00	0.00000e+00	0.00000e+00	0.00000e+00	0.00000e+00	0.00000e+00	0.00000e+00	0.00000e+00	0.00000e+00	0.00000e+00	0.00000e+00	
Factor	1.00000e+00	1.00000e+00	1.00000e+00	1.00000e+00	1.00000e+00	1.00000e+00	1.00000e+00	1.00000e+00	1.00000e+00	1.00000e+00	1.00000e+00	1.00000e+00	1.00000e+00	1.00000e+00	1.00000e+00	1.00000e+00	1.00000e+00	1.00000e+00	1.00000e+00	1.00000e+00	1.00000e+00	1.00000e+00	1.00000e+00	1.00000e+00	1.00000e+00	1.00000e+00	1.00000e+00	1.00000e+00	1.00000e+00	1.00000e+00	1.00000e+00	1.00000e+00	X	X	X	X	X	X	X	X	X	X	X	X	X	X	X	X	

B = Detector Channel
Val Type	B-AC1	B-AC2	B-AC3	B-AC4	B-AC5	B-AC6	B-AC7	B-AC8	B-AC9	B-AC10	B-AC11	B-AC12	B-AC13	B-AC14	B-AC15	B-AC16	B-DC1	B-DC2	B-DC3	B-DC4	B-DC5	B-DC6	B-DC7	B-DC8	B-DC9	B-DC10	B-DC11	B-DC12	B-DC13	B-DC14	B-DC15	B-DC16	B-Ph1	B-Ph2	B-Ph3	B-Ph4	B-Ph5	B-Ph6	B-Ph7	B-Ph8	B-Ph9	B-Ph10	B-Ph11	B-Ph12	B-Ph13	B-Ph14	B-Ph15	B-Ph16	

Term	0.00000e+00	0.00000e+00	0.00000e+00	0.00000e+00	0.00000e+00	0.00000e+00	0.00000e+00	0.00000e+00	0.00000e+00	0.00000e+00	0.00000e+00	0.00000e+00	0.00000e+00	0.00000e+00	0.00000e+00	0.00000e+00	0.00000e+00	0.00000e+00	0.00000e+00	0.00000e+00	0.00000e+00	0.00000e+00	0.00000e+00	0.00000e+00	0.00000e+00	0.00000e+00	0.00000e+00	0.00000e+00	0.00000e+00	0.00000e+00	0.00000e+00	0.00000e+00	-1.51084e+02	-1.28834e+02	-1.28025e+02	-1.86409e+02	-7.68898e+01	-6.93831e+01	-1.58531e+02	-1.62015e+02	-7.47914e+01	-6.79359e+01	-1.72014e+02	-1.71423e+02	-1.83400e+02	-1.77421e+02	-7.05656e+01	-1.49763e+02	
Factor	2.11876e-05	1.39541e-04	4.21210e-05	2.80485e-01	1.28048e-06	1.60148e-06	1.54187e-01	4.54447e-02	1.08396e-06	1.57593e-06	7.46426e-02	2.54121e-02	3.58899e-02	8.15869e-03	1.32146e-06	1.15051e-02	9.79520e-06	1.44465e-05	4.03494e-06	1.49735e-01	1.53051e-07	1.61647e-07	7.78450e-02	2.45314e-02	1.47844e-07	1.59374e-07	3.90137e-02	1.33397e-02	1.96024e-02	4.44578e-03	1.52412e-07	6.08456e-03	X	X	X	X	X	X	X	X	X	X	X	X	X	X	X	X	



#DISTANCE SETTINGS
A = Detector Channel
A-1	A-2	A-3	A-4	A-5	A-6	A-7	A-8	A-9	A-10	A-11	A-12	A-13	A-14	A-15	A-16	

2.5000e+00	3.0000e+00	2.5000e+00	3.0000e+00	2.0000e+00	3.0000e+00	1.5000e+00	3.0000e+00	3.0000e+00	3.0000e+00	3.0000e+00	3.0000e+00	3.0000e+00	3.0000e+00	1.5000e+00	3.0000e+00	

B = Detector Channel
B-1	B-2	B-3	B-4	B-5	B-6	B-7	B-8	B-9	B-10	B-11	B-12	B-13	B-14	B-15	B-16	

1.0000e+01	1.0000e+01	1.0000e+01	1.4400e+00	1.0000e+01	1.0000e+01	1.5100e+00	1.9400e+00	1.0000e+01	1.0000e+01	1.9900e+00	2.4900e+00	2.4100e+00	2.9000e+00	1.0000e+01	2.9800e+00	




#DATA BEGINS
time	group	step	mark	flag	A-AC1	A-AC2	A-AC3	A-AC4	A-AC5	A-AC6	A-AC7	A-AC8	A-AC9	A-AC10	A-AC11	A-AC12	A-AC13	A-AC14	A-AC15	A-AC16	A-DC1	A-DC2	A-DC3	A-DC4	A-DC5	A-DC6	A-DC7	A-DC8	A-DC9	A-DC10	A-DC11	A-DC12	A-DC13	A-DC14	A-DC15	A-DC16	A-Ph1	A-Ph2	A-Ph3	A-Ph4	A-Ph5	A-Ph6	A-Ph7	A-Ph8	A-Ph9	A-Ph10	A-Ph11	A-Ph12	A-Ph13	A-Ph14	A-Ph15	A-Ph16	B-AC1	B-AC2	B-AC3	B-AC4	B-AC5	B-AC6	B-AC7	B-AC8	B-AC9	B-AC10	B-AC11	B-AC12	B-AC13	B-AC14	B-AC15	B-AC16	B-DC1	B-DC2	B-DC3	B-DC4	B-DC5	B-DC6	B-DC7	B-DC8	B-DC9	B-DC10	B-DC11	B-DC12	B-DC13	B-DC14	B-DC15	B-DC16	B-Ph1	B-Ph2	B-Ph3	B-Ph4	B-Ph5	B-Ph6	B-Ph7	B-Ph8	B-Ph9	B-Ph10	B-Ph11	B-Ph12	B-Ph13	B-Ph14	B-Ph15	B-Ph16	aux-1	digaux	

29427.320	1	1	0	768	0.22361	0.034362	0.10985	0.23567	0.25901	0.14291	0.11866	0.25649	0.2303	0.38046	0.26318	0.21247	0.14114	0.16741	0.23442	0.084019	-2.45	-2.1792	-2.5208	-2.7854	-2.2479	-2.8542	-2.6437	-2.1417	-2.9375	-2.1937	-2.6312	-2.825	-2.0958	-2.7542	-2.6083	-2.1375	472.095	245.988	377.258	362.411	484.125	198.758	324.658	492.567	504.389	277.437	309.039	433.271	371.032	178.328	444.026	295.606	5.9753e-05	0.00038993	0.0004778	471.58	7.2015e-06	9.7099e-06	347.79	119.27	8.8481e-06	6.9033e-06	89.205	26.253	35.022	9.6687	9.2826e-06	8.0559	0.031505	0.046327	0.012994	987.09	0.00049689	0.00052612	620.86	208.47	0.00048128	0.00052264	222.53	71.606	102.06	25.128	0.00049702	28.698	350.188	404.599	382.702	158.888	391.233	328.674	157.680	163.884	368.634	154.349	160.643	164.770	167.151	173.113	492.837	169.895	-8191	255	
29427.416	1	1	0	0	0.15704	0.077803	0.03184	0.15883	0.20599	0.083561	0.18084	0.11111	0.11857	0.11207	0.10451	0.56716	0.17361	0.10375	0.035624	0.08	-2.675	-2.2542	-2.2417	-2.8396	-2.0687	-2.8667	-2.6333	-2.3187	-2.8438	-2.3958	-2.325	-2.7	-2.1792	-2.6417	-2.4667	-2.0875	478.919	400.436	256.442	438.526	266.983	197.682	458.374	432.426	316.847	393.372	187.717	457.210	151.413	238.446	332.191	212.020	0.00018634	0.0020954	0.00051098	478.25	1.2969e-05	1.0556e-06	345.96	121.77	4.3922e-06	1.1396e-05	91.704	26.889	35.402	9.9015	1.2486e-05	8.2053	0.032367	0.04761	0.013281	1002.1	0.00050716	0.00053711	625.83	211.07	0.00049234	0.00052984	225.84	72.656	103.24	25.522	0.00050349	28.968	159.786	478.210	482.576	158.504	207.667	504.937	157.584	163.906	460.071	453.419	161.569	164.890	166.769	172.904	305.956	169.977	-8191	255	
29427.512	1	1	0	0	0.25526	0.19613	0.074548	0.15111	0.029832	0.14774	0.060776	0.30146	0.22119	0.20796	0.054503	0.1005	0.043443	0.19129	0.08774	0.40214	-2.5438	-2.2	-2.4146	-2.8604	-2.1396	-2.6604	-2.8312	-2.0146	-2.8667	-2.4688	-2.4521	-3.0125	-2.2104	-2.6188	-2.7687	-2.3208	325.872	460.442	208.170	405.320	305.098	258.736	452.466	445.051	374.717	287.784	240.183	477.895	434.287	367.119	376.724	193.761	0.00023853	0.00087907	0.0003443	482.16	9.4523e-06	1.2751e-05	348.12	121.67	9.3505e-06	1.6938e-05	91.206	27.108	35.465	9.9664	2.7807e-06	8.0425	0.032559	0.047644	0.01331	1006.1	0.0005047	0.00053178	627.73	211.09	0.00048628	0.00052129	224.59	72.525	102.21	25.209	0.00049695	28.683	489.712	472.321	327.793	158.859	227.497	199.002	157.090	163.552	184.234	172.874	160.684	165.132	167.522	173.117	457.419	170.615	-8191	255	
29427.607	1	1	0	0	0.24208	0.096366	0.14633	0.1751	0.2352	0.073913	0.15784	0.072204	0.13947	0.039435	0.15748	0.34505	0.16118	0.24481	0.12641	0.30014	-2.3542	-2.55	-2.0208	-2.9083	-2.1771	-2.4396	-2.8937	-2.2104	-2.8021	-2.6167	-2.1083	-2.9979	-2.2229	-2.3729	-2.8208	-2.1021	225.550	495.143	480.843	317.339	247.389	444.411	358.666	452.758	404.109	352.065	408.593	362.775	367.954	466.291	414.465	323.540	0.00023382	0.00075657	0.00026702	477.8	8.6939e-06	2.807e-06	348.19	121.95	3.2036e-06	1.3412e-05	90.059	26.819	35.217	9.8064	1.1957e-05	8.0512	0.031968	0.047066	0.013128	1000.2	0.00049924	0.00052681	624.58	209.97	0.00048049	0.00051591	222.58	71.929	101.74	25.115	0.00049627	28.755	414.816	265.322	219.999	158.872	445.345	252.446	157.640	163.326	182.001	356.415	161.643	165.809	167.754	173.796	457.232	169.692	-8191	255	
29427.703	1	1	0	0	0.11	0.20665	0.12816	0.21454	0.1652	0.15887	0.17754	0.13605	0.29145	0.29124	0.14684	0.14241	0.2644	0.16665	0.11939	0.068316	-2.4271	-2.6083	-2.2938	-3.075	-2.3583	-2.3688	-2.8208	-2.2021	-2.8292	-2.6333	-2.1271	-2.8542	-2.5771	-2.3063	-2.9021	-2.2354	207.331	392.761	433.025	478.822	205.155	380.186	392.805	218.451	299.401	179.439	155.686	374.605	225.113	146.334	395.294	380.406	0.00028111	0.00051554	0.00019483	475.92	8.5177e-06	2.1907e-06	344.43	120.39	9.5335e-06	2.68e-05	89.571	26.637	35.398	9.9118	8.6894e-06	8.2621	0.032121	0.047189	0.013265	1002.3	0.0005041	0.00053475	629.16	211.12	0.00049089	0.00052911	226.56	73.256	103.63	25.613	0.00051091	29.325	341.009	275.580	327.460	158.704	315.536	322.348	157.678	163.301	286.878	271.554	160.911	164.983	167.887	173.655	354.909	170.411	-8191	255	
29427.801	1	1	0	0	0.20888	0.19714	0.17516	0.28144	0.22542	0.16924	0.29326	0.27623	0.25925	0.24211	0.24413	0.28007	0.078132	0.28323	0.26419	0.16782	-2.2958	-2.8896	-2.0146	-2.9688	-2.275	-2.2375	-3.0979	-2.1458	-2.2812	-2.6625	-2.1896	-2.7875	-2.5062	-2.2438	-2.8625	-2.2625	258.493	197.793	361.380	262.930	243.522	342.864	449.684	250.683	381.951	183.459	342.902	373.496	429.769	417.377	303.162	226.754	0.00012808	0.0013659	0.00031914	483.45	5.4916e-06	1.4795e-05	350.37	122.81	8.235e-06	1.355e-05	92.538	27.413	36.043	10.174	1.8103e-05	8.3945	0.03287	0.048287	0.01359	1015.9	0.00051033	0.00053871	636.07	213.45	0.00049132	0.00053068	228.36	73.315	103.61	25.628	0.00050443	29.106	162.955	208.836	242.243	159.159	407.350	332.462	157.356	163.685	276.404	160.228	161.559	164.968	167.044	173.576	443.055	170.019	-8191	255	
29427.922	1	1	0	0	0.32106	0.12485	0.19655	0.14962	0.15515	0.12816	0.21414	0.15932	0.11303	0.091518	0.10158	0.11516	0.10008	0.20419	0.342	0.1666	-2.0271	-2.9083	-2.1104	-2.7479	-2.7104	-2.1917	-3.05	-2.3937	-2.2958	-2.9208	-2.1917	-2.8208	-2.8125	-2.0125	-2.9396	-2.5583	239.022	277.577	422.749	441.509	399.451	197.158	403.611	435.011	356.709	424.228	321.573	427.767	168.719	445.637	376.861	321.854	0.00012116	0.00085417	0.00046952	488.9	1.7471e-05	1.0954e-05	356.1	123.76	8.3406e-06	1.5416e-05	92.101	27.358	36.506	10.19	2.0009e-05	8.3448	0.032151	0.047705	0.013312	1014	0.0005025	0.00053425	637.14	214.05	0.00048652	0.00052836	227.9	73.325	103.81	25.693	0.00050367	29.131	151.235	199.639	300.742	159.025	164.139	184.216	157.283	163.598	314.371	277.328	161.368	164.077	167.048	173.430	274.797	170.557	-8191	255	
29428.018	1	1	0	0	0.099434	0.24623	0.13647	0.14389	0.27676	0.11129	0.13827	0.31741	0.1325	0.11818	0.064079	0.26646	0.19438	0.04937	0.16418	0.18971	-1.9312	-2.9771	-2.3521	-2.8958	-2.5333	-2.2354	-2.8604	-2.4188	-2.3396	-2.925	-2.2	-2.6229	-2.9896	-2.0667	-3.1583	-2.3521	394.619	398.564	396.943	276.791	299.067	407.624	168.609	150.098	382.660	257.458	339.518	245.061	286.706	277.826	183.485	445.819	0.0002098	0.0009967	0.00035247	486.09	8.7855e-06	5.0048e-06	351.9	124.05	9.7005e-06	1.02e-05	92.108	27.561	36.812	10.288	4.2448e-06	8.4884	0.032478	0.048005	0.013376	1017.9	0.0005078	0.0005405	639.05	215.02	0.00049478	0.00053603	229.75	74.262	105.49	26.124	0.00051573	29.612	186.258	499.266	253.417	159.653	391.800	392.776	157.388	163.709	227.209	225.942	161.513	165.363	166.996	173.052	343.508	170.721	-8191	255	
29428.113	1	1	0	0	0.088511	0.26841	0.17924	0.14519	0.13854	0.11587	0.057102	0.086372	0.22744	0.13123	0.084733	0.20649	0.053935	0.25883	0.11555	0.19041	-1.8687	-2.9604	-2.2458	-2.6937	-2.9188	-2.1562	-2.9062	-2.6417	-2.0208	-2.9938	-2.3271	-2.5354	-3.0542	-2.0687	-2.6458	-2.5542	417.232	262.300	316.617	161.626	254.194	474.455	276.473	435.118	332.034	277.291	241.711	224.338	483.104	218.905	382.740	488.246	0.00026129	0.0015494	0.00010814	485.58	8.4349e-06	2.7545e-05	352.52	123.87	8.1819e-06	1.9102e-05	92.695	27.67	36.449	10.186	1.6492e-05	8.3734	0.03334	0.049263	0.013742	1028	0.00052222	0.00055263	642.8	216.04	0.00050306	0.00054235	230.54	74.473	105.99	26.074	0.00051511	29.615	225.695	174.551	410.574	159.174	218.372	378.990	158.016	163.737	232.159	415.865	161.621	165.450	167.092	173.148	407.874	170.316	-8191	255	
29428.209	1	1	0	0	0.0954	0.1713	0.13425	0.0058838	0.17966	0.31861	0.22047	0.12401	0.13449	0.14902	0.121	0.12958	0.24774	0.072074	0.028965	0.15522	-1.6042	-2.7854	-2.2333	-2.3	-2.9208	-2.2521	-2.7583	-2.7313	-2.0042	-2.9562	-2.4417	-2.4146	-2.8521	-2.1167	-2.7083	-2.9437	499.959	318.598	226.859	244.496	209.983	467.988	466.940	165.419	316.971	285.188	158.438	255.204	396.760	296.466	492.244	178.064	8.5268e-05	0.00049047	0.0003847	484.29	4.6055e-06	3.0562e-06	353.35	122.69	1.1213e-05	1.3022e-05	91.835	27.715	36.735	10.043	1.2603e-05	8.211	0.033129	0.048659	0.013525	1017.9	0.00051213	0.0005395	635.43	213.98	0.00049243	0.00052976	227.28	73.525	104.15	25.602	0.00050002	29.059	477.894	474.629	422.487	158.786	459.606	397.892	157.377	163.437	174.891	376.814	161.311	165.446	168.047	172.858	336.934	169.020	-8191	255	
29428.307	1	1	0	0	0.19761	0.2869	0.027774	0.020542	0.05912	0.09459	0.089347	0.21697	0.15597	0.077204	0.2007	0.13446	0.16127	0.035308	0.10716	0.095577	-1.7563	-2.6708	-2.3229	-2.3708	-2.9396	-2.2167	-2.6708	-2.975	-2.1083	-3.0271	-2.4208	-2.2396	-2.9208	-2.1708	-2.4625	-2.95	432.581	317.915	163.505	170.346	377.633	369.508	502.007	468.373	265.174	200.939	293.994	177.091	427.633	444.779	386.562	217.384	0.00021658	0.00067679	0.00023426	481.85	1.0108e-05	1.0052e-05	350.25	123.59	3.6274e-06	8.2068e-06	92.084	27.198	36.103	10.124	8.5159e-06	8.2732	0.032489	0.047507	0.013193	1007.6	0.00050415	0.0005295	630.19	212.52	0.00048775	0.00052323	225.27	72.763	103.6	25.428	0.00049692	28.94	281.736	237.654	182.614	158.847	244.051	428.662	157.389	163.534	460.111	235.297	160.938	165.078	167.735	173.158	198.968	170.002	-8191	255	
29428.402	1	1	0	0	0.29886	0.18133	0.12028	0.21658	0.22055	0.087502	0.23326	0.060036	0.16846	0.19835	0.077963	0.11006	0.11754	0.099031	0.38205	0.12891	-1.8167	-2.9292	-2.5229	-2.175	-2.9333	-2.1833	-2.525	-3.1104	-2.1437	-3.0229	-2.8187	-2.175	-2.9208	-2.5604	-2.4104	-2.9958	373.712	458.258	424.030	193.306	350.292	409.720	245.719	386.687	157.330	151.263	212.708	285.112	378.472	197.878	431.127	313.494	0.00025041	0.00097	0.00014013	482.19	2.069e-06	7.9908e-06	346.66	121.48	5.1271e-06	9.8421e-06	89.723	26.697	35.496	9.7746	1.518e-05	8.0153	0.032366	0.047358	0.01325	1007.1	0.00050438	0.00053018	625.22	211.32	0.00048639	0.00052253	223.89	72.45	102.77	25.203	0.00049891	28.763	184.195	505.149	284.212	158.806	444.558	386.341	157.602	163.746	263.002	229.965	160.704	164.335	167.573	173.494	502.174	169.961	-8191	255	
29428.521	1	1	0	0	0.2143	0.19002	0.21436	0.36747	0.15064	0.069532	0.13074	0.10341	0.28934	0.16885	0.24862	0.12596	0.13281	0.15173	0.34315	0.13012	-1.7083	-2.65	-2.5125	-2.2875	-2.8812	-2.4	-2.6875	-3.025	-2.0333	-2.6583	-2.7708	-2.2208	-2.8958	-2.5167	-2.2646	-2.9854	188.539	315.805	408.447	478.105	404.788	153.736	382.248	149.473	463.062	399.015	156.931	280.463	173.316	440.084	186.586	321.173	0.00027819	0.00048251	0.00011265	477.86	2.0906e-06	1.0161e-05	342.41	121.54	1.3821e-06	6.8731e-06	88.151	26.155	35.027	9.8084	1.0396e-05	8.0588	0.032089	0.047019	0.013164	1001	0.00049969	0.0005238	620.02	209.84	0.00048312	0.00051933	222.54	71.849	101.86	25.013	0.00049689	28.465	505.532	395.201	197.686	159.062	254.381	234.768	157.555	164.154	431.083	500.885	161.114	164.435	167.730	173.534	347.724	170.285	-8191	255	
29428.617	1	1	0	0	0.17501	0.14998	0.11912	0.17571	0.054807	0.19426	0.12231	0.15871	0.3188	0.060588	0.16334	0.27551	0.03592	0.083245	0.25052	0.01549	-1.8229	-2.4688	-3.0958	-2.1646	-2.8583	-2.7125	-2.1937	-3.0708	-2.2042	-2.5229	-2.8854	-2.0187	-2.8146	-2.5312	-2.0771	-2.9042	446.510	478.480	410.357	392.588	371.943	165.307	364.881	165.488	415.729	166.539	203.508	340.077	278.466	401.616	431.700	153.719	0.00013892	0.0025565	0.00070516	471.5	1.5158e-05	1.2363e-05	343.46	119.31	1.7173e-05	1.2613e-06	88.287	26.037	35.509	9.666	4.4657e-06	8.0673	0.031804	0.046806	0.013151	994.97	0.00049755	0.00052306	619.12	208.5	0.00048015	0.0005173	222.15	71.38	101.36	24.992	0.0005	28.49	247.792	299.314	219.649	159.627	418.439	210.778	157.779	163.939	257.794	303.622	161.493	164.889	167.844	173.366	494.922	169.799	-8191	255	
29428.713	1	1	0	0	0.23178	0.1231	0.22917	0.13673	0.12216	0.21504	0.17777	0.051592	0.12772	0.14492	0.15696	0.040766	0.17733	0.19357	0.23232	0.36263	-1.7833	-2.3375	-2.7438	-2.075	-2.6521	-2.7333	-2.2354	-2.9667	-2.3542	-2.3583	-2.9229	-2.2354	-2.5542	-2.7104	-2.1958	-2.825	435.274	289.037	449.996	409.822	316.376	340.960	429.267	382.883	499.935	377.586	402.590	480.301	480.624	483.832	253.161	276.932	0.00023658	0.001213	0.00042016	472.09	1.5546e-05	1.7677e-05	337.32	118.82	9.6751e-06	1.2299e-05	88.379	25.875	35.031	9.5793	7.2427e-06	7.8675	0.031907	0.047104	0.013234	990.25	0.00049675	0.00052628	617.6	208.17	0.00047778	0.0005185	221.38	70.865	100.61	24.827	0.00049572	28.182	484.309	361.994	179.904	158.996	359.089	249.699	157.510	163.887	178.270	296.411	161.420	165.258	167.950	172.907	164.646	170.930	-8191	255	
29428.809	1	1	0	0	0.074085	0.15894	0.22758	0.18581	0.10177	0.10177	0.10145	0.1391	0.16966	0.027661	0.10995	0.11297	0.24768	0.31546	0.30088	0.16285	-1.9	-2.2083	-2.9333	-2.3417	-2.5583	-2.5312	-2.1958	-2.8708	-2.5833	-2.0833	-2.9896	-2.1437	-2.6917	-2.7958	-2.0083	-2.7687	154.156	273.989	338.799	371.683	437.960	146.886	406.154	423.649	369.428	216.812	284.819	340.573	367.673	170.943	487.043	463.556	9.9693e-05	0.00056845	0.00029189	464.33	1.7238e-05	1.4307e-05	334.72	119.17	4.9677e-06	8.4804e-06	86.217	25.482	34.216	9.5907	1.2616e-05	7.7913	0.031505	0.046967	0.013044	979.98	0.0004898	0.00051861	609.58	205.95	0.00047134	0.00051296	218.77	70.103	100.01	24.815	0.00049668	28.164	189.978	476.604	208.524	158.860	451.645	403.537	157.788	163.568	194.474	409.866	161.628	164.770	166.680	173.601	392.930	169.843	-8191	255	
29428.904	1	1	0	0	0.24538	0.11891	0.17561	0.16784	0.24471	0.31501	0.49136	0.078335	0.19	0.23677	0.13536	0.23188	0.18788	0.054946	0.045682	0.31078	-2.0958	-2.2479	-2.8354	-2.225	-2.4292	-2.7188	-2.0958	-2.7146	-2.6667	-2.3542	-2.9437	-2.3688	-2.3354	-2.9083	-2.1167	-2.6875	416.932	274.458	404.645	486.767	272.452	338.881	423.559	412.804	223.792	317.974	174.172	149.317	464.035	166.960	246.696	400.650	0.00011156	0.00049796	0.00067228	461.98	1.0411e-05	1.3442e-05	333.54	117.69	7.6751e-06	1.7408e-06	86.308	25.378	34.125	9.557	1.4225e-05	7.6935	0.031812	0.047653	0.013291	985.52	0.00050345	0.00053857	615.61	207.97	0.00049153	0.00053655	222.97	71.289	102.56	25.176	0.00050782	28.443	319.460	503.127	271.812	158.704	155.044	222.505	158.019	163.790	460.189	338.257	161.494	164.720	167.095	173.650	199.188	169.620	-8191	255	
29429.002	1	1	0	0	0.16777	0.38968	0.15427	0.2159	0.018208	0.15762	0.33475	0.10384	0.243	0.3398	0.21802	0.056506	0.11167	0.15539	0.18837	0.043571	-2.2062	-2.0771	-2.9062	-2.3104	-2.2687	-2.9792	-2.3	-2.5104	-2.6979	-1.9375	-2.8688	-2.4604	-2.2021	-2.9646	-2.0542	-2.5792	385.614	314.278	439.716	483.781	429.993	278.866	430.996	473.776	281.451	390.911	433.557	211.387	273.155	401.061	214.775	181.512	0.00030799	0.00089923	0.00012385	468.09	7.7471e-06	7.9537e-06	334.61	118.15	1.1811e-05	8.5296e-06	86.394	25.394	34.307	9.3331	2.2086e-06	7.6877	0.032585	0.048303	0.013418	992.72	0.00051128	0.00054285	616.47	208.5	0.0004976	0.00053887	223.72	71.575	103.47	25.309	0.00051248	28.816	196.295	283.177	162.885	158.940	159.888	325.027	157.782	163.831	151.416	164.712	161.257	165.184	166.577	172.826	307.216	170.342	-8191	255	
