BOXY.EXE: ISS Imagent and Oximeter Data Acquisition Program Version 0.80
Ascii Record File

#ACQ INFORMATION
2  Detector Channels 
16  External MUX Channels 
1  Auxiliary Channels 
5000  Waveform (CCF) Frequency (Hz)
1  Waveforms Skipped 
30  Waveforms Averaged 
1  Cycles Averaged 
16  Acquisitions per Waveform 
10.0806  Updata Rate (Hz) 

#FILE INFORMATION
TRUE -- External MUX Channel results are PARSED.
FALSE -- AC DC and Phase are NOT grouped.
TRUE -- Companion Program Settings File CREATED.
FALSE -- AC data not excluded
FALSE -- DC data not excluded
FALSE -- Phase data not excluded
FALSE -- Auxillary Chn. data not excluded
Tab delimiters

#CALIBRATION STATE
TRUE -- Waveform Calibration Values APPLIED.


#AUX CALIBRATION VALUES
Val Type	aux-1	

Term	1.0000e+00	
Factor	0.0000e+00	


#WF CALIBRATION VALUES
A = Detector Channel
Val Type	A-AC1	A-AC2	A-AC3	A-AC4	A-AC5	A-AC6	A-AC7	A-AC8	A-AC9	A-AC10	A-AC11	A-AC12	A-AC13	A-AC14	A-AC15	A-AC16	A-DC1	A-DC2	A-DC3	A-DC4	A-DC5	A-DC6	A-DC7	A-DC8	A-DC9	A-DC10	A-DC11	A-DC12	A-DC13	A-DC14	A-DC15	A-DC16	A-Ph1	A-Ph2	A-Ph3	A-Ph4	A-Ph5	A-Ph6	A-Ph7	A-Ph8	A-Ph9	A-Ph10	A-Ph11	A-Ph12	A-Ph13	A-Ph14	A-Ph15	A-Ph16	

Term	0.00000e+00	0.00000e+00	0.00000e+00	0.00000e+00	0.00000e+00	0.00000e+00	0.00000e+00	0.00000e+00	0.00000e+00	0.00000e+00	0.00000e+00	0.00000e+00	0.00000e+00	0.00000e+00	0.00000e+00	0.00000e+00	0.00000e+00	0.00000e+00	0.00000e+00	0.00000e+00	0.00000e+00	0.00000e+00	0.00000e+00	0.00000e+00	0.00000e+00	0.00000e+00	0.00000e+00	0.00000e+00	0.00000e+00	0.00000e+00	0.00000e+00	0.00000e+00	0.00000e+00	0.00000e+00	0.00000e+00	0.00000e+00	0.00000e+00	0.00000e+00	0.00000e+00	0.00000e+00	0.00000e+00	0.00000e+00	0.00000e+00	0.00000e+00	0.00000e+00	0.00000e+00	0.00000e+00	0.00000e+00	
Factor	1.00000e+00	1.00000e+00	1.00000e+00	1.00000e+00	1.00000e+00	1.00000e+00	1.00000e+00	1.00000e+00	1.00000e+00	1.00000e+00	1.00000e+00	1.00000e+00	1.00000e+00	1.00000e+00	1.00000e+00	1.00000e+00	1.00000e+00	1.00000e+00	1.00000e+00	1.00000e+00	1.00000e+00	1.00000e+00	1.00000e+00	1.00000e+00	1.00000e+00	1.00000e+00	1.00000e+00	1.00000e+00	1.00000e+00	1.00000e+00	1.00000e+00	1.00000e+00	X	X	X	X	X	X	X	X	X	X	X	X	X	X	X	X	

B = Detector Channel
Val Type	B-AC1	B-AC2	B-AC3	B-AC4	B-AC5	B-AC6	B-AC7	B-AC8	B-AC9	B-AC10	B-AC11	B-AC12	B-AC13	B-AC14	B-AC15	B-AC16	B-DC1	B-DC2	B-DC3	B-DC4	B-DC5	B-DC6	B-DC7	B-DC8	B-DC9	B-DC10	B-DC11	B-DC12	B-DC13	B-DC14	B-DC15	B-DC16	B-Ph1	B-Ph2	B-Ph3	B-Ph4	B-Ph5	B-Ph6	B-Ph7	B-Ph8	B-Ph9	B-Ph10	B-Ph11	B-Ph12	B-Ph13	B-Ph14	B-Ph15	B-Ph16	

Term	0.00000e+00	0.00000e+00	0.00000e+00	0.00000e+00	0.00000e+00	0.00000e+00	0.00000e+00	0.00000e+00	0.00000e+00	0.00000e+00	0.00000e+00	0.00000e+00	0.00000e+00	0.00000e+00	0.00000e+00	0.00000e+00	0.00000e+00	0.00000e+00	0.00000e+00	0.00000e+00	0.00000e+00	0.00000e+00	0.00000e+00	0.00000e+00	0.00000e+00	0.00000e+00	0.00000e+00	0.00000e+00	0.00000e+00	0.00000e+00	0.00000e+00	0.00000e+00	-1.12736e+02	-1.32660e+02	-1.57672e+02	-1.83228e+02	-7.36844e+01	-7.41403e+01	-1.57769e+02	-1.62015e+02	-7.39298e+01	-8.15064e+01	-1.72450e+02	-1.71347e+02	-1.84938e+02	-1.78511e+02	-9.10839e+01	-1.50871e+02	
Factor	1.78968e-05	1.04503e-04	4.02729e-05	1.54566e-01	1.05787e-06	1.14884e-06	1.75725e-01	5.77799e-02	9.78682e-07	1.20120e-06	1.01565e-01	3.04267e-02	6.38759e-02	9.98531e-03	1.13885e-06	1.44782e-02	7.43370e-07	7.63276e-07	2.11636e-07	7.61262e-02	8.34935e-09	8.34908e-09	8.12104e-02	2.82388e-02	8.35724e-09	8.35355e-09	4.68643e-02	1.42655e-02	2.82392e-02	4.79310e-03	8.33279e-09	6.65656e-03	X	X	X	X	X	X	X	X	X	X	X	X	X	X	X	X	



#DISTANCE SETTINGS
A = Detector Channel
A-1	A-2	A-3	A-4	A-5	A-6	A-7	A-8	A-9	A-10	A-11	A-12	A-13	A-14	A-15	A-16	

2.5000e+00	3.0000e+00	2.5000e+00	3.0000e+00	2.0000e+00	3.0000e+00	1.5000e+00	3.0000e+00	3.0000e+00	3.0000e+00	3.0000e+00	3.0000e+00	3.0000e+00	3.0000e+00	1.5000e+00	3.0000e+00	

B = Detector Channel
B-1	B-2	B-3	B-4	B-5	B-6	B-7	B-8	B-9	B-10	B-11	B-12	B-13	B-14	B-15	B-16	

1.0000e+01	1.0000e+01	1.0000e+01	1.4400e+00	1.0000e+01	1.0000e+01	1.5100e+00	1.9400e+00	1.0000e+01	1.0000e+01	1.9900e+00	2.4900e+00	2.4100e+00	2.9000e+00	1.0000e+01	2.9800e+00	




#DATA BEGINS
time	group	step	mark	flag	A-AC1	A-AC2	A-AC3	A-AC4	A-AC5	A-AC6	A-AC7	A-AC8	A-AC9	A-AC10	A-AC11	A-AC12	A-AC13	A-AC14	A-AC15	A-AC16	A-DC1	A-DC2	A-DC3	A-DC4	A-DC5	A-DC6	A-DC7	A-DC8	A-DC9	A-DC10	A-DC11	A-DC12	A-DC13	A-DC14	A-DC15	A-DC16	A-Ph1	A-Ph2	A-Ph3	A-Ph4	A-Ph5	A-Ph6	A-Ph7	A-Ph8	A-Ph9	A-Ph10	A-Ph11	A-Ph12	A-Ph13	A-Ph14	A-Ph15	A-Ph16	B-AC1	B-AC2	B-AC3	B-AC4	B-AC5	B-AC6	B-AC7	B-AC8	B-AC9	B-AC10	B-AC11	B-AC12	B-AC13	B-AC14	B-AC15	B-AC16	B-DC1	B-DC2	B-DC3	B-DC4	B-DC5	B-DC6	B-DC7	B-DC8	B-DC9	B-DC10	B-DC11	B-DC12	B-DC13	B-DC14	B-DC15	B-DC16	B-Ph1	B-Ph2	B-Ph3	B-Ph4	B-Ph5	B-Ph6	B-Ph7	B-Ph8	B-Ph9	B-Ph10	B-Ph11	B-Ph12	B-Ph13	B-Ph14	B-Ph15	B-Ph16	aux-1	digaux	

9239.784	1	1	0	256	0.1775	0.14955	0.23427	0.42605	0.16534	0.1287	0.35608	0.052701	0.12179	0.14934	0.19892	0.40309	0.12149	0.021848	0.11937	0.17815	-1.5042	-1.475	-2.4667	-1.8833	-1.8188	-2.3792	-1.7042	-2.2646	-2.1063	-1.6021	-2.6958	-2.0167	-1.8167	-2.5146	-1.5167	-2.4667	378.552	196.081	139.556	457.707	359.447	476.153	387.524	207.655	122.605	147.861	436.124	452.905	263.649	341.629	288.667	465.305	0.0011875	0.00036404	0.00022372	682.42	6.8877e-06	4.0708e-06	1060.7	261.93	2.7222e-06	3.3351e-06	509.91	250.25	115.61	54.069	7.5205e-06	137.06	0.00013259	9.3245e-05	2.6289e-05	618.17	1.0636e-06	1.0029e-06	956.68	236.17	1.0719e-06	9.6856e-07	445.66	221.03	94.005	47.585	1.0755e-06	119.42	197.432	202.576	184.339	131.570	282.709	252.260	132.082	136.913	235.235	214.427	136.554	140.521	141.282	145.382	237.168	144.644	-8191	255	
9239.880	1	1	0	0	0.11675	0.25658	0.14549	0.46468	0.18937	0.11848	0.12028	0.098855	0.10159	0.18021	0.088785	0.22154	0.10017	0.40321	0.12845	0.2505	-1.9167	-1.6104	-2.4083	-1.8417	-1.825	-2.4333	-1.7812	-2.2667	-2.3167	-1.4708	-2.6521	-2.0896	-1.7938	-2.6208	-1.6458	-2.3583	308.302	458.683	175.441	362.631	263.066	224.292	353.537	268.542	298.175	371.928	476.768	478.939	250.533	426.008	333.757	452.032	0.0013305	0.00073417	0.00016793	679.13	6.6242e-06	9.4223e-06	1067.3	266.3	3.5883e-06	1.7182e-06	510.85	250.73	115.66	53.418	9.13e-06	136.03	0.0001307	8.8468e-05	2.7248e-05	614.76	1.0405e-06	9.5421e-07	959.06	237.86	1.0448e-06	9.5869e-07	447.06	221.24	93.587	47.145	1.1175e-06	118.77	199.862	200.500	182.242	131.670	273.661	273.597	132.252	137.484	292.717	221.004	136.885	140.643	141.232	145.640	237.740	144.809	-8191	255	
9239.976	1	1	0	0	0.31422	0.11096	0.29101	0.43554	0.13265	0.14015	0.069305	0.14921	0.32314	0.10599	0.22014	0.23601	0.13778	0.25246	0.31084	0.20927	-1.8646	-1.5063	-2.3917	-2.1833	-1.4375	-2.5208	-2.0271	-2.2125	-2.4375	-1.5271	-2.5604	-2.1583	-1.7771	-2.4979	-1.8833	-2.1583	407.602	160.467	240.773	456.636	179.452	130.971	317.152	468.827	381.399	235.842	331.225	456.125	210.396	454.459	127.437	406.541	0.0012044	0.00057057	0.00016049	680.11	4.2419e-06	6.0307e-06	1061.4	261.23	5.8732e-06	7.0475e-06	507.48	247.9	114.86	52.63	4.445e-06	135.58	0.00012715	9.0008e-05	2.8192e-05	614.88	1.0241e-06	1.0082e-06	956.47	234.09	1.0055e-06	1.004e-06	443.12	218.75	93.162	46.721	1.159e-06	118.23	197.035	188.420	179.710	131.981	257.965	273.935	132.187	137.053	279.361	256.728	136.601	140.387	140.565	145.377	225.016	144.720	-8191	255	
9240.073	1	1	0	0	0.14762	0.14632	0.17279	0.13033	0.39339	0.44374	0.17088	0.37245	0.29543	0.23579	0.3474	0.20844	0.025816	0.21341	0.28409	0.17837	-2.0292	-1.5063	-2.1813	-2.1042	-1.6229	-2.4542	-2.0812	-2.2146	-2.4958	-1.6583	-2.3604	-2.3	-1.6458	-2.5354	-1.8667	-2.0771	163.744	227.079	458.721	127.862	445.717	307.146	382.234	415.041	354.592	366.957	324.032	434.345	181.408	166.055	384.952	425.513	0.001225	8.2183e-05	7.5654e-05	679.97	3.1667e-06	6.1922e-06	1062.6	265.36	5.3573e-06	4.7956e-06	512.79	252.36	115.84	54.043	7.2308e-06	137.74	0.00012629	9.5578e-05	2.9435e-05	614.11	1.0278e-06	1.0474e-06	959.2	237.18	1.01e-06	1.0645e-06	448.36	222.69	94.24	47.581	1.1376e-06	119.74	196.911	460.024	166.231	131.719	219.596	251.549	132.198	136.898	250.142	268.683	136.696	140.575	140.470	145.142	230.377	144.608	-8191	255	
9240.169	1	1	0	0	0.16941	0.24445	0.21601	0.18893	0.038521	0.35322	0.14154	0.20136	0.10465	0.12352	0.13553	0.23285	0.021729	0.36186	0.15356	0.17388	-2.075	-1.5604	-2.1437	-2.3229	-1.6042	-2.425	-2.0375	-1.8687	-2.5125	-1.4854	-2.1667	-2.6583	-1.4292	-2.6063	-2.1917	-1.9438	405.212	145.692	135.898	136.308	123.933	271.904	438.865	393.442	401.641	344.382	426.879	435.310	471.868	132.403	414.360	378.677	0.0012323	0.00055291	8.1574e-05	682.52	7.1217e-06	7.0022e-06	1065.6	264.33	4.5739e-06	4.7476e-06	510	249.49	115.9	53.801	8.1499e-06	136.89	0.00012555	9.825e-05	2.8052e-05	617.88	9.7729e-07	1.1058e-06	959.58	237.02	1.0209e-06	1.0851e-06	446.56	221.42	93.628	47.465	1.11e-06	118.97	196.341	211.496	197.932	131.812	249.868	207.729	132.075	136.921	272.244	208.032	136.557	140.669	140.457	145.229	265.419	144.516	-8191	255	
9240.263	1	1	0	0	0.019252	0.046518	0.11792	0.38143	0.085906	0.12994	0.23501	0.16304	0.26567	0.077994	0.11162	0.15378	0.074677	0.07782	0.16365	0.35002	-1.9625	-1.6063	-2.0854	-2.3521	-1.4792	-2.55	-2.1354	-1.7271	-2.375	-1.7042	-2.0104	-2.6708	-1.5729	-2.2417	-2.15	-1.6896	322.999	188.120	241.498	468.911	358.959	421.088	470.141	371.264	463.525	185.288	172.908	441.826	386.182	119.587	282.109	456.812	0.0012271	0.00052387	0.00014489	677.87	3.7975e-06	4.274e-06	1057.6	262.3	6.5277e-06	4.9614e-06	504.54	248.28	115.5	53.006	4.3411e-06	135.96	0.00012369	0.00010295	2.7182e-05	613.97	1.0341e-06	1.1491e-06	954.36	234.54	1.0311e-06	1.1452e-06	442.97	219.22	93.014	47.004	1.0424e-06	118.13	198.628	210.614	167.564	131.771	261.032	276.540	131.820	137.098	255.971	285.330	136.739	140.650	140.827	145.361	243.921	144.656	-8191	255	
9240.359	1	1	0	0	0.33325	0.095759	0.13035	0.33492	0.11984	0.10712	0.15273	0.13618	0.11955	0.20117	0.36826	0.20843	0.29217	0.18516	0.16341	0.35423	-2.2604	-1.8021	-1.825	-2.5333	-1.5875	-2.3083	-2.2521	-1.55	-2.4875	-1.8292	-1.9083	-2.5854	-1.7333	-2.3583	-2.3	-1.775	385.310	381.280	391.977	121.466	223.708	267.472	405.525	407.883	221.121	413.420	456.550	412.580	128.743	140.186	214.919	372.915	0.0012249	0.00048889	0.00029497	681.33	6.2266e-06	5.5432e-06	1062.8	263	7.2549e-06	7.1408e-06	505.97	247.39	116.01	53.109	4.8625e-06	135.85	0.00012698	0.00010471	2.61e-05	615.42	1.059e-06	1.1152e-06	955.86	234.85	1.073e-06	1.1092e-06	442.22	219.1	93.593	47.028	1.0497e-06	118.22	199.588	204.468	211.138	131.707	245.755	257.976	132.104	137.193	251.301	277.709	136.497	140.535	140.841	145.283	261.818	144.449	-8191	255	
9240.455	1	1	0	0	0.079328	0.064043	0.15897	0.17907	0.14608	0.26752	0.23559	0.19692	0.10912	0.0579	0.12691	0.23002	0.20956	0.33688	0.18745	0.34172	-1.9729	-1.8833	-1.7604	-2.5833	-1.6	-1.9813	-2.175	-1.825	-2.5896	-1.7396	-1.9417	-2.6688	-1.5562	-2.0896	-2.3792	-1.8188	368.069	430.212	295.895	387.070	296.690	457.641	383.258	145.554	347.359	389.899	409.108	405.871	289.011	444.659	451.939	124.865	0.0012385	0.00061814	0.00018797	678.01	7.0132e-06	4.0167e-06	1063.7	262.91	5.6496e-06	5.5943e-06	507.44	249.06	115.37	53.526	3.5894e-06	136.6	0.00013291	0.00010103	2.5276e-05	614.27	1.1164e-06	1.0758e-06	956.26	235.75	1.1273e-06	1.0729e-06	444.23	220.45	93.922	47.314	1.0056e-06	118.67	196.894	180.074	189.639	131.725	275.627	254.351	131.857	137.418	258.536	235.386	136.577	140.633	141.075	145.366	215.539	144.634	-8191	255	
9240.576	1	1	0	0	0.10205	0.042333	0.058428	0.18961	0.21066	0.28808	0.26729	0.34355	0.19144	0.24378	0.13118	0.21189	0.1465	0.03516	0.16359	0.48052	-2.1917	-2.1437	-1.6021	-2.4896	-1.7021	-2.0979	-2.6771	-1.4604	-2.1896	-2.2083	-2.0438	-2.7125	-1.7604	-1.925	-2.4521	-1.7146	386.167	394.228	192.617	464.747	273.142	413.490	142.127	431.733	418.393	386.892	344.937	138.494	453.173	273.778	320.691	409.529	0.0012024	0.00046054	0.00015312	680.66	4.0193e-06	4.5438e-06	1063.1	262.06	7.6313e-06	2.6549e-06	507.22	247.9	113.91	53.272	5.7454e-06	135.15	0.00013668	9.7119e-05	2.4887e-05	616.54	1.1364e-06	1.0427e-06	957.72	235.29	1.1349e-06	1.0284e-06	442.92	219.47	93.278	46.921	9.7643e-07	117.93	197.426	217.142	193.682	131.854	250.501	272.578	131.920	136.872	294.346	224.816	136.492	140.658	140.323	145.819	244.514	144.469	-8191	255	
9240.672	1	1	0	0	0.14959	0.10294	0.10887	0.15942	0.10016	0.16484	0.085363	0.11965	0.11775	0.18972	0.19575	0.13991	0.21574	0.17794	0.20566	0.40369	-1.8625	-2.1042	-1.5063	-2.6688	-1.7958	-1.95	-2.5938	-1.5271	-2.2083	-2.2604	-1.6396	-2.6813	-1.9438	-1.9688	-2.4646	-1.7229	307.445	360.194	257.789	150.897	127.192	450.527	310.062	302.483	327.636	153.599	422.165	476.532	214.714	134.795	131.519	443.056	0.0012497	0.00075056	0.0001123	682.72	8.486e-07	2.1073e-06	1065.9	261.98	4.6118e-06	8.0046e-06	503.91	247.3	113.95	52.582	5.7563e-06	133.9	0.00013345	9.2724e-05	2.3694e-05	616.07	1.1151e-06	9.8975e-07	958.01	233.82	1.104e-06	9.9381e-07	441.17	218.66	92.512	46.542	9.8914e-07	117.2	195.747	194.794	176.594	131.699	279.859	236.659	132.411	137.160	276.857	258.209	136.542	140.562	141.173	145.369	246.361	144.580	-8191	255	
9240.768	1	1	0	0	0.10404	0.037901	0.2349	0.21251	0.18133	0.08496	0.35186	0.067773	0.18737	0.13063	0.212	0.26293	0.26274	0.14525	0.29268	0.2609	-1.8104	-2.1937	-1.5354	-2.2604	-1.9521	-1.55	-2.7021	-1.5958	-1.8854	-2.275	-1.5396	-2.5083	-1.9625	-1.925	-2.5208	-1.7771	182.774	343.685	271.463	363.775	410.581	417.308	453.441	307.812	292.919	437.709	437.101	465.476	383.750	265.469	226.580	387.707	0.0012091	0.00052718	0.00013407	677.01	4.3966e-06	3.0054e-06	1060.8	262.58	1.9119e-06	4.1498e-06	505.41	246.72	114.12	53.34	4.9818e-06	135.05	0.0001306	9.1493e-05	2.4167e-05	614.08	1.0902e-06	9.8658e-07	955.45	234.81	1.0655e-06	9.7757e-07	441.05	218.5	93.011	46.875	1.0068e-06	117.61	197.658	212.684	193.191	131.767	259.966	193.775	132.443	136.781	251.552	285.777	136.687	140.615	140.315	145.550	236.585	144.557	-8191	255	
9240.864	1	1	0	0	0.23086	0.1619	0.16284	0.11924	0.21039	0.1124	0.36021	0.20404	0.10856	0.11801	0.156	0.14888	0.20445	0.1252	0.080454	0.31253	-1.5458	-2.2708	-1.5792	-2.3438	-2.0146	-1.5771	-2.5104	-1.7083	-1.75	-2.3375	-1.6667	-2.5208	-2.1708	-1.6938	-2.5146	-2.1	317.853	409.554	141.634	364.090	242.104	233.867	415.347	463.918	132.471	461.631	198.635	448.503	136.864	360.959	237.015	464.216	0.0011612	0.00065401	0.00015253	681.43	6.0006e-06	5.806e-06	1054.5	262.47	5.5767e-06	5.1045e-06	503.46	249.28	115.71	53.234	8.4151e-06	135.84	0.00012805	9.0418e-05	2.5546e-05	616.21	1.0385e-06	9.6842e-07	954.59	235.38	1.0504e-06	9.8316e-07	442.57	220.13	93.494	46.916	1.0705e-06	118.18	197.061	193.677	151.158	131.825	267.420	236.802	132.431	136.998	265.587	276.599	136.909	140.729	140.560	145.275	227.384	144.460	-8191	255	
9240.961	1	1	0	0	0.16788	0.30749	0.19621	0.15375	0.05593	0.071298	0.10093	0.17877	0.13159	0.091791	0.28536	0.17231	0.15766	0.10793	0.16959	0.11602	-1.4604	-2.4938	-1.4583	-2.1042	-2.175	-1.6167	-2.5083	-1.8312	-1.5812	-2.3833	-1.8375	-2.1771	-2.2438	-1.6271	-2.5896	-2.3104	231.160	411.297	201.339	458.106	172.470	292.782	430.368	123.180	333.734	348.296	394.986	414.451	466.841	464.117	295.853	438.965	0.001253	0.00033081	0.00026294	684.27	3.8983e-06	8.7678e-06	1064.3	262.16	4.1564e-06	4.6163e-06	507.59	249.18	115.37	52.986	5.3773e-06	135.22	0.0001245	8.8391e-05	2.6773e-05	618.09	1.0139e-06	9.4327e-07	957.6	235.64	9.9162e-07	9.4303e-07	444.3	220.62	93.309	46.903	1.1048e-06	117.97	196.099	230.835	182.110	131.632	306.385	268.716	132.131	136.905	273.533	276.954	136.310	140.704	140.843	145.312	217.800	144.182	-8191	255	
9241.057	1	1	0	0	0.18485	0.13819	0.22917	0.045509	0.085523	0.019532	0.2788	0.31718	0.33591	0.09721	0.091153	0.21342	0.23728	0.42049	0.07255	0.22825	-1.2479	-2.6167	-1.5792	-2.2667	-2.5625	-1.5875	-2.5479	-2.0708	-1.4542	-2.6167	-2.0146	-2.2188	-2.3937	-1.6042	-2.2333	-2.2229	236.602	135.930	215.631	464.099	328.722	381.573	161.898	355.755	374.110	150.361	126.389	410.898	435.718	459.015	377.129	450.215	0.0012129	0.00026579	0.00019711	678.7	3.4993e-06	7.4635e-06	1063.4	262.1	3.6304e-06	3.6723e-06	503.27	245.55	114.96	52.751	4.5456e-06	135.35	0.00012211	8.7217e-05	2.7428e-05	615.03	9.8322e-07	9.4581e-07	956.9	233.79	9.5685e-07	9.6564e-07	440.67	218.09	92.618	46.587	1.125e-06	117.82	198.897	156.194	166.458	131.907	240.368	237.061	132.302	137.211	288.220	242.539	136.499	140.712	140.400	145.258	247.758	144.505	-8191	255	
9241.177	1	1	0	0	0.10383	0.23903	0.25471	0.12947	0.092734	0.10558	0.25359	0.36172	0.23	0.15118	0.14981	0.36808	0.015227	0.28868	0.093479	0.24525	-1.3854	-2.375	-1.8667	-2.0333	-2.5417	-1.7208	-2.4604	-2.3667	-1.4396	-2.3271	-1.9333	-1.9271	-2.4229	-1.7042	-2.2125	-2.3979	402.941	396.307	148.570	137.786	391.790	193.099	419.789	368.296	303.879	281.592	410.469	454.110	334.423	434.367	459.513	383.356	0.0012451	0.00081032	0.00022144	679.19	3.8894e-06	5.2586e-06	1065.4	264.75	4.3061e-06	4.273e-06	509.7	249.67	116.03	53.293	3.7954e-06	136.25	0.00012059	9.3616e-05	2.8522e-05	613.87	9.5826e-07	1.0046e-06	958.81	236.19	9.6342e-07	1.0428e-06	444.74	220.69	93.283	47.105	1.1357e-06	118.56	197.006	201.142	173.606	131.664	243.790	243.390	132.004	136.709	326.420	231.484	136.516	140.623	140.502	145.522	255.598	144.761	-8191	255	
9241.272	1	1	0	0	0.067685	0.13735	0.11724	0.26587	0.19042	0.12788	0.19307	0.39325	0.1964	0.17836	0.206	0.30244	0.10083	0.33226	0.29857	0.17732	-1.2125	-2.3563	-1.7083	-1.85	-2.3208	-1.6667	-2.275	-2.4979	-1.6667	-2.4396	-2.1917	-1.825	-2.5604	-1.8583	-2.1042	-2.4792	396.132	367.621	378.955	131.767	162.911	129.962	390.231	459.157	379.369	353.592	398.176	432.088	191.182	456.028	265.197	467.068	0.0012093	0.00014905	0.00012988	679.14	4.4745e-06	6.6479e-06	1060.4	265.03	4.3656e-06	5.0943e-06	509.13	248.85	114.88	53.135	6.3257e-06	136.32	0.00012497	0.00010276	2.8685e-05	615.72	1.0045e-06	1.0921e-06	957.14	236.32	9.9422e-07	1.1304e-06	444.45	220.25	93.407	47.207	1.0818e-06	118.62	196.169	192.964	169.354	132.027	248.998	259.911	132.213	137.174	229.481	266.690	136.400	140.723	140.859	145.053	246.656	144.425	-8191	255	
9241.368	1	1	0	0	0.18266	0.25561	0.1944	0.23847	0.0092793	0.030755	0.14029	0.25364	0.15427	0.17311	0.36543	0.43416	0.17947	0.019259	0.22335	0.31714	-1.0708	-2.3375	-1.9708	-1.7771	-2.4521	-1.7104	-2.0458	-2.525	-1.4917	-2.1729	-2.2146	-1.8438	-2.5958	-1.9438	-1.8667	-2.6625	169.076	233.594	440.180	160.136	183.758	183.512	405.980	444.239	129.806	224.708	458.428	355.905	371.374	165.995	145.002	412.089	0.0012564	0.0003285	0.00012387	682.68	4.81e-06	7.7782e-06	1062.8	262.07	7.5381e-06	3.6021e-06	506.53	248.5	116.08	53.076	6.6919e-06	135.91	0.0001252	0.00010328	2.6525e-05	616.21	1.0196e-06	1.124e-06	956.68	234.74	1.0296e-06	1.1021e-06	443.68	219.84	93.388	46.89	1.0523e-06	117.98	198.385	175.677	197.347	131.527	262.289	261.789	132.309	136.747	248.258	244.797	136.264	140.495	141.208	144.598	266.742	144.352	-8191	255	
9241.464	1	1	0	0	0.25303	0.17884	0.089596	0.19121	0.16119	0.31044	0.25609	0.2957	0.023562	0.0251	0.28876	0.21455	0.068832	0.33889	0.22479	0.49879	-1.1896	-2.2313	-2.2042	-1.75	-2.4375	-1.8312	-1.8854	-2.6292	-1.5896	-2.2792	-2.2917	-1.6375	-2.3604	-1.9396	-1.825	-2.6458	339.305	375.881	413.769	441.330	255.779	387.587	169.904	431.342	146.378	302.460	451.465	425.600	307.671	149.083	358.809	412.215	0.0012003	0.0002804	0.00018285	676.84	8.0994e-06	5.6853e-06	1059.2	263.2	2.5429e-06	6.1083e-06	510.17	249.98	115.49	53.624	3.3657e-06	136.66	0.00012859	0.0001019	2.5923e-05	613.57	1.058e-06	1.1152e-06	952.72	235.55	1.0628e-06	1.1064e-06	444.64	221.24	93.646	47.325	1.0231e-06	118.87	195.800	174.877	216.020	131.963	228.223	288.857	132.479	137.033	263.621	302.609	136.620	140.590	140.966	144.795	240.417	144.537	-8191	255	
