BOXY.EXE: ISS Imagent and Oximeter Data Acquisition Program Version 0.80
Ascii Record File

#ACQ INFORMATION
2  Detector Channels 
16  External MUX Channels 
1  Auxiliary Channels 
5000  Waveform (CCF) Frequency (Hz)
1  Waveforms Skipped 
30  Waveforms Averaged 
1  Cycles Averaged 
16  Acquisitions per Waveform 
10.0806  Updata Rate (Hz) 

#FILE INFORMATION
TRUE -- External MUX Channel results are PARSED.
FALSE -- AC DC and Phase are NOT grouped.
TRUE -- Companion Program Settings File CREATED.
FALSE -- AC data not excluded
FALSE -- DC data not excluded
FALSE -- Phase data not excluded
FALSE -- Auxillary Chn. data not excluded
Tab delimiters

#CALIBRATION STATE
TRUE -- Waveform Calibration Values APPLIED.


#AUX CALIBRATION VALUES
Val Type	aux-1	

Term	1.0000e+00	
Factor	0.0000e+00	


#WF CALIBRATION VALUES
A = Detector Channel
Val Type	A-AC1	A-AC2	A-AC3	A-AC4	A-AC5	A-AC6	A-AC7	A-AC8	A-AC9	A-AC10	A-AC11	A-AC12	A-AC13	A-AC14	A-AC15	A-AC16	A-DC1	A-DC2	A-DC3	A-DC4	A-DC5	A-DC6	A-DC7	A-DC8	A-DC9	A-DC10	A-DC11	A-DC12	A-DC13	A-DC14	A-DC15	A-DC16	A-Ph1	A-Ph2	A-Ph3	A-Ph4	A-Ph5	A-Ph6	A-Ph7	A-Ph8	A-Ph9	A-Ph10	A-Ph11	A-Ph12	A-Ph13	A-Ph14	A-Ph15	A-Ph16	

Term	0.00000e+00	0.00000e+00	0.00000e+00	0.00000e+00	0.00000e+00	0.00000e+00	0.00000e+00	0.00000e+00	0.00000e+00	0.00000e+00	0.00000e+00	0.00000e+00	0.00000e+00	0.00000e+00	0.00000e+00	0.00000e+00	0.00000e+00	0.00000e+00	0.00000e+00	0.00000e+00	0.00000e+00	0.00000e+00	0.00000e+00	0.00000e+00	0.00000e+00	0.00000e+00	0.00000e+00	0.00000e+00	0.00000e+00	0.00000e+00	0.00000e+00	0.00000e+00	0.00000e+00	0.00000e+00	0.00000e+00	0.00000e+00	0.00000e+00	0.00000e+00	0.00000e+00	0.00000e+00	0.00000e+00	0.00000e+00	0.00000e+00	0.00000e+00	0.00000e+00	0.00000e+00	0.00000e+00	0.00000e+00	
Factor	1.00000e+00	1.00000e+00	1.00000e+00	1.00000e+00	1.00000e+00	1.00000e+00	1.00000e+00	1.00000e+00	1.00000e+00	1.00000e+00	1.00000e+00	1.00000e+00	1.00000e+00	1.00000e+00	1.00000e+00	1.00000e+00	1.00000e+00	1.00000e+00	1.00000e+00	1.00000e+00	1.00000e+00	1.00000e+00	1.00000e+00	1.00000e+00	1.00000e+00	1.00000e+00	1.00000e+00	1.00000e+00	1.00000e+00	1.00000e+00	1.00000e+00	1.00000e+00	X	X	X	X	X	X	X	X	X	X	X	X	X	X	X	X	

B = Detector Channel
Val Type	B-AC1	B-AC2	B-AC3	B-AC4	B-AC5	B-AC6	B-AC7	B-AC8	B-AC9	B-AC10	B-AC11	B-AC12	B-AC13	B-AC14	B-AC15	B-AC16	B-DC1	B-DC2	B-DC3	B-DC4	B-DC5	B-DC6	B-DC7	B-DC8	B-DC9	B-DC10	B-DC11	B-DC12	B-DC13	B-DC14	B-DC15	B-DC16	B-Ph1	B-Ph2	B-Ph3	B-Ph4	B-Ph5	B-Ph6	B-Ph7	B-Ph8	B-Ph9	B-Ph10	B-Ph11	B-Ph12	B-Ph13	B-Ph14	B-Ph15	B-Ph16	

Term	0.00000e+00	0.00000e+00	0.00000e+00	0.00000e+00	0.00000e+00	0.00000e+00	0.00000e+00	0.00000e+00	0.00000e+00	0.00000e+00	0.00000e+00	0.00000e+00	0.00000e+00	0.00000e+00	0.00000e+00	0.00000e+00	0.00000e+00	0.00000e+00	0.00000e+00	0.00000e+00	0.00000e+00	0.00000e+00	0.00000e+00	0.00000e+00	0.00000e+00	0.00000e+00	0.00000e+00	0.00000e+00	0.00000e+00	0.00000e+00	0.00000e+00	0.00000e+00	-5.22979e+01	-1.31401e+02	-1.27387e+02	-1.86505e+02	-6.13448e+01	-7.12651e+01	-1.58503e+02	-1.62015e+02	-4.03188e+01	-6.21744e+01	-1.72214e+02	-1.70804e+02	-1.83130e+02	-1.77621e+02	-5.60251e+01	-1.49814e+02	
Factor	1.93190e-05	1.35518e-04	4.06246e-05	2.79546e-01	1.64517e-06	1.55312e-06	1.54144e-01	4.69497e-02	1.34744e-06	1.52949e-06	7.67261e-02	2.51976e-02	3.70919e-02	8.11970e-03	1.35890e-06	1.15767e-02	1.16172e-05	1.90905e-05	5.37808e-06	1.49305e-01	2.03382e-07	2.15170e-07	7.76414e-02	2.53288e-02	1.91294e-07	2.14695e-07	4.00858e-02	1.32187e-02	2.02554e-02	4.43163e-03	1.97942e-07	6.10325e-03	X	X	X	X	X	X	X	X	X	X	X	X	X	X	X	X	



#DISTANCE SETTINGS
A = Detector Channel
A-1	A-2	A-3	A-4	A-5	A-6	A-7	A-8	A-9	A-10	A-11	A-12	A-13	A-14	A-15	A-16	

2.5000e+00	3.0000e+00	2.5000e+00	3.0000e+00	2.0000e+00	3.0000e+00	1.5000e+00	3.0000e+00	3.0000e+00	3.0000e+00	3.0000e+00	3.0000e+00	3.0000e+00	3.0000e+00	1.5000e+00	3.0000e+00	

B = Detector Channel
B-1	B-2	B-3	B-4	B-5	B-6	B-7	B-8	B-9	B-10	B-11	B-12	B-13	B-14	B-15	B-16	

1.0000e+01	1.0000e+01	1.0000e+01	1.4400e+00	1.0000e+01	1.0000e+01	1.5100e+00	1.9400e+00	1.0000e+01	1.0000e+01	1.9900e+00	2.4900e+00	2.4100e+00	2.9000e+00	1.0000e+01	2.9800e+00	




#DATA BEGINS
time	group	step	mark	flag	A-AC1	A-AC2	A-AC3	A-AC4	A-AC5	A-AC6	A-AC7	A-AC8	A-AC9	A-AC10	A-AC11	A-AC12	A-AC13	A-AC14	A-AC15	A-AC16	A-DC1	A-DC2	A-DC3	A-DC4	A-DC5	A-DC6	A-DC7	A-DC8	A-DC9	A-DC10	A-DC11	A-DC12	A-DC13	A-DC14	A-DC15	A-DC16	A-Ph1	A-Ph2	A-Ph3	A-Ph4	A-Ph5	A-Ph6	A-Ph7	A-Ph8	A-Ph9	A-Ph10	A-Ph11	A-Ph12	A-Ph13	A-Ph14	A-Ph15	A-Ph16	B-AC1	B-AC2	B-AC3	B-AC4	B-AC5	B-AC6	B-AC7	B-AC8	B-AC9	B-AC10	B-AC11	B-AC12	B-AC13	B-AC14	B-AC15	B-AC16	B-DC1	B-DC2	B-DC3	B-DC4	B-DC5	B-DC6	B-DC7	B-DC8	B-DC9	B-DC10	B-DC11	B-DC12	B-DC13	B-DC14	B-DC15	B-DC16	B-Ph1	B-Ph2	B-Ph3	B-Ph4	B-Ph5	B-Ph6	B-Ph7	B-Ph8	B-Ph9	B-Ph10	B-Ph11	B-Ph12	B-Ph13	B-Ph14	B-Ph15	B-Ph16	aux-1	digaux	

14139.778	1	1	0	768	0.15364	0.25794	0.11979	0.1682	0.3836	0.14809	0.31295	0.1243	0.26746	0.20355	0.1145	0.069521	0.24492	0.13537	0.2894	0.31345	-2.1229	-2.1937	-2.0563	-2.9292	-2.0479	-2.4021	-2.6896	-2.0458	-2.6937	-2.1521	-2.1604	-2.7875	-1.9	-2.4375	-2.5687	-2.1542	378.182	67.935	128.578	97.972	277.824	199.017	284.862	342.779	317.381	75.229	248.210	193.852	347.535	68.023	29.967	39.201	0.00036338	0.00046317	0.000159	1323.4	8.0643e-06	4.4259e-06	1332.8	355.88	5.7433e-06	4.7828e-06	406.5	136.32	117.67	40.472	5.7297e-06	50.194	0.00040946	0.00039541	0.00011162	1341.1	4.5541e-06	4.2043e-06	1345	362.69	4.4169e-06	4.3288e-06	415.13	138.8	120.23	41.475	4.3679e-06	51.466	223.126	132.254	106.547	31.270	176.579	159.270	31.600	36.258	204.390	178.397	35.793	40.862	41.325	45.227	186.202	44.314	-8191	255	
14139.874	1	1	0	0	0.19684	0.15103	0.2427	0.30185	0.18754	0.027561	0.049837	0.1949	0.26063	0.056085	0.53444	0.26465	0.31164	0.13526	0.20235	0.14951	-2.2313	-2.3312	-1.975	-2.8479	-1.975	-2.2771	-2.9	-2.0312	-2.5854	-2.3646	-2.1646	-2.7396	-2.0646	-2.3792	-2.5229	-2.1479	127.110	372.593	118.318	296.797	286.116	89.810	65.381	322.849	68.090	89.956	310.049	23.714	270.490	81.679	295.406	309.186	0.00035917	0.00043268	9.1435e-05	1331	7.6942e-06	5.7307e-06	1332.8	357.19	6.3553e-06	4.6643e-06	408.44	135.8	117.5	40.304	5.1446e-06	50.414	0.00041923	0.00038261	0.00011253	1348.7	4.5969e-06	4.294e-06	1348.4	363.69	4.3898e-06	4.1651e-06	415.99	138.98	120.41	41.432	4.2863e-06	51.51	223.782	106.656	115.781	31.503	171.579	169.801	31.623	36.447	205.389	166.141	35.831	40.731	41.424	45.317	183.980	44.538	-8191	255	
14139.971	1	1	0	0	0.22209	0.3191	0.021839	0.10483	0.1329	0.067148	0.035738	0.35628	0.24353	0.43723	0.10849	0.20262	0.19718	0.30726	0.23084	0.24907	-2.0187	-2.4229	-1.8438	-2.9083	-2.15	-2.2542	-2.9104	-2.2583	-2.5375	-2.6292	-1.9937	-2.5854	-2.2812	-2.3208	-2.7896	-2.0708	175.587	148.948	366.482	330.401	79.943	282.248	26.394	315.983	189.125	197.801	330.323	335.003	346.544	19.844	271.137	278.123	0.0003509	0.00044789	0.00016554	1330	4.5583e-06	4.2594e-06	1332.2	357.49	5.6533e-06	5.4449e-06	411.08	135.83	118.19	40.009	4.6944e-06	50.199	0.00040967	0.0003982	0.0001173	1350.3	4.449e-06	4.2859e-06	1347.6	363.82	4.4894e-06	4.2787e-06	417.08	138.8	120.51	41.324	4.3118e-06	51.334	224.752	117.946	107.398	31.740	179.380	180.466	31.628	36.378	208.842	171.835	36.073	40.540	41.385	45.153	179.763	44.107	-8191	255	
14140.067	1	1	0	0	0.10815	0.19572	0.37952	0.017818	0.06866	0.038165	0.17243	0.17736	0.15316	0.23953	0.257	0.5364	0.19746	0.48813	0.097315	0.13084	-2.0563	-2.4729	-1.9854	-2.6354	-2.2562	-2.2062	-3.0875	-2.1063	-2.3208	-2.525	-2.0146	-2.7771	-2.3792	-2.0042	-2.7729	-2.0854	267.923	324.680	290.039	107.790	27.095	267.617	287.160	305.620	166.295	346.191	360.231	336.092	300.168	355.984	139.249	81.615	0.00033873	0.00054187	0.00012487	1327.2	4.8652e-06	6.1523e-06	1327.6	356.38	5.9284e-06	6.2709e-06	409.88	135.54	117.43	40.372	6.9347e-06	49.88	0.00041543	0.00037799	0.00010758	1347.8	4.2392e-06	4.4719e-06	1342.9	362.31	4.491e-06	4.1168e-06	415.28	138.59	119.92	41.384	4.4203e-06	51.11	225.602	114.384	110.275	31.718	168.819	151.831	31.767	36.513	213.315	169.304	35.889	40.862	41.749	45.061	204.763	44.426	-8191	255	
14140.163	1	1	0	0	0.038779	0.115	0.043168	0.33129	0.098159	0.25416	0.088302	0.25486	0.18185	0.19439	0.043889	0.11384	0.21377	0.12469	0.11781	0.14368	-1.875	-2.6021	-1.9375	-2.5417	-2.1875	-1.9521	-2.8417	-2.0521	-2.0458	-2.5333	-2.0625	-2.4792	-2.5896	-1.9021	-2.7667	-2.1792	187.137	348.254	184.215	371.483	52.230	366.334	341.116	291.212	302.327	42.024	273.835	36.720	20.622	255.454	202.625	370.079	0.00034458	0.00050966	0.00014494	1327.2	6.5753e-06	4.8792e-06	1330.4	354.61	5.242e-06	6.029e-06	408.22	135.64	117.08	40.2	5.1828e-06	49.883	0.00040578	0.00038237	0.00010661	1342	4.4164e-06	4.2752e-06	1344.5	361.61	4.3595e-06	3.9544e-06	415.05	138.47	120	41.238	4.1997e-06	51.163	221.382	121.509	101.859	31.747	194.520	163.941	31.548	36.439	206.907	164.717	35.682	40.771	41.624	45.189	187.911	44.270	-8191	255	
14140.259	1	1	0	0	0.34579	0.24993	0.081946	0.22022	0.21053	0.19502	0.37679	0.13407	0.20124	0.19535	0.31085	0.39283	0.25684	0.28125	0.19513	0.18997	-1.7563	-2.3542	-1.8438	-2.5979	-2.4	-1.7812	-2.9229	-2.3604	-2.0187	-2.7396	-2.2687	-2.6333	-2.6562	-2.0271	-2.7021	-2.4229	173.849	307.146	261.660	378.468	271.559	235.618	329.075	290.049	236.300	268.617	71.060	355.150	102.406	243.254	312.578	31.751	0.00035423	0.00041847	0.00015787	1324.9	6.8052e-06	5.2463e-06	1331.7	353.87	5.2586e-06	4.3511e-06	407.95	135.56	117.33	40.125	2.0407e-06	49.801	0.00041013	0.00036773	0.00010991	1341	4.3846e-06	4.3236e-06	1341.6	361.25	4.279e-06	4.0461e-06	414.3	138.38	119.87	41.17	4.0079e-06	51.077	226.720	97.002	111.519	31.961	171.273	149.840	31.858	36.575	208.096	183.042	35.927	41.058	41.637	45.211	172.343	44.597	-8191	255	
14140.380	1	1	0	0	0.07527	0.039622	0.20577	0.12324	0.25617	0.17336	0.46462	0.23154	0.20721	0.078961	0.39286	0.05986	0.31596	0.40357	0.10377	0.19813	-1.6083	-2.7	-1.8667	-2.5792	-2.5833	-1.9438	-2.8833	-2.4375	-1.8896	-2.7896	-2.1417	-2.4646	-2.7521	-2.075	-2.5271	-2.5208	156.111	228.527	93.700	263.274	248.099	181.756	294.956	319.954	114.682	149.931	341.293	209.306	363.160	300.997	302.108	309.554	0.00036425	0.00035959	0.00014653	1326.1	5.5595e-06	4.6127e-06	1329.7	353.6	4.3812e-06	6.5924e-06	407.69	134.71	118.2	40.184	4.9892e-06	49.947	0.00040275	0.00037362	0.00010612	1340.5	4.0626e-06	4.2321e-06	1341.1	360.42	4.2997e-06	4.0367e-06	413.67	138.17	120.08	41.181	4.1465e-06	51.051	223.172	123.485	125.804	32.009	180.043	176.593	31.687	36.551	206.414	166.999	35.842	41.225	41.692	45.456	193.266	44.509	-8191	255	
14140.474	1	1	0	0	0.1786	0.27499	0.2592	0.50181	0.29033	0.12517	0.16145	0.21411	0.17126	0.17692	0.21789	0.25663	0.24806	0.044563	0.038937	0.27865	-1.4708	-2.6125	-2.175	-2.1875	-2.6708	-1.85	-2.8333	-2.8479	-1.9042	-2.8	-2.3333	-1.9813	-2.8042	-1.9562	-2.5104	-2.475	226.044	98.414	34.159	285.561	370.052	147.357	337.013	289.115	234.766	305.432	359.943	359.896	26.845	293.850	110.963	366.327	0.00036338	0.00038465	0.00015958	1327.7	6.4787e-06	4.9778e-06	1321.1	354.8	4.0861e-06	5.8281e-06	408.68	135.18	116.92	40.208	4.2993e-06	49.798	0.00039213	0.00037425	0.00010756	1341.2	4.3706e-06	4.2572e-06	1339.7	361.33	4.3352e-06	4.0157e-06	414.79	138.22	119.76	41.222	4.0661e-06	50.918	219.669	101.099	107.815	31.857	179.419	142.004	31.958	36.698	208.814	179.370	35.766	40.991	41.179	45.246	193.936	44.657	-8191	255	
14140.570	1	1	0	0	0.20082	0.19866	0.25781	0.10138	0.0601	0.11278	0.075062	0.22864	0.12821	0.083616	0.21861	0.12479	0.17108	0.1328	0.22577	0.22819	-1.4208	-2.7542	-2.2625	-2.1521	-2.7646	-2.1229	-2.6521	-2.7396	-1.8458	-2.6896	-2.4813	-2.1604	-2.9375	-1.9833	-2.3	-2.7	345.809	274.973	162.966	322.507	207.831	112.478	72.957	292.824	350.653	253.058	279.604	77.698	41.822	61.647	132.442	291.218	0.0003293	0.0005098	0.00014471	1316.3	5.9361e-06	5.5772e-06	1322.6	355.47	3.8463e-06	6.411e-06	405.56	134.54	116.72	40.007	3.9096e-06	49.645	0.00040675	0.00038559	0.00010725	1335.1	4.2278e-06	4.3527e-06	1337.6	360.79	4.4021e-06	4.2581e-06	412.26	137.79	119.6	41.038	4.33e-06	50.875	224.195	107.306	105.221	31.679	166.870	156.871	31.999	36.424	201.636	165.063	35.901	40.914	41.453	45.164	187.799	44.353	-8191	255	
14140.666	1	1	0	0	0.3392	0.13506	0.012141	0.21237	0.23349	0.089922	0.2108	0.071963	0.071414	0.26995	0.17668	0.22693	0.07185	0.28774	0.10268	0.22272	-1.5646	-2.6917	-2.0958	-2.1021	-2.7667	-2.0875	-2.5375	-2.6437	-2.1312	-2.4896	-2.6375	-2.1583	-2.6542	-2.4167	-2.2583	-2.8854	224.800	94.576	373.652	325.982	143.815	342.795	270.038	327.573	376.962	234.133	344.795	320.880	339.728	362.242	348.559	377.143	0.00037217	0.00054784	0.00016667	1324.9	5.1555e-06	4.3249e-06	1327.1	354.22	4.19e-06	5.0078e-06	406.89	134.95	116.39	39.958	6.0141e-06	49.833	0.00043768	0.00038376	0.00010658	1336	4.3952e-06	4.3258e-06	1338.8	360.79	4.5926e-06	4.174e-06	412.77	137.87	119.39	41.058	4.1935e-06	51.038	223.546	105.639	115.040	31.773	174.128	169.950	32.008	36.683	209.702	183.175	35.969	41.164	41.817	45.572	185.127	44.673	-8191	255	
14140.763	1	1	0	0	0.082464	0.28119	0.24625	0.15927	0.16902	0.086631	0.54124	0.30887	0.25132	0.11002	0.047657	0.2876	0.11937	0.24124	0.18754	0.22957	-1.5729	-2.5687	-2.5708	-2.0438	-2.8563	-2.3771	-2.2958	-3.0062	-1.8833	-2.4042	-2.5854	-2.0271	-2.9396	-2.3729	-1.9688	-2.95	87.157	265.755	90.085	335.809	117.240	46.524	328.145	286.494	146.912	25.665	131.506	365.625	200.875	334.339	306.720	140.776	0.00036331	0.00045467	0.00016554	1321.4	8.6208e-06	4.1802e-06	1318.5	354.52	4.8582e-06	6.4179e-06	408	135.44	116.6	40.206	2.804e-06	49.664	0.0004263	0.00038567	0.00011182	1337.4	4.2816e-06	4.2151e-06	1336.9	361.05	4.4508e-06	4.2188e-06	413.57	138.21	119.37	41.159	4.3683e-06	50.911	223.848	121.125	112.290	31.922	190.734	181.262	31.851	36.785	209.058	168.777	35.993	40.962	41.885	45.653	185.839	44.592	-8191	255	
14140.859	1	1	0	0	0.42515	0.23605	0.032367	0.36001	0.074282	0.18597	0.5289	0.26844	0.24226	0.18187	0.16785	0.23373	0.24364	0.31655	0.033618	0.20967	-1.5708	-2.2958	-2.575	-1.7979	-2.5375	-2.4	-2.1417	-2.8417	-2.2646	-2.4521	-2.8625	-2.0979	-2.775	-2.3083	-1.9729	-2.9188	335.607	321.714	148.923	322.139	23.228	134.491	316.654	302.105	342.605	321.360	198.117	343.228	319.445	352.032	341.610	326.016	0.00035333	0.00046701	0.00015447	1319.8	5.2578e-06	5.0831e-06	1323.5	353.8	5.9976e-06	4.3226e-06	405.57	135.21	117.22	39.735	4.4187e-06	49.821	0.00041877	0.00039672	0.00010593	1335.5	4.3189e-06	4.1703e-06	1335.8	360.09	4.4177e-06	4.0622e-06	412.11	137.86	119.58	41.025	4.3234e-06	50.774	224.392	110.209	106.974	31.835	164.294	168.542	31.932	36.942	217.989	143.248	35.971	41.292	41.528	45.041	176.146	44.407	-8191	255	
14140.979	1	1	0	0	0.20918	0.22353	0.17786	0.16044	0.21724	0.034604	0.26857	0.20494	0.23287	0.13377	0.052399	0.096817	0.39147	0.047544	0.15154	0.13949	-1.6542	-2.1104	-2.5354	-1.9854	-2.7354	-2.3708	-2.0563	-2.7396	-1.925	-2.1667	-2.7854	-2.0083	-2.5938	-2.5604	-1.8021	-2.7875	222.769	37.072	167.807	284.719	195.540	370.722	258.227	294.327	160.814	297.252	327.262	96.310	317.674	209.600	233.236	305.322	0.00034805	0.00058493	0.00013922	1317	7.0553e-06	6.1122e-06	1315.7	353.86	4.8812e-06	4.94e-06	406.57	133.93	116.5	39.856	4.666e-06	49.975	0.00040754	0.00038364	0.00010656	1334.5	4.2854e-06	4.2648e-06	1330.4	359.88	4.4512e-06	4.0989e-06	413.06	137.62	119.1	41.031	4.2459e-06	50.961	217.311	114.165	133.260	31.369	183.403	155.968	31.498	36.462	217.509	180.367	35.765	40.541	41.514	44.968	203.111	44.544	-8191	255	
14141.076	1	1	0	0	0.22169	0.094537	0.15461	0.040387	0.17405	0.13627	0.30755	0.38043	0.29301	0.12452	0.084706	0.3729	0.22132	0.31865	0.072137	0.38421	-1.6708	-2.0417	-2.8312	-2.2229	-2.3479	-2.4792	-2.1458	-2.7146	-2.3125	-1.9146	-2.8271	-2.0979	-2.3292	-2.6458	-1.8917	-2.6229	310.278	159.468	220.362	123.589	341.530	211.809	351.211	306.910	178.163	105.677	292.937	357.307	366.806	102.166	239.961	300.368	0.00035583	0.00053104	0.00016145	1313.2	7.1901e-06	4.1755e-06	1317.9	354.44	5.4626e-06	3.0373e-06	406.5	134.33	117.65	40.038	6.0497e-06	49.993	0.00041512	0.00039088	0.0001084	1331.7	4.4227e-06	4.2285e-06	1332.6	360.1	4.4352e-06	4.3919e-06	412.89	137.76	119.72	41.111	4.6009e-06	51.063	223.627	102.966	108.728	31.819	182.215	170.917	31.791	36.486	213.619	176.686	35.536	40.697	41.439	45.274	188.104	44.552	-8191	255	
14141.172	1	1	0	0	0.10777	0.30351	0.060923	0.26184	0.083573	0.13965	0.31212	0.070006	0.1579	0.25732	0.077396	0.19046	0.29533	0.32927	0.081139	0.27103	-1.9042	-2.1021	-2.6708	-2.2333	-2.2938	-2.6437	-2.1437	-2.6625	-2.2583	-1.9917	-2.8688	-2.2917	-2.3438	-2.6146	-1.7792	-2.7521	311.644	316.150	185.474	335.024	112.813	73.142	343.627	308.486	371.705	42.767	371.126	372.627	297.379	18.940	128.061	344.296	0.00032535	0.00036469	0.00014067	1318.6	4.6108e-06	8.8427e-07	1321.9	354.04	6.5562e-06	5.7012e-06	409.25	134.94	116.98	40.282	4.4835e-06	49.896	0.00041645	0.00041788	0.00011477	1335.1	4.5024e-06	4.4078e-06	1336.5	361.64	4.8266e-06	4.7381e-06	414.58	138.25	119.96	41.296	4.6743e-06	51.075	226.214	100.700	98.227	31.437	180.782	203.955	31.802	36.695	218.670	170.524	35.855	40.761	41.560	45.419	179.683	44.458	-8191	255	
14141.268	1	1	0	0	0.10192	0.037535	0.14784	0.27552	0.16916	0.066104	0.27391	0.23334	0.23158	0.36121	0.23471	0.27523	0.095488	0.092499	0.09534	0.10982	-1.7812	-1.8104	-2.6	-2.3104	-2.2687	-2.7562	-2.2375	-2.6771	-2.5292	-1.9708	-2.7583	-2.2896	-2.1688	-2.8542	-2.0479	-2.4562	127.494	352.265	283.170	310.953	291.813	51.925	334.554	316.415	255.961	171.518	91.864	340.754	352.088	191.691	92.080	200.360	0.00036551	0.00042023	0.00010856	1333.7	4.7967e-06	4.4263e-06	1331.5	356.02	5.233e-06	5.4652e-06	409.08	135.6	117.32	40.278	5.2663e-06	50.262	0.00043	0.00042218	0.00011362	1345.7	4.6316e-06	4.5361e-06	1344.7	362.91	4.3037e-06	4.8315e-06	415.71	138.78	120.32	41.339	4.6137e-06	51.357	218.859	92.482	118.197	31.723	195.002	168.209	31.729	36.531	208.884	163.267	36.158	40.843	41.633	45.166	197.030	44.476	-8191	255	
14141.362	1	1	0	0	0.07662	0.09069	0.19398	0.089035	0.15348	0.045369	0.090903	0.21194	0.37465	0.074671	0.088138	0.12485	0.28168	0.27952	0.14142	0.12691	-2.1146	-1.7292	-2.5458	-2.3229	-2.1083	-2.6063	-2.2833	-2.4833	-2.6042	-1.8604	-2.5167	-2.1958	-2.0958	-2.8083	-2.0062	-2.3563	370.296	191.952	95.455	131.923	364.404	266.103	322.983	273.692	316.543	240.783	273.137	369.971	348.809	337.699	350.623	353.317	0.00035814	0.00060113	0.00010227	1323.6	7.0083e-06	5.5326e-06	1330.2	356.03	4.6833e-06	5.6573e-06	411.57	135.75	117.09	40.27	6.2349e-06	49.893	0.00043066	0.00042345	0.00010653	1342.2	4.7218e-06	4.6087e-06	1343.6	362.54	4.6923e-06	4.6584e-06	415.86	138.57	119.73	41.351	4.7341e-06	51.157	221.883	103.430	110.905	31.580	173.475	175.176	31.828	36.843	208.038	182.368	35.970	40.947	41.992	45.146	179.082	45.105	-8191	255	
14141.458	1	1	0	0	0.18115	0.20954	0.17022	0.37742	0.16435	0.16299	0.21356	0.13473	0.11462	0.16412	0.23593	0.15393	0.23336	0.2208	0.088492	0.21495	-2.2833	-1.8771	-2.5312	-2.5187	-1.8146	-2.8063	-2.2729	-2.225	-2.75	-1.8375	-2.6458	-2.4083	-1.9979	-2.8438	-2.2188	-2.2083	164.281	87.840	198.112	259.788	312.381	287.680	340.846	315.896	224.338	243.242	313.498	71.644	35.886	20.365	187.377	99.084	0.00035395	0.00042859	0.00011971	1327.2	5.141e-06	4.6765e-06	1323.6	355.92	5.8285e-06	5.3057e-06	409.03	134.37	117.26	40.161	3.3814e-06	49.788	0.00043085	0.00041538	0.00011712	1342	4.8337e-06	4.3532e-06	1338.7	362.01	4.6835e-06	4.56e-06	414.92	138.05	119.92	41.294	4.6999e-06	51.06	224.457	129.886	119.747	31.922	188.534	186.484	31.796	36.635	212.616	187.717	36.030	40.917	41.739	45.522	187.059	44.739	-8191	255	
