BOXY.EXE: ISS Imagent and Oximeter Data Acquisition Program Version 0.80
Ascii Record File

#ACQ INFORMATION
2  Detector Channels 
16  External MUX Channels 
1  Auxiliary Channels 
5000  Waveform (CCF) Frequency (Hz)
1  Waveforms Skipped 
30  Waveforms Averaged 
1  Cycles Averaged 
16  Acquisitions per Waveform 
10.0806  Updata Rate (Hz) 

#FILE INFORMATION
TRUE -- External MUX Channel results are PARSED.
FALSE -- AC DC and Phase are NOT grouped.
TRUE -- Companion Program Settings File CREATED.
FALSE -- AC data not excluded
FALSE -- DC data not excluded
FALSE -- Phase data not excluded
FALSE -- Auxillary Chn. data not excluded
Tab delimiters

#CALIBRATION STATE
TRUE -- Waveform Calibration Values APPLIED.


#AUX CALIBRATION VALUES
Val Type	aux-1	

Term	1.0000e+00	
Factor	0.0000e+00	


#WF CALIBRATION VALUES
A = Detector Channel
Val Type	A-AC1	A-AC2	A-AC3	A-AC4	A-AC5	A-AC6	A-AC7	A-AC8	A-AC9	A-AC10	A-AC11	A-AC12	A-AC13	A-AC14	A-AC15	A-AC16	A-DC1	A-DC2	A-DC3	A-DC4	A-DC5	A-DC6	A-DC7	A-DC8	A-DC9	A-DC10	A-DC11	A-DC12	A-DC13	A-DC14	A-DC15	A-DC16	A-Ph1	A-Ph2	A-Ph3	A-Ph4	A-Ph5	A-Ph6	A-Ph7	A-Ph8	A-Ph9	A-Ph10	A-Ph11	A-Ph12	A-Ph13	A-Ph14	A-Ph15	A-Ph16	

Term	0.00000e+00	0.00000e+00	0.00000e+00	0.00000e+00	0.00000e+00	0.00000e+00	0.00000e+00	0.00000e+00	0.00000e+00	0.00000e+00	0.00000e+00	0.00000e+00	0.00000e+00	0.00000e+00	0.00000e+00	0.00000e+00	0.00000e+00	0.00000e+00	0.00000e+00	0.00000e+00	0.00000e+00	0.00000e+00	0.00000e+00	0.00000e+00	0.00000e+00	0.00000e+00	0.00000e+00	0.00000e+00	0.00000e+00	0.00000e+00	0.00000e+00	0.00000e+00	0.00000e+00	0.00000e+00	0.00000e+00	0.00000e+00	0.00000e+00	0.00000e+00	0.00000e+00	0.00000e+00	0.00000e+00	0.00000e+00	0.00000e+00	0.00000e+00	0.00000e+00	0.00000e+00	0.00000e+00	0.00000e+00	
Factor	1.00000e+00	1.00000e+00	1.00000e+00	1.00000e+00	1.00000e+00	1.00000e+00	1.00000e+00	1.00000e+00	1.00000e+00	1.00000e+00	1.00000e+00	1.00000e+00	1.00000e+00	1.00000e+00	1.00000e+00	1.00000e+00	1.00000e+00	1.00000e+00	1.00000e+00	1.00000e+00	1.00000e+00	1.00000e+00	1.00000e+00	1.00000e+00	1.00000e+00	1.00000e+00	1.00000e+00	1.00000e+00	1.00000e+00	1.00000e+00	1.00000e+00	1.00000e+00	X	X	X	X	X	X	X	X	X	X	X	X	X	X	X	X	

B = Detector Channel
Val Type	B-AC1	B-AC2	B-AC3	B-AC4	B-AC5	B-AC6	B-AC7	B-AC8	B-AC9	B-AC10	B-AC11	B-AC12	B-AC13	B-AC14	B-AC15	B-AC16	B-DC1	B-DC2	B-DC3	B-DC4	B-DC5	B-DC6	B-DC7	B-DC8	B-DC9	B-DC10	B-DC11	B-DC12	B-DC13	B-DC14	B-DC15	B-DC16	B-Ph1	B-Ph2	B-Ph3	B-Ph4	B-Ph5	B-Ph6	B-Ph7	B-Ph8	B-Ph9	B-Ph10	B-Ph11	B-Ph12	B-Ph13	B-Ph14	B-Ph15	B-Ph16	

Term	0.00000e+00	0.00000e+00	0.00000e+00	0.00000e+00	0.00000e+00	0.00000e+00	0.00000e+00	0.00000e+00	0.00000e+00	0.00000e+00	0.00000e+00	0.00000e+00	0.00000e+00	0.00000e+00	0.00000e+00	0.00000e+00	0.00000e+00	0.00000e+00	0.00000e+00	0.00000e+00	0.00000e+00	0.00000e+00	0.00000e+00	0.00000e+00	0.00000e+00	0.00000e+00	0.00000e+00	0.00000e+00	0.00000e+00	0.00000e+00	0.00000e+00	0.00000e+00	-1.12736e+02	-1.32660e+02	-1.57672e+02	-1.83228e+02	-7.36844e+01	-7.41403e+01	-1.57769e+02	-1.62015e+02	-7.39298e+01	-8.15064e+01	-1.72450e+02	-1.71347e+02	-1.84938e+02	-1.78511e+02	-9.10839e+01	-1.50871e+02	
Factor	1.78968e-05	1.04503e-04	4.02729e-05	1.54566e-01	1.05787e-06	1.14884e-06	1.75725e-01	5.77799e-02	9.78682e-07	1.20120e-06	1.01565e-01	3.04267e-02	6.38759e-02	9.98531e-03	1.13885e-06	1.44782e-02	7.43370e-07	7.63276e-07	2.11636e-07	7.61262e-02	8.34935e-09	8.34908e-09	8.12104e-02	2.82388e-02	8.35724e-09	8.35355e-09	4.68643e-02	1.42655e-02	2.82392e-02	4.79310e-03	8.33279e-09	6.65656e-03	X	X	X	X	X	X	X	X	X	X	X	X	X	X	X	X	



#DISTANCE SETTINGS
A = Detector Channel
A-1	A-2	A-3	A-4	A-5	A-6	A-7	A-8	A-9	A-10	A-11	A-12	A-13	A-14	A-15	A-16	

2.5000e+00	3.0000e+00	2.5000e+00	3.0000e+00	2.0000e+00	3.0000e+00	1.5000e+00	3.0000e+00	3.0000e+00	3.0000e+00	3.0000e+00	3.0000e+00	3.0000e+00	3.0000e+00	1.5000e+00	3.0000e+00	

B = Detector Channel
B-1	B-2	B-3	B-4	B-5	B-6	B-7	B-8	B-9	B-10	B-11	B-12	B-13	B-14	B-15	B-16	

1.0000e+01	1.0000e+01	1.0000e+01	1.4400e+00	1.0000e+01	1.0000e+01	1.5100e+00	1.9400e+00	1.0000e+01	1.0000e+01	1.9900e+00	2.4900e+00	2.4100e+00	2.9000e+00	1.0000e+01	2.9800e+00	




#DATA BEGINS
time	group	step	mark	flag	A-AC1	A-AC2	A-AC3	A-AC4	A-AC5	A-AC6	A-AC7	A-AC8	A-AC9	A-AC10	A-AC11	A-AC12	A-AC13	A-AC14	A-AC15	A-AC16	A-DC1	A-DC2	A-DC3	A-DC4	A-DC5	A-DC6	A-DC7	A-DC8	A-DC9	A-DC10	A-DC11	A-DC12	A-DC13	A-DC14	A-DC15	A-DC16	A-Ph1	A-Ph2	A-Ph3	A-Ph4	A-Ph5	A-Ph6	A-Ph7	A-Ph8	A-Ph9	A-Ph10	A-Ph11	A-Ph12	A-Ph13	A-Ph14	A-Ph15	A-Ph16	B-AC1	B-AC2	B-AC3	B-AC4	B-AC5	B-AC6	B-AC7	B-AC8	B-AC9	B-AC10	B-AC11	B-AC12	B-AC13	B-AC14	B-AC15	B-AC16	B-DC1	B-DC2	B-DC3	B-DC4	B-DC5	B-DC6	B-DC7	B-DC8	B-DC9	B-DC10	B-DC11	B-DC12	B-DC13	B-DC14	B-DC15	B-DC16	B-Ph1	B-Ph2	B-Ph3	B-Ph4	B-Ph5	B-Ph6	B-Ph7	B-Ph8	B-Ph9	B-Ph10	B-Ph11	B-Ph12	B-Ph13	B-Ph14	B-Ph15	B-Ph16	aux-1	digaux	

8286.764	1	1	0	256	0.14014	0.18798	0.3354	0.29092	0.067368	0.21265	0.16755	0.21698	0.36556	0.21005	0.39944	0.3203	0.13383	0.35574	0.27153	0.34061	-1.3854	-1.8792	-2.4979	-1.6167	-2.5938	-2.0479	-1.9937	-2.6771	-1.6625	-1.9729	-2.6729	-1.7687	-2.3542	-2.1625	-1.85	-2.7125	127.348	176.089	392.748	422.105	398.214	111.360	378.851	98.621	378.720	247.494	415.690	177.053	187.470	389.203	140.901	410.889	0.00055587	0.00048199	0.00016833	1288.4	6.1757e-06	3.7112e-07	1268.3	346.53	7.497e-06	2.9226e-06	398.24	134.36	116.27	40.534	2.8944e-06	50.676	0.00042146	0.00040796	0.00010877	1288.9	4.6188e-06	4.5281e-06	1289.2	350.01	4.6804e-06	4.4477e-06	400.24	135.77	115.92	41.171	4.1686e-06	51.131	188.264	282.500	253.923	90.799	224.808	187.609	91.290	95.854	223.003	252.758	95.180	100.001	100.961	104.739	417.129	103.893	-8191	255	
8286.885	1	1	0	0	0.19944	0.12407	0.18799	0.3291	0.12702	0.30752	0.3369	0.30431	0.10668	0.1324	0.20153	0.12197	0.25955	0.17353	0.036588	0.061259	-1.4083	-1.8625	-2.5104	-1.8646	-2.3688	-2.1896	-1.8917	-2.7354	-1.9917	-1.9917	-2.6396	-1.8021	-2.4396	-2.6688	-1.5312	-2.625	334.115	80.186	233.937	421.536	432.075	88.813	322.536	420.372	350.749	148.851	101.092	159.122	141.014	391.972	310.780	418.660	0.00046496	0.00049668	0.00014412	1276.6	4.333e-06	3.5428e-06	1282.4	345.46	5.8095e-06	4.3255e-06	399.36	136.3	116.98	40.763	4.896e-06	51.149	0.00043406	0.00040114	0.0001074	1289.6	4.6755e-06	4.4748e-06	1290.8	350.89	4.6973e-06	4.3621e-06	399.92	136.54	116.21	41.178	4.1091e-06	51.405	190.267	168.626	433.190	90.904	196.686	291.130	91.044	95.863	247.340	304.766	94.970	99.231	100.226	104.485	186.679	103.548	-8191	255	
8286.981	1	1	0	0	0.028557	0.1297	0.063345	0.26267	0.15915	0.21243	0.089973	0.030409	0.34009	0.096714	0.10395	0.15236	0.34063	0.076932	0.031662	0.24553	-1.5583	-2.0542	-2.5542	-1.8229	-2.2438	-2.4437	-1.9458	-2.5271	-2.2396	-1.7062	-2.6896	-1.9979	-2.5312	-2.5229	-1.8	-2.7062	341.029	400.625	149.263	409.455	252.359	419.760	400.016	353.956	171.275	279.586	85.667	178.558	365.209	115.341	142.133	372.451	0.00039809	0.00033603	0.00018592	1288.6	3.0112e-06	3.5376e-06	1287.8	351.08	2.0263e-06	4.8821e-06	398.15	134.63	115.89	40.72	7.8176e-06	51.089	0.0004274	0.00039834	0.00010591	1293.5	4.6023e-06	4.4236e-06	1293.2	352.37	4.6362e-06	4.3212e-06	399.74	136.63	115.59	41.127	4.1397e-06	51.352	194.788	332.060	370.379	90.632	135.679	105.431	90.687	95.562	177.385	213.504	95.159	99.794	100.903	104.464	209.742	103.888	-8191	255	
8287.077	1	1	0	0	0.099659	0.36676	0.28953	0.42936	0.27485	0.18567	0.21272	0.26233	0.35141	0.22323	0.16299	0.34875	0.17296	0.076489	0.26606	0.20132	-1.6854	-1.7917	-2.6708	-1.9167	-2.0229	-2.5458	-1.9937	-2.7479	-2.1333	-1.8062	-2.65	-1.9771	-2	-2.6792	-1.5083	-2.525	256.707	226.254	84.019	410.006	372.323	148.495	356.160	334.471	311.051	432.163	352.454	426.286	133.559	403.113	209.023	323.990	0.00043675	0.00029722	0.00018249	1279.4	2.2723e-06	5.4404e-06	1276.5	349.46	3.2446e-06	4.1841e-06	408.07	137.41	118.14	41.095	9.7151e-06	50.732	0.00041869	0.00038585	0.00010548	1292.4	4.4289e-06	4.2527e-06	1289.9	352.55	4.4988e-06	4.1575e-06	402.23	137.37	115.43	41.088	4.2628e-06	51.416	186.484	262.298	82.873	91.010	220.443	204.642	90.955	95.576	258.092	215.316	94.653	99.032	100.138	104.315	239.642	103.751	-8191	255	
8287.173	1	1	0	0	0.038755	0.13223	0.17726	0.28661	0.14272	0.075555	0.37326	0.051763	0.066017	0.034633	0.39678	0.09652	0.088049	0.18014	0.066868	0.27878	-1.8917	-1.7146	-2.4625	-2.1417	-2.0917	-2.6229	-1.6604	-2.3958	-2.3104	-1.775	-2.6708	-2.0354	-1.9646	-2.6688	-1.7125	-2.1625	116.429	292.235	97.688	106.989	321.467	404.936	374.797	413.891	124.773	125.087	397.966	390.374	233.073	140.966	264.772	341.518	0.00044412	0.0004485	0.00025324	1274.6	2.1178e-06	6.8367e-06	1272.4	348.19	3.8915e-06	6.8248e-06	401.52	135.25	115.55	40.584	4.5903e-06	51.157	0.00040704	0.00037118	0.00010922	1290.2	4.2554e-06	4.0604e-06	1288.9	351.56	4.3033e-06	3.9405e-06	401.16	136.64	114.28	40.881	4.3181e-06	51.28	191.760	201.427	126.587	91.107	179.105	207.891	90.912	95.818	152.652	297.200	95.081	99.730	100.386	104.907	237.782	103.948	-8191	255	
8287.269	1	1	0	0	0.26893	0.16317	0.27637	0.11303	0.10971	0.23185	0.43122	0.15713	0.24054	0.078551	0.21038	0.28688	0.30146	0.15418	0.10753	0.24818	-1.9104	-1.5562	-2.4771	-2.1729	-1.7917	-2.4708	-2.0958	-2.4167	-2.4	-1.7083	-2.5667	-2.3063	-1.9208	-2.5563	-1.7042	-2.0583	236.948	310.901	393.967	435.507	359.924	176.969	397.936	420.772	206.374	211.509	126.846	426.746	263.672	412.581	142.818	401.812	0.00040082	0.00060225	8.5607e-05	1288	9.0086e-07	2.0335e-06	1292.9	351.21	2.2568e-06	6.1597e-06	404.58	135.6	115.92	40.871	3.318e-06	50.984	0.00038578	0.00035448	0.00011005	1291	4.0495e-06	3.9079e-06	1294	351.46	4.1261e-06	3.8594e-06	401.97	136.64	113.61	41.015	4.3746e-06	51.151	193.241	119.335	167.520	90.645	239.915	209.745	90.504	95.303	85.159	143.372	94.857	99.552	100.323	104.719	150.003	103.562	-8191	255	
8287.365	1	1	0	0	0.093351	0.06442	0.15201	0.31999	0.20296	0.1571	0.47725	0.24724	0.1968	0.14732	0.19122	0.33544	0.071266	0.16129	0.065269	0.048115	-2.0396	-1.8125	-2.2833	-2.5833	-1.6354	-2.625	-2.125	-2.1125	-2.6188	-1.6042	-2.5604	-2.25	-1.7833	-2.7917	-2.0167	-2.0625	295.198	356.520	402.240	424.536	151.219	344.194	382.680	422.382	405.859	314.410	358.373	419.060	405.739	248.095	105.309	353.413	0.00035294	0.00051521	1.0773e-05	1278.3	1.1971e-06	3.8419e-06	1281.9	348.74	1.6976e-06	6.8124e-06	400.51	135.47	116.53	40.848	9.7256e-06	50.951	0.00036947	0.00035883	0.00011112	1286.6	3.8917e-06	4.0093e-06	1292.3	350.58	4.0179e-06	4.057e-06	401.9	136.28	113.83	41.046	4.4416e-06	51.097	185.260	428.121	140.518	91.001	229.915	205.138	90.750	95.509	162.418	251.073	95.098	99.483	100.311	104.644	137.246	103.902	-8191	255	
8287.461	1	1	0	0	0.15828	0.38303	0.11631	0.2889	0.12026	0.028818	0.42875	0.23589	0.14885	0.082365	0.056576	0.11811	0.15458	0.3221	0.23566	0.08245	-2.1104	-1.6271	-2.4396	-2.4583	-1.6833	-2.5167	-2.2	-2.0521	-2.5021	-1.6896	-2.2896	-2.5396	-1.7375	-2.6146	-2.0708	-1.9583	158.628	311.944	162.079	89.414	377.363	266.158	355.451	395.835	105.778	229.221	401.304	351.947	377.607	437.086	170.475	382.154	0.00038721	0.00056162	0.00024302	1286.5	3.3681e-06	3.8459e-06	1286.7	348	4.7791e-06	3.5841e-06	402.19	135.44	116.83	40.693	3.225e-06	51.151	0.0003652	0.00038451	0.00011128	1288.5	3.9064e-06	4.295e-06	1294.1	350.27	4.0067e-06	4.3494e-06	401.96	136.37	113.36	41.166	4.4293e-06	51.126	180.975	155.977	101.617	90.647	239.119	226.879	90.656	95.605	238.525	223.979	95.103	99.818	100.525	104.537	182.327	103.355	-8191	255	
8287.580	1	1	0	0	0.057256	0.19822	0.081624	0.27077	0.079324	0.19942	0.174	0.21512	0.07966	0.13137	0.095618	0.33674	0.1583	0.19023	0.16136	0.022988	-2.1125	-1.6875	-2.0854	-2.6854	-1.5375	-2.6083	-2.4125	-1.9229	-2.5438	-1.9813	-2.1771	-2.5354	-1.6583	-2.6063	-2.2313	-1.8917	391.853	84.211	425.078	388.132	163.894	345.973	381.949	391.086	337.471	420.082	356.375	391.994	208.360	350.532	193.204	238.621	0.00043994	0.00087825	0.00023528	1291.7	6.9263e-06	5.5567e-06	1291.8	349.68	7.9101e-06	6.3848e-06	399.94	135.2	116.59	40.93	4.2536e-06	50.949	0.0003663	0.00040462	0.0001096	1288.3	3.9404e-06	4.3963e-06	1292.9	350.23	3.9625e-06	4.3932e-06	400.74	136.05	113.92	41.309	4.2689e-06	50.922	187.550	87.845	113.111	90.525	229.856	254.784	90.480	95.644	228.828	236.947	94.942	99.540	100.763	104.472	230.652	103.846	-8191	255	
8287.676	1	1	0	0	0.10371	0.17371	0.072251	0.14902	0.17178	0.18099	0.22336	0.10776	0.15778	0.14365	0.17583	0.14052	0.3569	0.15826	0.29565	0.13698	-2.3771	-1.9729	-2.1188	-2.7562	-1.625	-2.4542	-2.4562	-1.9771	-2.4792	-1.95	-1.9292	-2.7604	-1.8188	-2.275	-2.35	-1.8813	380.774	286.167	264.992	417.193	89.204	232.857	110.846	141.052	350.825	390.241	350.034	352.603	414.754	90.695	280.222	382.896	0.00050654	0.00015365	3.7543e-05	1283.2	7.43e-06	5.159e-06	1287	350.48	4.7458e-06	5.6778e-06	403.72	135.74	117.89	41.099	1.0559e-06	51.186	0.00037343	0.00040581	0.00010548	1286.1	4.0652e-06	4.3646e-06	1293.1	350.35	4.0978e-06	4.3948e-06	401.34	136.05	114.67	41.232	4.1882e-06	50.903	194.144	173.735	186.429	90.775	234.002	192.773	90.571	95.606	253.448	167.529	94.912	99.463	100.438	104.376	251.150	103.580	-8191	255	
8287.748	1	1	0	0	0.073838	0.2997	0.084368	0.11409	0.12592	0.12186	0.33719	0.073761	0.099512	0.2072	0.24883	0.37069	0.099771	0.21196	0.2132	0.080935	-2.25	-1.9458	-1.875	-2.8521	-1.675	-2.4042	-2.7875	-1.8604	-2.3958	-2.1104	-2.1562	-2.8187	-1.6875	-2.4958	-2.5062	-1.9125	279.294	366.564	170.891	408.240	197.559	323.310	345.517	382.460	404.992	232.184	80.118	356.102	305.447	382.573	222.223	359.152	0.00039447	0.00061816	0.00017345	1285.1	8.4239e-06	4.2451e-06	1289.7	351.05	5.2068e-06	4.4622e-06	400.78	135.6	117.23	40.85	4.322e-06	51.233	0.00039056	0.0004047	0.00010357	1288.1	4.294e-06	4.3162e-06	1293.8	350.28	4.3257e-06	4.3645e-06	400.45	135.79	115.44	41.136	4.1356e-06	50.993	187.297	289.744	157.647	90.735	193.666	257.726	90.591	95.280	208.590	274.971	94.882	99.370	100.117	104.444	163.164	103.616	-8191	255	
8287.844	1	1	0	0	0.15493	0.094003	0.13437	0.19043	0.12134	0.19366	0.39639	0.060111	0.2644	0.19927	0.319	0.24828	0.23683	0.12511	0.25908	0.12939	-2.2792	-2.1292	-1.725	-2.7833	-1.9188	-1.9979	-2.6146	-1.7854	-2.5458	-2.1479	-1.8979	-2.7896	-1.7917	-2.0521	-2.6979	-1.8021	107.582	287.317	326.054	122.457	314.677	374.726	403.943	410.744	128.536	143.763	83.864	321.090	176.558	111.092	85.176	211.663	0.00043158	0.00023538	0.00022512	1299.8	8.6318e-06	5.2825e-06	1309.4	354.17	4.2049e-06	2.7899e-06	406.52	136.8	117.58	41.095	4.9037e-06	51.019	0.00040288	0.00039289	0.00010127	1289.3	4.4345e-06	4.1934e-06	1294.4	351.18	4.3919e-06	4.248e-06	400.35	136.04	115.49	41.115	3.9226e-06	50.973	189.168	155.692	155.612	90.585	245.851	206.334	89.840	94.721	419.953	159.124	94.503	99.378	99.788	104.239	152.230	103.850	-8191	255	
8287.965	1	1	0	0	0.12387	0.15164	0.14281	0.18137	0.17222	0.046701	0.11814	0.21948	0.12878	0.36904	0.20681	0.066591	0.063414	0.27749	0.11237	0.14931	-1.9771	-2.1167	-1.7896	-2.8042	-1.9937	-2.0062	-2.625	-1.8083	-2.2229	-2.3604	-1.8062	-2.5729	-2.0667	-2.0187	-2.6937	-1.8604	112.029	375.494	300.980	382.551	205.711	78.455	346.825	378.118	411.863	102.120	350.434	375.849	373.074	406.914	87.980	148.530	0.00041789	0.00024901	7.3468e-05	1285.9	7.781e-06	4.4762e-06	1285.4	350.42	5.5605e-06	3.5822e-06	399.08	134.61	115.43	40.692	5.2743e-06	50.954	0.00039985	0.00038213	9.7116e-05	1286.8	4.404e-06	4.085e-06	1288.9	350.8	4.2785e-06	4.0759e-06	397.98	135.95	114.49	40.983	3.7694e-06	51.111	176.626	93.587	125.586	90.713	262.953	256.277	90.365	95.591	258.835	238.296	95.031	99.877	100.552	104.404	180.499	103.649	-8191	255	
8288.061	1	1	0	0	0.21021	0.07626	0.093527	0.20248	0.26086	0.22926	0.36544	0.08246	0.10183	0.21436	0.13946	0.18354	0.071738	0.090691	0.050138	0.24131	-1.7687	-2.575	-1.6708	-2.6771	-2.1667	-1.8458	-2.8771	-2.0146	-2.2292	-2.4375	-1.7	-2.6771	-2.0333	-1.8875	-2.6562	-1.8	372.498	365.743	246.298	388.281	133.035	321.857	401.323	228.482	129.695	281.160	305.499	243.297	243.734	313.058	177.453	355.385	0.0004361	0.0001749	0.00019704	1277.1	2.0094e-06	2.6319e-06	1289	351.32	3.9739e-06	4.5589e-06	402.57	135.66	117.34	40.871	4.8568e-06	51.224	0.00037968	0.00036175	9.2876e-05	1285.1	4.1463e-06	3.8511e-06	1286.5	351.33	4.026e-06	3.8812e-06	398.34	136.12	114.37	40.895	3.7708e-06	51.172	190.003	320.438	119.336	90.921	149.663	264.085	90.456	95.380	264.099	224.983	94.714	99.837	100.457	104.388	111.177	103.599	-8191	255	
8288.157	1	1	0	0	0.22354	0.16394	0.13394	0.2502	0.29258	0.19481	0.38498	0.17106	0.10799	0.017485	0.10875	0.096673	0.17916	0.27999	0.1674	0.077418	-1.8438	-2.4479	-1.6708	-2.6	-2.3312	-1.6875	-2.7896	-2.1312	-2.15	-2.5604	-1.7958	-2.4958	-2.4	-1.7771	-2.4667	-2.0708	222.314	273.417	326.141	327.292	347.384	205.377	423.540	351.407	212.328	415.729	95.752	303.346	248.365	110.585	160.338	416.776	0.00035632	0.00025487	8.1421e-05	1279.6	8.9205e-07	6.8284e-06	1284.4	350.24	2.7596e-06	2.5958e-06	402.75	136.07	117.23	41.187	5.4769e-06	51.301	0.00036852	0.00034859	9.4824e-05	1284.3	4.0638e-06	3.7521e-06	1285	351.3	3.9647e-06	3.8199e-06	398.27	136.09	113.87	40.851	3.9528e-06	51.136	177.503	214.702	308.499	90.794	171.899	233.511	90.833	95.271	237.744	296.784	95.001	99.463	99.878	104.170	161.189	103.106	-8191	255	
8288.278	1	1	0	0	0.1437	0.18404	0.18879	0.067113	0.16163	0.068035	0.21471	0.12594	0.11481	0.054465	0.14801	0.45672	0.13176	0.14886	0.35244	0.10813	-1.6083	-2.5104	-1.6938	-2.4292	-2.3958	-1.5542	-2.6021	-2.3063	-2.0104	-2.6646	-2.0687	-2.5375	-2.4062	-1.8646	-2.6021	-1.9896	345.075	392.262	289.393	114.899	206.132	345.979	315.559	133.643	138.083	91.697	409.992	416.032	343.869	225.490	113.331	224.229	0.00040008	0.00021589	0.00016099	1283.3	1.5967e-06	3.8226e-06	1288.4	349.51	9.2246e-07	4.8364e-06	402.59	135.47	116.56	40.806	8.5589e-06	51.296	0.00036534	0.00034179	0.00010103	1284.1	4.0264e-06	3.6757e-06	1290.1	350.36	3.9134e-06	3.7541e-06	399.18	135.84	113.81	40.675	4.0994e-06	51.039	173.968	165.477	165.902	90.844	192.781	199.878	90.816	95.343	222.996	191.320	95.046	99.531	100.360	104.471	185.969	103.596	-8191	255	
8288.372	1	1	0	0	0.19401	0.14319	0.26728	0.13885	0.2099	0.019196	0.37115	0.22662	0.16253	0.082243	0.11766	0.25464	0.097617	0.23385	0.22473	0.36218	-1.4792	-2.6042	-1.6583	-2.3125	-2.375	-1.5583	-2.5958	-2.3771	-1.6187	-2.5208	-1.975	-2.2458	-2.4333	-1.7604	-2.5021	-2.1292	100.705	414.169	419.936	117.799	430.034	372.785	401.767	360.522	235.613	265.399	77.548	388.991	380.881	347.252	99.712	394.746	0.00039409	0.00053066	5.9062e-05	1297.9	6.7087e-06	4.1969e-06	1300.5	353.27	4.1642e-06	4.0309e-06	405.45	137.07	117.42	41.394	6.796e-06	51.846	0.00035687	0.00034117	0.00010508	1286.4	3.9617e-06	3.6957e-06	1290.2	350.9	3.8034e-06	3.7511e-06	401.49	135.85	113.37	40.832	4.1257e-06	51.01	194.279	126.758	197.850	90.018	255.587	222.488	89.721	94.410	207.183	247.283	93.820	98.269	99.230	103.304	214.547	102.295	-8191	255	
8288.446	1	1	0	0	0.16894	0.28904	0.2196	0.16875	0.082312	0.17778	0.19216	0.44421	0.18744	0.34727	0.11217	0.2171	0.11433	0.12433	0.13782	0.25266	-1.075	-2.4917	-1.7979	-2.0646	-2.4	-1.8146	-2.5854	-2.3896	-1.7188	-2.4896	-1.8708	-2.0563	-2.3708	-1.6042	-2.3667	-2.5521	203.380	312.273	180.290	332.123	414.958	284.526	352.557	348.459	140.095	85.178	341.018	394.767	360.462	147.338	302.479	128.675	0.00041884	0.00037888	0.00016835	1297.5	4.7904e-06	7.4374e-06	1301.4	354.04	1.8912e-06	7.3067e-06	407.47	137.46	118	40.876	3.7484e-06	51.139	0.00034543	0.00034847	0.00010646	1285.2	3.8261e-06	3.8315e-06	1291.2	350.33	3.6695e-06	3.9062e-06	401.27	135.89	112.98	40.849	4.1199e-06	50.877	190.678	177.470	146.864	89.483	234.670	192.196	89.688	94.217	165.028	235.474	93.862	98.592	99.405	104.102	194.991	103.638	-8191	255	
