BOXY.EXE: ISS Imagent and Oximeter Data Acquisition Program Version 0.80
Ascii Record File

#ACQ INFORMATION
2  Detector Channels 
16  External MUX Channels 
1  Auxiliary Channels 
5000  Waveform (CCF) Frequency (Hz)
1  Waveforms Skipped 
30  Waveforms Averaged 
1  Cycles Averaged 
16  Acquisitions per Waveform 
10.0806  Updata Rate (Hz) 

#FILE INFORMATION
TRUE -- External MUX Channel results are PARSED.
FALSE -- AC DC and Phase are NOT grouped.
TRUE -- Companion Program Settings File CREATED.
FALSE -- AC data not excluded
FALSE -- DC data not excluded
FALSE -- Phase data not excluded
FALSE -- Auxillary Chn. data not excluded
Tab delimiters

#CALIBRATION STATE
TRUE -- Waveform Calibration Values APPLIED.


#AUX CALIBRATION VALUES
Val Type	aux-1	

Term	1.0000e+00	
Factor	0.0000e+00	


#WF CALIBRATION VALUES
A = Detector Channel
Val Type	A-AC1	A-AC2	A-AC3	A-AC4	A-AC5	A-AC6	A-AC7	A-AC8	A-AC9	A-AC10	A-AC11	A-AC12	A-AC13	A-AC14	A-AC15	A-AC16	A-DC1	A-DC2	A-DC3	A-DC4	A-DC5	A-DC6	A-DC7	A-DC8	A-DC9	A-DC10	A-DC11	A-DC12	A-DC13	A-DC14	A-DC15	A-DC16	A-Ph1	A-Ph2	A-Ph3	A-Ph4	A-Ph5	A-Ph6	A-Ph7	A-Ph8	A-Ph9	A-Ph10	A-Ph11	A-Ph12	A-Ph13	A-Ph14	A-Ph15	A-Ph16	

Term	0.00000e+00	0.00000e+00	0.00000e+00	0.00000e+00	0.00000e+00	0.00000e+00	0.00000e+00	0.00000e+00	0.00000e+00	0.00000e+00	0.00000e+00	0.00000e+00	0.00000e+00	0.00000e+00	0.00000e+00	0.00000e+00	0.00000e+00	0.00000e+00	0.00000e+00	0.00000e+00	0.00000e+00	0.00000e+00	0.00000e+00	0.00000e+00	0.00000e+00	0.00000e+00	0.00000e+00	0.00000e+00	0.00000e+00	0.00000e+00	0.00000e+00	0.00000e+00	0.00000e+00	0.00000e+00	0.00000e+00	0.00000e+00	0.00000e+00	0.00000e+00	0.00000e+00	0.00000e+00	0.00000e+00	0.00000e+00	0.00000e+00	0.00000e+00	0.00000e+00	0.00000e+00	0.00000e+00	0.00000e+00	
Factor	1.00000e+00	1.00000e+00	1.00000e+00	1.00000e+00	1.00000e+00	1.00000e+00	1.00000e+00	1.00000e+00	1.00000e+00	1.00000e+00	1.00000e+00	1.00000e+00	1.00000e+00	1.00000e+00	1.00000e+00	1.00000e+00	1.00000e+00	1.00000e+00	1.00000e+00	1.00000e+00	1.00000e+00	1.00000e+00	1.00000e+00	1.00000e+00	1.00000e+00	1.00000e+00	1.00000e+00	1.00000e+00	1.00000e+00	1.00000e+00	1.00000e+00	1.00000e+00	X	X	X	X	X	X	X	X	X	X	X	X	X	X	X	X	

B = Detector Channel
Val Type	B-AC1	B-AC2	B-AC3	B-AC4	B-AC5	B-AC6	B-AC7	B-AC8	B-AC9	B-AC10	B-AC11	B-AC12	B-AC13	B-AC14	B-AC15	B-AC16	B-DC1	B-DC2	B-DC3	B-DC4	B-DC5	B-DC6	B-DC7	B-DC8	B-DC9	B-DC10	B-DC11	B-DC12	B-DC13	B-DC14	B-DC15	B-DC16	B-Ph1	B-Ph2	B-Ph3	B-Ph4	B-Ph5	B-Ph6	B-Ph7	B-Ph8	B-Ph9	B-Ph10	B-Ph11	B-Ph12	B-Ph13	B-Ph14	B-Ph15	B-Ph16	

Term	0.00000e+00	0.00000e+00	0.00000e+00	0.00000e+00	0.00000e+00	0.00000e+00	0.00000e+00	0.00000e+00	0.00000e+00	0.00000e+00	0.00000e+00	0.00000e+00	0.00000e+00	0.00000e+00	0.00000e+00	0.00000e+00	0.00000e+00	0.00000e+00	0.00000e+00	0.00000e+00	0.00000e+00	0.00000e+00	0.00000e+00	0.00000e+00	0.00000e+00	0.00000e+00	0.00000e+00	0.00000e+00	0.00000e+00	0.00000e+00	0.00000e+00	0.00000e+00	-5.98413e-01	-1.30042e+02	-1.38030e+02	-1.82546e+02	-4.99836e+01	-7.89732e+01	-1.57750e+02	-1.62015e+02	-5.40988e+01	-8.57005e+01	-1.71389e+02	-1.70427e+02	-1.80918e+02	-1.76347e+02	-8.43569e+01	-1.49615e+02	
Factor	3.03423e-05	9.25433e-05	3.49011e-05	1.70982e-01	1.15984e-06	1.11292e-06	1.63773e-01	4.31174e-02	1.13071e-06	1.13966e-06	7.65482e-02	2.71767e-02	2.14451e-02	7.95183e-03	1.41084e-06	1.17365e-02	9.22724e-07	9.46101e-07	2.63614e-07	8.73792e-02	1.03490e-08	1.03626e-08	7.84794e-02	2.21183e-02	1.03652e-08	1.03812e-08	3.72480e-02	1.32241e-02	1.09778e-02	4.04788e-03	1.03666e-08	5.71099e-03	X	X	X	X	X	X	X	X	X	X	X	X	X	X	X	X	



#DISTANCE SETTINGS
A = Detector Channel
A-1	A-2	A-3	A-4	A-5	A-6	A-7	A-8	A-9	A-10	A-11	A-12	A-13	A-14	A-15	A-16	

2.5000e+00	3.0000e+00	2.5000e+00	3.0000e+00	2.0000e+00	3.0000e+00	1.5000e+00	3.0000e+00	3.0000e+00	3.0000e+00	3.0000e+00	3.0000e+00	3.0000e+00	3.0000e+00	1.5000e+00	3.0000e+00	

B = Detector Channel
B-1	B-2	B-3	B-4	B-5	B-6	B-7	B-8	B-9	B-10	B-11	B-12	B-13	B-14	B-15	B-16	

1.0000e+01	1.0000e+01	1.0000e+01	1.4400e+00	1.0000e+01	1.0000e+01	1.5100e+00	1.9400e+00	1.0000e+01	1.0000e+01	1.9900e+00	2.4900e+00	2.4100e+00	2.9000e+00	1.0000e+01	2.9800e+00	




#DATA BEGINS
time	group	step	mark	flag	A-AC1	A-AC2	A-AC3	A-AC4	A-AC5	A-AC6	A-AC7	A-AC8	A-AC9	A-AC10	A-AC11	A-AC12	A-AC13	A-AC14	A-AC15	A-AC16	A-DC1	A-DC2	A-DC3	A-DC4	A-DC5	A-DC6	A-DC7	A-DC8	A-DC9	A-DC10	A-DC11	A-DC12	A-DC13	A-DC14	A-DC15	A-DC16	A-Ph1	A-Ph2	A-Ph3	A-Ph4	A-Ph5	A-Ph6	A-Ph7	A-Ph8	A-Ph9	A-Ph10	A-Ph11	A-Ph12	A-Ph13	A-Ph14	A-Ph15	A-Ph16	B-AC1	B-AC2	B-AC3	B-AC4	B-AC5	B-AC6	B-AC7	B-AC8	B-AC9	B-AC10	B-AC11	B-AC12	B-AC13	B-AC14	B-AC15	B-AC16	B-DC1	B-DC2	B-DC3	B-DC4	B-DC5	B-DC6	B-DC7	B-DC8	B-DC9	B-DC10	B-DC11	B-DC12	B-DC13	B-DC14	B-DC15	B-DC16	B-Ph1	B-Ph2	B-Ph3	B-Ph4	B-Ph5	B-Ph6	B-Ph7	B-Ph8	B-Ph9	B-Ph10	B-Ph11	B-Ph12	B-Ph13	B-Ph14	B-Ph15	B-Ph16	aux-1	digaux	

864.721	1	1	0	768	0.18961	0.19277	0.21064	0.20558	0.15529	0.097598	0.36249	0.16114	0.33906	0.13924	0.10713	0.093815	0.1026	0.10254	0.1777	0.27459	-2.0542	-1.6729	-1.5104	-2.5187	-1.3417	-1.9333	-2.1937	-1.2646	-2.2083	-1.6542	-1.5562	-2.1896	-1.3604	-1.8083	-2.0646	-1.4438	113.946	74.918	331.803	320.068	272.303	266.965	286.066	56.405	135.856	259.575	229.597	53.204	85.045	287.814	95.073	99.830	0.00076568	0.00050095	0.00010902	1359.2	5.582e-06	7.1111e-06	1361.1	367.83	9.0517e-06	7.1373e-06	419.44	140.83	122.45	41.778	4.0432e-06	51.96	0.00058906	0.00058126	0.00016083	1385.3	6.3608e-06	6.3774e-06	1384.7	375.77	6.4126e-06	6.396e-06	428.88	144.07	125.47	43.215	6.4923e-06	53.511	271.789	131.067	229.246	62.429	180.890	174.602	62.428	67.335	204.133	90.677	66.635	71.785	71.631	75.985	372.087	75.237	-8191	255	
864.817	1	1	0	0	0.10222	0.11123	0.21382	0.33664	0.30075	0.077524	0.18827	0.082138	0.079136	0.17225	0.49616	0.079983	0.24534	0.35979	0.03664	0.23322	-1.9	-1.8208	-1.4062	-2.3792	-1.3271	-1.8917	-2.475	-1.5625	-2.0729	-2.0271	-1.5938	-2.5	-1.6875	-1.8146	-2.2438	-1.625	145.915	222.134	138.749	391.360	341.536	313.778	395.482	85.861	110.330	351.688	364.873	49.826	371.182	403.781	176.884	61.593	0.00073577	0.00061829	0.00033147	1361.7	3.7206e-06	2.1021e-06	1367	368.9	9.5032e-06	4.1773e-06	419.89	141.61	123.22	42.062	9.6755e-06	51.858	0.0005962	0.0005923	0.00016332	1386.8	6.4918e-06	6.5141e-06	1384.7	376.21	6.5671e-06	6.5089e-06	430.13	144.57	125.93	43.436	6.5414e-06	53.595	281.471	152.827	127.058	62.010	240.348	193.713	62.320	67.188	281.622	95.247	66.400	71.397	71.850	76.115	129.666	75.141	-8191	255	
864.913	1	1	0	0	0.22878	0.11648	0.10035	0.26457	0.19175	0.04626	0.27499	0.33516	0.21813	0.10347	0.19926	0.039123	0.13647	0.15497	0.1988	0.3804	-1.7854	-1.9521	-1.3729	-2.4813	-1.6187	-1.6437	-2.3625	-1.4792	-2.0125	-2.0396	-1.5104	-2.4729	-2.025	-1.8479	-2.3458	-1.5979	131.091	54.386	388.247	348.447	239.458	194.344	335.673	308.179	390.086	118.416	334.792	149.860	336.609	308.787	105.459	333.551	0.00076092	0.00071001	0.00028026	1359.7	7.6181e-06	8.8981e-06	1362.4	369.31	4.1104e-06	7.4786e-06	422.55	140.73	122.36	41.974	1.278e-05	52.002	0.0006008	0.00059338	0.00016548	1386	6.4795e-06	6.5209e-06	1385.2	376.69	6.4647e-06	6.4323e-06	430.86	144.17	125.5	43.299	6.4194e-06	53.476	293.453	161.681	157.133	62.543	178.233	225.389	62.398	67.154	175.890	196.479	66.472	71.270	71.860	76.208	202.478	74.998	-8191	255	
865.009	1	1	0	0	0.23783	0.13507	0.24193	0.1559	0.13848	0.093939	0.43146	0.35039	0.095173	0.16199	0.24241	0.26106	0.22875	0.47339	0.051784	0.13008	-1.6417	-2.1396	-1.3146	-2.425	-1.7542	-1.6521	-2.4062	-1.5625	-1.7708	-2.1021	-1.5333	-2.4625	-2.0125	-1.6458	-2.2583	-1.7792	331.910	291.311	131.175	360.566	93.975	100.075	368.223	347.358	200.183	321.228	295.695	393.205	85.253	338.492	260.029	376.248	0.00082588	0.000735	0.00016144	1357.6	1.0615e-05	7.5006e-06	1366.9	368.6	8.2766e-06	5.3653e-06	420.35	141.5	122.34	41.925	8.9965e-06	52.151	0.00058971	0.00058884	0.00016503	1385.2	6.4711e-06	6.5222e-06	1385.2	376.19	6.5984e-06	6.4925e-06	430.15	144.64	125.61	43.406	6.574e-06	53.65	282.867	155.979	186.938	62.432	217.932	106.794	62.425	67.145	213.019	260.858	66.300	71.412	71.952	76.011	216.470	75.094	-8191	255	
865.104	1	1	0	0	0.16851	0.19611	0.29408	0.14393	0.17279	0.11374	0.29501	0.39297	0.11235	0.32064	0.1255	0.24517	0.11994	0.01922	0.16744	0.27698	-1.4167	-2.2979	-1.3375	-2.2667	-1.8479	-1.4562	-2.5417	-1.8292	-1.5771	-2.4625	-1.3354	-2.0875	-2.1979	-1.4979	-2.3833	-1.7271	292.463	62.579	277.240	317.777	369.163	386.929	313.152	371.154	96.592	280.592	374.111	268.896	378.637	294.377	125.423	64.530	0.00094418	0.00037411	0.00020754	1360.4	8.3263e-06	6.9579e-06	1365.6	368.85	8.896e-06	1.8263e-06	420.5	141.37	122.86	41.873	5.1792e-06	51.989	0.0005947	0.00059393	0.00016489	1385.6	6.4892e-06	6.4985e-06	1384.2	376.1	6.468e-06	6.4629e-06	430.25	144.49	125.67	43.307	6.4906e-06	53.593	273.392	140.720	168.094	62.528	247.617	217.431	62.449	67.198	215.975	52.842	66.314	71.463	71.828	76.047	169.323	75.095	-8191	255	
865.200	1	1	0	0	0.18212	0.057496	0.15772	0.11155	0.18523	0.19869	0.31969	0.086829	0.13711	0.015233	0.28833	0.23824	0.23625	0.3532	0.077762	0.036317	-1.2583	-2.1833	-1.4458	-2.1854	-2.0271	-1.3083	-2.4542	-1.9083	-1.4562	-2.175	-1.3271	-1.9896	-2.0396	-1.4125	-2.3354	-1.7042	281.364	331.262	174.530	89.014	386.327	74.978	333.770	388.813	366.133	200.916	353.678	344.320	321.351	88.924	76.444	274.323	0.00092277	0.00035061	0.00024024	1360.3	4.9745e-06	6.2807e-06	1367	368.25	1.0584e-05	8.0641e-06	419.6	141.53	122.34	41.744	5.657e-06	51.81	0.00059299	0.00058848	0.0001661	1386.9	6.5577e-06	6.5561e-06	1387.6	376.45	6.5497e-06	6.4919e-06	429.64	144.54	125.59	43.227	6.4453e-06	53.424	298.818	136.808	154.809	62.487	266.661	163.140	62.527	67.079	226.557	190.197	66.405	71.605	71.798	76.024	220.914	75.045	-8191	255	
865.321	1	1	0	0	0.10868	0.27434	0.16437	0.13226	0.36249	0.20726	0.37023	0.27244	0.19089	0.035804	0.15278	0.2026	0.16565	0.11906	0.16354	0.18304	-1.075	-2.1896	-1.3229	-2.0333	-2.1583	-1.4396	-2.3604	-1.9042	-1.3896	-2.3125	-1.6021	-1.7917	-2.3208	-1.2667	-2.1	-2	146.274	59.514	99.437	282.587	144.269	233.979	337.971	340.952	271.232	324.154	361.540	189.365	317.674	365.313	139.297	143.100	0.0010205	0.00080253	0.00019802	1360.6	6.1488e-06	6.4524e-06	1356.8	367.95	3.3544e-06	5.4302e-06	417.73	140.74	122.24	41.836	3.2286e-06	51.584	0.00058588	0.00057916	0.00016107	1384.3	6.2678e-06	6.2968e-06	1380.2	375.07	6.2991e-06	6.2969e-06	427.55	143.59	125.32	43.185	6.3794e-06	53.421	289.997	101.889	122.868	62.504	240.269	181.801	62.584	66.921	199.548	112.447	66.211	71.156	71.797	76.043	266.985	74.638	-8191	255	
865.417	1	1	0	0	0.17943	0.2142	0.14413	0.34236	0.17107	0.1898	0.33766	0.30252	0.17418	0.14024	0.2692	0.17031	0.36877	0.30876	0.037473	0.46968	-0.92708	-2.25	-1.3937	-1.9312	-2.0917	-1.3854	-2.2792	-2.1271	-1.2958	-2.4208	-1.5854	-1.8354	-2.4479	-1.5187	-1.9771	-2.1167	204.862	325.815	135.974	391.072	135.461	297.396	353.175	359.607	59.635	74.791	304.104	356.119	133.596	400.235	174.556	352.419	0.00089597	0.0004957	3.5145e-05	1353.5	1.2949e-05	1.0844e-05	1357.4	368.34	3.2954e-06	5.6336e-06	420.56	141.18	122.04	41.862	4.0177e-06	51.741	0.00059398	0.00059114	0.000164	1384.1	6.5693e-06	6.5015e-06	1383.3	376.46	6.5587e-06	6.5483e-06	430.01	144.53	125.72	43.338	6.4869e-06	53.681	275.540	103.542	280.775	62.416	249.508	200.392	62.358	67.202	163.908	134.303	66.078	71.054	71.806	75.563	256.441	74.948	-8191	255	
865.513	1	1	0	0	0.41164	0.13956	0.13918	0.38529	0.099795	0.17009	0.32702	0.2742	0.090285	0.38118	0.11117	0.026976	0.30593	0.43723	0.24516	0.27322	-0.97083	-2.1542	-1.7	-1.6646	-2.3063	-1.4479	-2.1083	-2.2167	-1.4688	-2.2146	-2.0062	-1.7396	-2.3771	-1.7146	-1.6646	-2.4208	307.142	198.035	188.186	360.410	139.875	340.660	372.665	328.582	380.640	216.109	361.941	369.905	355.598	50.891	144.792	112.477	0.00090459	0.00097533	0.00012363	1358.8	3.7815e-06	5.6656e-06	1362	368.14	4.783e-06	1.089e-05	420.1	140.46	122.03	41.61	5.9207e-06	51.707	0.00059639	0.00059493	0.00016484	1386.7	6.5267e-06	6.4995e-06	1385.4	376.75	6.5808e-06	6.5541e-06	431.06	144.49	125.89	43.365	6.5492e-06	53.641	278.462	220.540	394.610	62.532	223.982	235.953	62.381	67.073	223.729	197.969	66.214	71.448	71.644	75.677	140.657	74.589	-8191	255	
865.609	1	1	0	0	0.084821	0.23557	0.21646	0.21826	0.22539	0.11221	0.4457	0.16352	0.06632	0.17374	0.40365	0.19002	0.19979	0.11958	0.1174	0.18098	-1.0625	-2.1292	-1.8729	-1.7083	-2.2417	-1.4958	-2.0062	-2.3271	-1.3292	-2.1542	-2.2604	-1.4792	-2.3583	-1.4625	-1.8271	-2.3792	142.011	67.798	158.982	357.389	236.956	268.644	367.526	391.953	151.582	402.181	356.242	398.749	405.868	398.563	298.176	121.502	0.000752	0.00042437	5.7262e-05	1354.7	7.6804e-06	4.2813e-06	1362.2	367.28	5.6378e-06	3.0551e-06	418.18	140.93	122.22	41.685	4.6721e-06	51.701	0.00060387	0.00059753	0.00016678	1386.2	6.5148e-06	6.5031e-06	1384.9	376.66	6.5012e-06	6.5022e-06	429.81	144.51	125.64	43.326	6.5549e-06	53.6	302.905	177.973	243.091	62.195	257.276	303.828	62.249	66.803	158.522	238.518	66.242	71.271	71.914	75.710	146.548	74.925	-8191	255	
865.705	1	1	0	0	0.099868	0.26033	0.24762	0.15397	0.20805	0.10194	0.49001	0.25431	0.1545	0.1407	0.26915	0.12113	0.19954	0.18756	0.26742	0.31939	-0.76875	-2.0312	-1.975	-1.6083	-2.2313	-1.5479	-1.7708	-2.5187	-1.3875	-2.0563	-2.3187	-1.3604	-2.3563	-1.7229	-1.4042	-2.4167	55.715	59.927	89.787	358.397	127.985	311.229	330.619	318.648	54.615	364.587	304.357	333.968	100.547	345.322	309.804	337.448	0.0006346	0.00053681	7.7181e-05	1351	1.3342e-06	2.3083e-06	1360.4	368.5	4.5939e-06	8.2879e-06	419.71	140.65	122.67	41.956	7.8829e-06	52.338	0.00060328	0.00060126	0.000169	1386.6	6.6901e-06	6.7061e-06	1385.2	377.5	6.7735e-06	6.7637e-06	431.05	144.83	126.34	43.538	6.7993e-06	53.992	281.552	53.317	103.378	62.350	311.172	277.961	62.072	67.125	185.006	90.528	66.544	71.163	71.628	75.972	139.163	74.855	-8191	255	
865.801	1	1	0	0	0.17416	0.12522	0.26338	0.19118	0.14921	0.16694	0.40831	0.19446	0.029035	0.19437	0.14825	0.21176	0.23223	0.093506	0.030921	0.41398	-0.96875	-1.7854	-2.1854	-1.6063	-2.2104	-1.6896	-1.6854	-2.6	-1.3208	-1.9667	-2.2729	-1.3937	-2.3542	-1.8583	-1.1688	-2.525	279.829	389.104	115.971	322.263	307.522	339.515	306.167	406.771	123.433	181.701	187.200	321.848	369.184	124.731	338.926	318.507	0.00070732	0.00051385	0.00019044	1362.4	7.7834e-06	7.9565e-06	1359.8	368.22	8.7519e-06	5.267e-06	415.85	139.31	121.25	41.539	4.417e-06	51.675	0.0006215	0.00061568	0.00017256	1390.8	6.7543e-06	6.7031e-06	1387.1	377.67	6.6716e-06	6.6373e-06	429.88	144.32	125.74	43.318	6.4572e-06	53.523	278.948	72.557	148.773	62.415	219.549	137.970	62.112	67.119	226.566	151.741	66.333	71.206	71.686	75.955	196.745	75.038	-8191	255	
865.898	1	1	0	0	0.035117	0.25098	0.079703	0.11446	0.39493	0.19712	0.46894	0.18191	0.17007	0.25184	0.31103	0.16931	0.14151	0.1978	0.27003	0.15672	-1.1354	-1.8354	-2.2188	-1.5167	-2.0771	-1.9021	-1.6958	-2.4813	-1.6979	-1.6063	-2.2604	-1.5312	-1.9562	-2.1688	-1.3271	-2.325	397.363	307.448	102.359	72.150	320.822	156.134	333.692	393.927	390.649	400.913	380.158	131.947	387.972	360.988	110.078	332.383	0.00075867	0.00047415	0.00014003	1349.6	3.8167e-06	8.2073e-06	1353.4	366.32	1.8536e-06	3.5152e-06	415.39	140.46	121.92	41.707	3.3998e-06	51.217	0.00059353	0.00059123	0.00016428	1383.7	6.4385e-06	6.4004e-06	1384.7	376.1	6.3957e-06	6.3795e-06	429.13	143.94	125.57	43.217	6.2462e-06	53.29	288.613	131.445	140.542	62.366	125.729	196.399	62.132	66.795	266.318	150.680	66.481	71.149	71.617	75.890	69.525	74.659	-8191	255	
866.016	1	1	0	0	0.288	0.21744	0.25409	0.11094	0.21296	0.12819	0.15992	0.27537	0.095821	0.032761	0.04087	0.25523	0.22167	0.13522	0.23548	0.28567	-1.1083	-1.6354	-2.1521	-1.6292	-2.0792	-2.175	-1.8729	-2.2521	-1.7896	-1.6521	-2.3812	-1.5688	-2.0625	-2.2021	-1.3479	-2.2208	95.404	143.486	208.107	309.558	108.277	235.330	363.500	338.276	50.136	335.068	62.679	51.145	60.806	134.034	116.678	379.004	0.00084598	0.00024977	0.00022262	1352.3	9.7726e-06	8.1181e-06	1353.5	364.8	3.9732e-06	1.7673e-06	415.64	139.85	121.32	41.368	1.447e-05	51.364	0.00057008	0.00056235	0.00015775	1380.5	6.079e-06	6.1342e-06	1377.6	374.11	6.1799e-06	6.1589e-06	426.68	143.33	124.69	42.977	6.2347e-06	53.169	284.911	99.388	152.125	62.316	248.207	178.546	62.492	67.096	186.910	229.741	66.245	71.146	71.820	75.720	184.004	75.140	-8191	255	
866.113	1	1	0	0	0.18663	0.1146	0.14159	0.24596	0.35108	0.08218	0.2243	0.064673	0.13564	0.23157	0.38969	0.15427	0.036314	0.24117	0.2111	0.16224	-1.5	-1.6271	-2.1771	-1.6417	-1.8083	-1.8646	-1.3708	-2.3354	-1.6229	-1.4667	-2.4437	-1.6104	-1.6812	-2.4062	-1.3875	-2.2979	298.259	241.580	259.716	386.618	124.341	240.676	391.575	365.838	351.915	401.788	386.192	124.252	238.347	405.627	253.461	307.872	0.00087045	0.0008134	0.00036345	1345.8	8.6486e-06	8.397e-07	1343.7	363.68	3.9013e-06	7.5496e-06	412.59	139.39	120.86	41.544	1.4546e-06	51.384	0.00057624	0.00057781	0.00016077	1376.4	6.3543e-06	6.2834e-06	1372	373.2	6.3343e-06	6.3541e-06	426.02	143.27	124.59	43.04	6.2361e-06	53.191	275.609	155.953	120.281	62.588	194.930	253.098	62.286	67.022	287.620	186.389	66.389	71.104	71.703	75.621	267.434	75.159	-8191	255	
866.209	1	1	0	0	0.14683	0.17953	0.11501	0.35342	0.21662	0.072089	0.50301	0.26877	0.16385	0.032742	0.35055	0.20708	0.11266	0.21937	0.26806	0.0697	-1.475	-1.3521	-2.2375	-1.6042	-1.5167	-2.0667	-1.3813	-2.0667	-2.0667	-1.3542	-2.2479	-1.8896	-1.775	-2.2854	-1.3292	-1.9479	263.254	278.006	334.444	360.659	284.138	238.402	381.331	376.625	58.326	98.808	77.968	361.933	107.342	403.137	291.417	213.653	0.00064551	2.0028e-05	0.00019764	1337.9	4.5106e-06	2.8723e-06	1343.6	363.93	2.3638e-06	1.9898e-06	417.93	140.57	121.86	41.71	1.1473e-05	51.497	0.00056659	0.00056445	0.00015757	1370.1	6.1106e-06	6.1339e-06	1368.9	371.98	6.1412e-06	6.1606e-06	425.68	142.89	124.43	43.024	6.1583e-06	53.153	287.945	95.994	117.266	62.331	209.035	266.357	62.340	67.157	74.584	169.897	66.644	71.287	72.010	76.446	156.923	75.215	-8191	255	
866.280	1	1	0	0	0.27338	0.1838	0.15272	0.24932	0.10706	0.090143	0.31411	0.31416	0.33651	0.035294	0.1113	0.37908	0.22636	0.22216	0.11472	0.16879	-1.7042	-1.1854	-2.0917	-1.875	-1.5438	-2.1521	-1.5771	-2.0458	-2.05	-1.275	-2.4542	-1.7979	-1.5354	-2.2604	-1.3979	-1.7604	275.428	235.027	276.608	388.326	110.440	105.418	49.905	381.800	153.868	338.883	73.871	51.804	365.992	242.542	124.338	237.425	0.00096048	0.00028115	0.00023072	1348.1	6.0021e-06	5.209e-06	1341	360.28	6.6009e-06	2.9e-06	413.16	138.73	120.42	41.238	1.2528e-05	51.132	0.00056544	0.00055976	0.00015622	1372.1	6.1093e-06	6.1377e-06	1368.8	370.8	6.0727e-06	6.032e-06	424.48	142.52	123.95	42.826	5.9504e-06	52.841	276.387	176.108	200.269	62.467	170.562	228.461	62.282	67.042	234.811	122.517	66.378	71.075	71.880	75.722	209.633	74.675	-8191	255	
866.401	1	1	0	0	0.31511	0.21706	0.18068	0.26613	0.16347	0.31095	0.11865	0.31836	0.16512	0.25417	0.40447	0.061427	0.24826	0.30068	0.22813	0.18766	-1.7167	-1.1875	-2.0396	-2.0875	-1.3104	-2.1813	-1.6958	-1.8438	-2.2687	-1.4167	-2.2083	-2.1104	-1.5	-2.3563	-1.6042	-1.6604	356.023	81.098	62.559	308.459	147.251	89.428	377.918	331.072	98.814	158.533	366.273	389.483	54.958	366.248	323.841	88.699	0.00063715	0.00045555	0.0001802	1339.6	9.1042e-06	4.6601e-06	1343.7	364.36	5.7315e-06	3.4193e-06	413.83	139.35	120.89	41.566	5.399e-06	51.211	0.00054783	0.00053969	0.00015252	1372.2	5.9603e-06	6.0027e-06	1369.7	372.33	6.0471e-06	6.0622e-06	424.92	142.89	124.24	42.978	6.1005e-06	53.071	290.504	111.239	91.004	62.280	253.544	157.299	62.148	67.265	226.391	310.634	66.553	71.331	72.155	76.093	96.728	74.756	-8191	255	
