BOXY.EXE: ISS Imagent and Oximeter Data Acquisition Program Version 0.80
Ascii Record File

#ACQ INFORMATION
2  Detector Channels 
16  External MUX Channels 
1  Auxiliary Channels 
5000  Waveform (CCF) Frequency (Hz)
1  Waveforms Skipped 
30  Waveforms Averaged 
1  Cycles Averaged 
16  Acquisitions per Waveform 
10.0806  Updata Rate (Hz) 

#FILE INFORMATION
TRUE -- External MUX Channel results are PARSED.
FALSE -- AC DC and Phase are NOT grouped.
TRUE -- Companion Program Settings File CREATED.
FALSE -- AC data not excluded
FALSE -- DC data not excluded
FALSE -- Phase data not excluded
FALSE -- Auxillary Chn. data not excluded
Tab delimiters

#CALIBRATION STATE
TRUE -- Waveform Calibration Values APPLIED.


#AUX CALIBRATION VALUES
Val Type	aux-1	

Term	1.0000e+00	
Factor	0.0000e+00	


#WF CALIBRATION VALUES
A = Detector Channel
Val Type	A-AC1	A-AC2	A-AC3	A-AC4	A-AC5	A-AC6	A-AC7	A-AC8	A-AC9	A-AC10	A-AC11	A-AC12	A-AC13	A-AC14	A-AC15	A-AC16	A-DC1	A-DC2	A-DC3	A-DC4	A-DC5	A-DC6	A-DC7	A-DC8	A-DC9	A-DC10	A-DC11	A-DC12	A-DC13	A-DC14	A-DC15	A-DC16	A-Ph1	A-Ph2	A-Ph3	A-Ph4	A-Ph5	A-Ph6	A-Ph7	A-Ph8	A-Ph9	A-Ph10	A-Ph11	A-Ph12	A-Ph13	A-Ph14	A-Ph15	A-Ph16	

Term	0.00000e+00	0.00000e+00	0.00000e+00	0.00000e+00	0.00000e+00	0.00000e+00	0.00000e+00	0.00000e+00	0.00000e+00	0.00000e+00	0.00000e+00	0.00000e+00	0.00000e+00	0.00000e+00	0.00000e+00	0.00000e+00	0.00000e+00	0.00000e+00	0.00000e+00	0.00000e+00	0.00000e+00	0.00000e+00	0.00000e+00	0.00000e+00	0.00000e+00	0.00000e+00	0.00000e+00	0.00000e+00	0.00000e+00	0.00000e+00	0.00000e+00	0.00000e+00	0.00000e+00	0.00000e+00	0.00000e+00	0.00000e+00	0.00000e+00	0.00000e+00	0.00000e+00	0.00000e+00	0.00000e+00	0.00000e+00	0.00000e+00	0.00000e+00	0.00000e+00	0.00000e+00	0.00000e+00	0.00000e+00	
Factor	1.00000e+00	1.00000e+00	1.00000e+00	1.00000e+00	1.00000e+00	1.00000e+00	1.00000e+00	1.00000e+00	1.00000e+00	1.00000e+00	1.00000e+00	1.00000e+00	1.00000e+00	1.00000e+00	1.00000e+00	1.00000e+00	1.00000e+00	1.00000e+00	1.00000e+00	1.00000e+00	1.00000e+00	1.00000e+00	1.00000e+00	1.00000e+00	1.00000e+00	1.00000e+00	1.00000e+00	1.00000e+00	1.00000e+00	1.00000e+00	1.00000e+00	1.00000e+00	X	X	X	X	X	X	X	X	X	X	X	X	X	X	X	X	

B = Detector Channel
Val Type	B-AC1	B-AC2	B-AC3	B-AC4	B-AC5	B-AC6	B-AC7	B-AC8	B-AC9	B-AC10	B-AC11	B-AC12	B-AC13	B-AC14	B-AC15	B-AC16	B-DC1	B-DC2	B-DC3	B-DC4	B-DC5	B-DC6	B-DC7	B-DC8	B-DC9	B-DC10	B-DC11	B-DC12	B-DC13	B-DC14	B-DC15	B-DC16	B-Ph1	B-Ph2	B-Ph3	B-Ph4	B-Ph5	B-Ph6	B-Ph7	B-Ph8	B-Ph9	B-Ph10	B-Ph11	B-Ph12	B-Ph13	B-Ph14	B-Ph15	B-Ph16	

Term	0.00000e+00	0.00000e+00	0.00000e+00	0.00000e+00	0.00000e+00	0.00000e+00	0.00000e+00	0.00000e+00	0.00000e+00	0.00000e+00	0.00000e+00	0.00000e+00	0.00000e+00	0.00000e+00	0.00000e+00	0.00000e+00	0.00000e+00	0.00000e+00	0.00000e+00	0.00000e+00	0.00000e+00	0.00000e+00	0.00000e+00	0.00000e+00	0.00000e+00	0.00000e+00	0.00000e+00	0.00000e+00	0.00000e+00	0.00000e+00	0.00000e+00	0.00000e+00	7.91608e+01	-1.57426e+02	-1.25790e+02	-1.81071e+02	-1.33254e+02	-4.33174e+01	-1.58384e+02	-1.62015e+02	-9.85754e+01	-5.35677e+01	-1.74335e+02	-1.74194e+02	-1.80052e+02	-1.76373e+02	-8.84111e+01	-1.49596e+02	
Factor	7.28416e-05	1.18705e-04	3.43277e-05	1.55421e-01	1.40958e-06	1.37877e-06	1.77198e-01	4.90421e-02	1.73132e-06	1.35496e-06	9.21222e-02	3.70337e-02	2.12366e-02	8.91378e-03	1.18770e-06	1.32070e-02	1.01932e-06	1.04090e-06	2.89617e-07	7.87538e-02	1.13864e-08	1.14252e-08	8.37802e-02	2.48126e-02	1.13964e-08	1.14369e-08	4.41850e-02	1.75058e-02	1.07770e-02	4.46422e-03	1.14014e-08	6.34155e-03	X	X	X	X	X	X	X	X	X	X	X	X	X	X	X	X	



#DISTANCE SETTINGS
A = Detector Channel
A-1	A-2	A-3	A-4	A-5	A-6	A-7	A-8	A-9	A-10	A-11	A-12	A-13	A-14	A-15	A-16	

2.5000e+00	3.0000e+00	2.5000e+00	3.0000e+00	2.0000e+00	3.0000e+00	1.5000e+00	3.0000e+00	3.0000e+00	3.0000e+00	3.0000e+00	3.0000e+00	3.0000e+00	3.0000e+00	1.5000e+00	3.0000e+00	

B = Detector Channel
B-1	B-2	B-3	B-4	B-5	B-6	B-7	B-8	B-9	B-10	B-11	B-12	B-13	B-14	B-15	B-16	

1.0000e+01	1.0000e+01	1.0000e+01	1.4400e+00	1.0000e+01	1.0000e+01	1.5100e+00	1.9400e+00	1.0000e+01	1.0000e+01	1.9900e+00	2.4900e+00	2.4100e+00	2.9000e+00	1.0000e+01	2.9800e+00	




#DATA BEGINS
time	group	step	mark	flag	A-AC1	A-AC2	A-AC3	A-AC4	A-AC5	A-AC6	A-AC7	A-AC8	A-AC9	A-AC10	A-AC11	A-AC12	A-AC13	A-AC14	A-AC15	A-AC16	A-DC1	A-DC2	A-DC3	A-DC4	A-DC5	A-DC6	A-DC7	A-DC8	A-DC9	A-DC10	A-DC11	A-DC12	A-DC13	A-DC14	A-DC15	A-DC16	A-Ph1	A-Ph2	A-Ph3	A-Ph4	A-Ph5	A-Ph6	A-Ph7	A-Ph8	A-Ph9	A-Ph10	A-Ph11	A-Ph12	A-Ph13	A-Ph14	A-Ph15	A-Ph16	B-AC1	B-AC2	B-AC3	B-AC4	B-AC5	B-AC6	B-AC7	B-AC8	B-AC9	B-AC10	B-AC11	B-AC12	B-AC13	B-AC14	B-AC15	B-AC16	B-DC1	B-DC2	B-DC3	B-DC4	B-DC5	B-DC6	B-DC7	B-DC8	B-DC9	B-DC10	B-DC11	B-DC12	B-DC13	B-DC14	B-DC15	B-DC16	B-Ph1	B-Ph2	B-Ph3	B-Ph4	B-Ph5	B-Ph6	B-Ph7	B-Ph8	B-Ph9	B-Ph10	B-Ph11	B-Ph12	B-Ph13	B-Ph14	B-Ph15	B-Ph16	aux-1	digaux	

966.992	1	1	0	256	0.10412	0.33625	0.37949	0.11504	0.28674	0.10212	0.083324	0.092291	0.23362	0.17138	0.10126	0.10906	0.096747	0.03522	0.25883	0.088069	-2.3958	-2.5208	-2.7375	-2.7313	-2.5604	-2.8208	-2.6958	-2.7333	-2.8354	-2.3937	-2.7583	-2.4771	-2.5187	-2.9688	-2.5979	-2.9292	94.937	107.357	398.114	201.405	354.671	350.430	350.371	96.415	102.931	129.361	396.369	294.603	157.348	136.961	284.372	343.939	0.001067	0.00058601	4.0869e-05	399.3	3.6006e-06	1.4214e-05	542.98	109.24	5.7746e-06	2.9294e-06	191.54	78.889	39.893	18.239	7.4174e-06	39.561	0.0012325	0.0012438	0.00034848	489.53	1.3687e-05	1.3701e-05	637.29	137.35	1.3843e-05	1.3879e-05	240.71	96.823	52.316	23.321	1.4068e-05	46.181	382.071	241.937	243.521	78.768	255.895	324.871	78.127	84.396	142.207	108.992	83.686	88.872	90.061	93.738	294.380	91.908	-8191	255	
967.088	1	1	0	0	0.29335	0.1026	0.10616	0.1427	0.13339	0.21114	0.10459	0.07995	0.1307	0.18162	0.075978	0.1231	0.26955	0.18096	0.15673	0.19263	-2.5125	-2.4333	-2.8729	-2.6958	-2.5187	-2.9583	-2.6	-2.8354	-3.0563	-2.3583	-2.9562	-2.8083	-2.4104	-2.8896	-2.7396	-2.6729	218.779	374.221	188.472	239.654	282.661	276.824	332.210	180.555	212.487	361.865	155.597	246.967	360.929	425.457	383.610	75.762	0.0016177	0.00010477	0.00024612	397.31	1.3931e-05	7.1449e-06	542.86	109.63	7.1657e-06	1.2264e-05	194.18	80.71	40.869	18.542	7.3161e-07	40.273	0.0012677	0.0012813	0.00035885	489.71	1.4077e-05	1.4152e-05	637.22	139.39	1.4153e-05	1.4158e-05	243.19	98.776	53.184	23.778	1.4142e-05	46.934	364.783	353.798	255.705	78.807	148.675	251.096	78.198	84.749	261.284	200.805	83.812	88.705	89.753	93.970	336.575	91.894	-8191	255	
967.159	1	1	0	0	0.17744	0.16486	0.15578	0.15045	0.019885	0.12921	0.13123	0.057224	0.065832	0.29662	0.091139	0.23449	0.14571	0.013842	0.15366	0.091148	-2.3333	-2.4583	-2.7	-2.8896	-2.5229	-2.9188	-2.6125	-2.4458	-2.8688	-2.4021	-2.7771	-2.775	-2.4417	-2.9104	-2.6271	-2.6688	135.149	134.278	215.752	76.721	389.507	160.509	367.925	408.292	85.073	207.452	292.592	415.056	269.348	416.926	311.827	299.858	0.0013053	0.00049131	7.1343e-05	397.91	7.9715e-06	1.0392e-05	540.72	110.06	5.2323e-06	1.0807e-05	195.73	81.462	41.146	19.097	6.1162e-06	40.954	0.0012807	0.0012911	0.0003582	490.02	1.4039e-05	1.4046e-05	636.03	139.47	1.4011e-05	1.4211e-05	244.88	99.732	53.622	24.231	1.4172e-05	47.89	362.743	99.986	132.311	78.368	171.751	273.854	77.494	84.293	153.988	189.031	83.533	88.805	89.938	93.697	142.503	91.595	-8191	255	
967.280	1	1	0	0	0.38333	0.10284	0.03714	0.15429	0.1517	0.017681	0.15014	0.068339	0.037831	0.094969	0.12469	0.11426	0.13593	0.17038	0.13647	0.17627	-2.5187	-2.65	-2.7646	-2.8396	-2.5271	-3.0375	-2.6958	-2.6083	-2.9562	-2.6854	-2.7729	-2.8688	-2.6	-2.7125	-2.7062	-2.7167	364.253	359.868	153.274	326.510	198.375	157.798	419.975	227.281	113.269	207.168	424.574	69.750	364.948	408.355	91.649	96.508	0.0018288	0.00014026	9.349e-05	393.83	8.6329e-06	1.3292e-05	538.26	111.24	7.5495e-06	8.2694e-06	196.64	82.444	41.89	19.306	1.1859e-05	41	0.0012761	0.0012949	0.00035922	487.82	1.4141e-05	1.4273e-05	635.45	140.41	1.4099e-05	1.4182e-05	246.33	100.71	54.252	24.387	1.4032e-05	47.66	363.512	102.208	196.974	78.629	375.445	123.998	77.707	84.183	224.578	182.074	83.750	87.997	90.179	93.758	231.833	91.849	-8191	255	
967.376	1	1	0	0	0.21326	0.053655	0.15095	0.28977	0.21206	0.095967	0.2843	0.22307	0.16383	0.2663	0.20076	0.13517	0.11816	0.094949	0.012277	0.085191	-2.475	-2.5229	-2.7271	-2.975	-2.4479	-2.8979	-2.8563	-2.55	-3.0396	-2.6063	-2.6188	-3.1167	-2.3417	-2.9646	-2.9292	-2.4417	388.859	356.176	406.346	425.427	346.371	268.101	373.984	287.431	298.554	189.581	345.371	323.284	345.550	309.627	299.019	196.696	0.0012884	0.00069599	0.00025206	401.24	1.2772e-05	1.0192e-05	539.48	112.05	7.4325e-06	6.4679e-06	197.6	81.53	40.919	18.863	1.3363e-05	40.435	0.0012636	0.0012781	0.00035672	491.27	1.39e-05	1.3965e-05	634.1	140.42	1.3882e-05	1.3889e-05	244.65	99.045	53.256	23.922	1.3738e-05	46.897	393.043	149.673	134.744	78.402	300.139	360.147	78.299	84.850	220.363	265.638	83.875	88.068	89.309	93.333	192.308	91.024	-8191	255	
967.472	1	1	0	0	0.072245	0.20744	0.23497	0.10423	0.33884	0.018887	0.29251	0.11738	0.16449	0.15291	0.18365	0.032043	0.11564	0.19106	0.073757	0.098306	-2.4354	-2.6437	-2.6333	-2.95	-2.2979	-2.775	-2.8292	-2.3646	-2.8729	-2.6667	-2.6688	-2.7479	-2.6521	-2.8396	-2.725	-2.4729	127.050	101.129	204.664	392.155	372.588	383.106	399.467	260.009	203.736	402.471	107.512	397.129	172.102	81.716	244.984	359.695	0.0017992	0.00099024	9.743e-05	403.52	4.296e-06	8.0008e-06	542.67	111.4	9.2885e-06	1.007e-05	195.57	80.039	40.294	18.302	1.1096e-05	39.699	0.0012419	0.0012544	0.0003465	491.48	1.362e-05	1.3749e-05	635.58	139.65	1.3683e-05	1.3714e-05	242.99	98.039	52.518	23.419	1.3719e-05	46.247	378.998	171.175	304.906	77.870	155.798	192.519	77.763	84.425	187.099	279.395	83.743	88.671	89.918	93.993	222.056	91.678	-8191	255	
967.569	1	1	0	0	0.1217	0.17474	0.061522	0.34915	0.1377	0.21155	0.18132	0.24804	0.10328	0.19118	0.078772	0.16499	0.15405	0.096731	0.12049	0.072273	-2.4792	-2.6583	-2.1083	-2.9479	-2.4625	-2.5833	-2.9042	-2.4062	-2.8646	-2.7708	-2.5062	-2.9562	-2.5854	-2.5625	-2.9437	-2.5021	373.735	249.427	98.068	84.116	232.452	366.025	318.780	426.126	257.007	240.525	414.345	332.135	322.645	377.991	351.376	259.894	0.0011397	0.00031124	6.2231e-05	398.79	1.587e-05	8.0179e-06	543.91	110.6	1.3883e-05	1.5471e-05	195.11	79.528	39.787	18.427	9.0786e-06	39.923	0.0012488	0.0012594	0.00034909	491.77	1.3712e-05	1.3825e-05	635.45	139	1.3755e-05	1.3823e-05	241.93	97.177	52.193	23.381	1.3721e-05	46.305	372.558	303.900	82.171	78.452	133.779	248.924	77.751	84.718	158.115	223.077	83.569	89.257	89.670	94.410	253.755	92.249	-8191	255	
967.689	1	1	0	0	0.31231	0.20983	0.058507	0.32128	0.1018	0.15857	0.33297	0.10762	0.11421	0.081865	0.073224	0.033444	0.26862	0.20896	0.090632	0.094905	-2.3833	-2.4917	-2.5812	-2.9542	-2.5375	-2.7854	-2.7333	-2.4333	-2.9833	-2.6729	-2.5646	-3.0187	-2.6188	-2.6542	-3.0771	-2.7146	134.664	338.635	393.817	371.819	135.768	132.864	116.512	193.283	237.308	115.978	224.073	149.504	318.926	308.457	83.500	99.244	0.0015238	0.00045419	0.00021822	401.64	3.0753e-06	9.1048e-06	543.46	110.36	9.8417e-06	7.359e-06	194.62	79.92	40.13	18.102	5.4811e-06	39.017	0.001237	0.0012511	0.00034833	491.04	1.3655e-05	1.3698e-05	635.2	138.14	1.3627e-05	1.366e-05	241.72	96.831	51.798	23.121	1.3599e-05	45.644	377.829	73.699	69.433	78.878	337.201	223.186	77.872	84.736	407.894	282.624	84.103	89.267	90.259	94.643	76.023	92.327	-8191	255	
967.784	1	1	0	0	0.18785	0.2039	0.10472	0.28638	0.18438	0.18735	0.14198	0.11601	0.23118	0.14638	0.19224	0.043001	0.1828	0.2772	0.057381	0.051561	-2.2375	-2.7896	-2.3917	-2.9688	-2.8312	-2.5167	-2.9979	-2.75	-2.7812	-2.9854	-2.6271	-2.8438	-2.7542	-2.6271	-2.8208	-2.7667	398.301	337.210	333.523	389.293	185.239	200.278	355.756	99.841	133.861	367.522	220.638	360.703	279.455	364.701	414.813	304.242	0.0018409	0.00045155	7.2402e-05	402.42	4.575e-06	5.2511e-06	544.7	109.77	5.7065e-06	1.7732e-05	193.07	78.049	39.481	18.038	3.6449e-06	38.532	0.001235	0.0012434	0.00034755	492.34	1.3621e-05	1.3706e-05	634.78	137.86	1.3719e-05	1.3721e-05	240.94	95.879	51.505	22.925	1.3755e-05	45.13	381.318	189.869	172.255	79.495	217.652	171.563	78.291	84.498	187.131	147.373	84.453	89.022	90.221	94.342	118.411	92.643	-8191	255	
967.855	1	1	0	0	0.1025	0.16463	0.01309	0.18396	0.22621	0.061887	0.27328	0.12783	0.30642	0.22646	0.29485	0.13703	0.13477	0.11188	0.10631	0.28167	-2.4479	-3.0146	-2.5729	-2.6875	-2.6375	-2.6083	-3.0125	-2.65	-2.8542	-2.9062	-2.4917	-2.8563	-2.7438	-2.5104	-3.0771	-2.5333	317.401	176.280	165.480	88.142	358.169	156.182	371.867	361.589	210.165	106.014	91.867	296.045	71.279	354.363	93.862	104.368	0.0014552	0.00044973	9.3087e-05	404.77	3.3217e-06	8.4752e-06	545.5	110.94	6.875e-06	4.1305e-06	191.67	77.595	38.994	17.783	3.8621e-06	38.199	0.001249	0.0012617	0.00035057	496.63	1.3779e-05	1.385e-05	639.58	138.69	1.3729e-05	1.3788e-05	240.5	95.235	51.126	22.751	1.3704e-05	44.846	382.942	210.842	131.547	79.149	256.644	258.232	78.085	84.448	361.875	220.873	84.122	88.806	91.075	95.934	301.992	93.240	-8191	255	
967.953	1	1	0	0	0.082409	0.098696	0.15614	0.12916	0.21709	0.07056	0.076712	0.054625	0.25781	0.20924	0.24442	0.12715	0.13923	0.19935	0.067342	0.047979	-2.1833	-2.9104	-2.4375	-3.0875	-2.7542	-2.325	-3.0458	-2.7062	-2.6	-2.8917	-2.6583	-2.8979	-2.8854	-2.3896	-2.9021	-2.6083	75.104	158.099	269.468	421.926	94.793	355.458	398.823	148.106	102.733	153.573	374.690	402.667	390.275	403.517	247.699	415.954	0.001383	0.0003565	0.00019996	409.52	7.5507e-06	1.1377e-05	550.95	110.35	3.2482e-06	1.0065e-05	191.04	76.524	38.402	17.406	3.8974e-06	37.511	0.0012474	0.0012542	0.00034714	501.34	1.3701e-05	1.3717e-05	643	138.69	1.3714e-05	1.3714e-05	238.9	93.945	50.387	22.347	1.3673e-05	44.04	357.391	146.673	301.313	78.646	82.490	365.125	77.706	84.176	103.170	235.563	83.592	88.703	89.869	93.974	272.343	91.855	-8191	255	
968.072	1	1	0	0	0.30142	0.15833	0.047136	0.21026	0.076131	0.20218	0.41296	0.067576	0.28788	0.078098	0.16853	0.14395	0.20481	0.1128	0.063019	0.18839	-1.9583	-2.9437	-2.4833	-2.8563	-2.8854	-2.5771	-3.0875	-2.725	-2.5729	-3.0938	-2.4542	-2.9021	-2.9313	-2.3854	-2.975	-2.9521	138.892	387.309	166.716	393.604	192.753	406.639	380.231	381.314	87.515	97.936	342.727	341.789	390.334	87.898	186.576	357.673	0.0014767	0.00071049	0.00027238	413.15	1.3701e-06	9.2366e-06	557.42	109.78	1.4461e-05	4.0871e-06	191.5	75.144	37.623	17.129	1.4179e-06	36.99	0.0012333	0.0012412	0.0003467	503.64	1.3552e-05	1.3647e-05	646.3	138.26	1.3534e-05	1.3523e-05	236.7	92.334	49.638	21.952	1.3477e-05	43.517	370.043	179.358	88.495	78.286	107.840	215.054	77.675	84.319	175.059	197.669	83.805	89.116	90.006	93.954	251.885	92.326	-8191	255	
968.168	1	1	0	0	0.23802	0.066954	0.021733	0.13117	0.14618	0.24823	0.24531	0.10983	0.1376	0.12575	0.085199	0.26407	0.26371	0.11238	0.12077	0.016258	-2.0687	-2.9146	-2.6208	-2.6417	-2.7562	-2.5604	-2.7646	-2.7896	-2.3896	-2.8583	-2.7354	-2.6083	-3.0271	-2.5667	-2.7708	-2.7771	370.911	312.880	207.897	341.612	108.660	278.637	316.366	285.876	281.296	91.744	329.838	112.773	362.738	98.705	262.406	216.971	0.0013083	0.00087719	0.00013802	418.44	3.9632e-06	9.7437e-06	555.77	110.82	9.957e-06	1.1632e-05	190.97	75.382	38.209	17.369	5.5601e-06	37.438	0.0012206	0.0012298	0.00034242	504.59	1.3354e-05	1.3425e-05	642.71	137.88	1.3289e-05	1.334e-05	236.5	92.579	49.911	22.205	1.3286e-05	43.788	350.622	395.463	369.993	78.883	67.660	227.261	77.601	83.886	192.109	324.726	83.327	89.247	89.701	94.174	75.006	91.683	-8191	255	
968.264	1	1	0	0	0.21325	0.049289	0.10134	0.0068019	0.12026	0.056545	0.20387	0.082776	0.14906	0.08422	0.098211	0.032657	0.065596	0.17789	0.3077	0.18732	-2.0292	-2.95	-2.5667	-2.7042	-2.9083	-2.6625	-2.9042	-2.9229	-2.5125	-2.925	-2.6604	-2.7146	-2.9562	-2.5812	-2.6896	-2.9167	85.014	67.848	225.889	353.448	377.608	400.122	396.127	194.291	138.588	73.947	283.533	147.280	385.683	319.256	105.118	278.672	0.0016485	0.0004434	0.00014927	417.54	1.444e-05	2.7788e-06	553.33	110.22	3.6752e-06	1.2995e-05	191.98	76.327	38.965	17.713	7.1669e-06	38.402	0.0012029	0.0012149	0.0003388	503.04	1.329e-05	1.3338e-05	641.57	138.15	1.336e-05	1.3396e-05	237.53	93.873	50.773	22.74	1.3411e-05	44.791	364.516	271.340	89.854	77.985	145.066	417.950	77.896	84.613	162.222	107.896	84.149	88.772	89.726	94.141	133.829	91.789	-8191	255	
968.360	1	1	0	0	0.14068	0.074095	0.15246	0.12599	0.075157	0.11984	0.17229	0.077562	0.45675	0.13053	0.16067	0.1272	0.14961	0.14509	0.17192	0.20272	-1.9417	-2.7333	-2.6458	-2.5104	-2.8729	-2.4854	-2.8896	-2.9479	-2.4146	-2.825	-2.7833	-2.55	-2.9042	-2.5917	-2.6688	-3.1333	104.530	100.473	70.753	181.353	414.353	278.940	218.332	245.302	311.520	333.028	139.980	336.612	336.126	426.083	166.770	158.229	0.001573	0.00075672	0.00024973	416.2	4.6869e-06	5.7728e-06	553.26	111.27	6.6649e-06	4.7274e-06	191.48	76.063	38.763	17.891	9.2503e-06	38.236	0.0012101	0.0012206	0.00033806	502.36	1.3281e-05	1.3351e-05	641.31	138.02	1.3178e-05	1.3213e-05	237.45	93.897	50.355	22.58	1.3121e-05	44.422	376.575	159.918	268.274	78.553	173.154	290.034	78.297	84.740	329.741	323.600	84.031	89.733	90.522	94.320	224.764	92.140	-8191	255	
968.457	1	1	0	0	0.23641	0.25292	0.36496	0.26215	0.0018629	0.24149	0.28135	0.14398	0.34149	0.13491	0.035792	0.086524	0.19279	0.22588	0.097348	0.29809	-2.1292	-2.8542	-2.8021	-2.5563	-2.8896	-2.5875	-2.7354	-3.0229	-2.3479	-2.8438	-2.9021	-2.6667	-2.9729	-2.5854	-2.6958	-3.025	168.437	346.371	81.409	115.653	180.000	337.168	362.417	81.139	248.812	287.742	369.028	314.412	161.832	358.961	151.806	404.939	0.0016107	0.00067289	0.00019699	417.21	1.3237e-05	3.7828e-06	558.27	111.07	7.8424e-06	1.286e-06	191.6	75.574	38.022	17.354	5.7742e-06	37.305	0.0011827	0.001187	0.00032924	501.22	1.2918e-05	1.2923e-05	642.16	137.41	1.2821e-05	1.2839e-05	235.48	92.101	49.323	21.92	1.26e-05	43.344	350.197	112.992	296.947	78.726	259.555	379.511	77.966	84.822	323.426	219.614	83.646	89.166	90.519	95.183	362.807	92.255	-8191	255	
968.553	1	1	0	0	0.096113	0.20032	0.19064	0.095446	0.25396	0.26064	0.066236	0.11553	0.27344	0.11694	0.18051	0.24134	0.031269	0.24824	0.30025	0.43533	-2.0854	-2.8438	-2.7646	-2.525	-2.9208	-2.6479	-2.7521	-2.9167	-2.5646	-2.8125	-2.9479	-2.6625	-2.9583	-2.7104	-2.6146	-2.9313	200.917	354.187	274.840	191.920	236.615	220.352	71.573	269.477	89.397	310.066	155.658	405.740	256.135	107.015	301.741	321.066	0.0016614	0.00075553	5.786e-05	421.16	5.1183e-06	2.505e-06	560.52	110.6	1.0852e-05	1.1183e-05	189.91	73.969	37.281	16.787	3.6653e-06	36.265	0.0011299	0.0011303	0.00031424	500.76	1.2318e-05	1.2258e-05	639.46	135.55	1.2217e-05	1.225e-05	231.48	89.434	47.989	21.161	1.2164e-05	41.862	364.347	411.559	288.308	78.690	91.959	216.614	78.220	84.722	122.157	260.592	84.437	89.705	90.465	94.889	391.038	92.648	-8191	255	
968.673	1	1	0	0	0.24932	0.19429	0.047467	0.16642	0.28317	0.18011	0.16145	0.052372	0.16177	0.060689	0.23758	0.099128	0.20473	0.11841	0.026366	0.04533	-2.0292	-2.6562	-2.8896	-2.5542	-3.0354	-2.8	-2.6375	-3.0229	-2.6562	-2.8896	-2.8854	-2.4604	-3.0438	-2.5833	-2.5958	-2.9292	220.460	87.620	92.072	302.649	364.788	115.905	267.919	201.456	71.484	335.285	348.273	136.785	235.180	358.632	397.403	396.358	0.0013063	0.00077062	0.0001546	419.99	2.5919e-06	4.588e-06	560.61	109.98	1.4214e-05	2.1515e-06	190.21	73.92	37.436	16.881	4.0882e-07	36.133	0.0011029	0.0011087	0.00030766	499.5	1.207e-05	1.2048e-05	637.03	134.99	1.2092e-05	1.21e-05	230.85	89.661	48.126	21.247	1.223e-05	42.028	348.245	197.027	84.368	78.393	173.755	415.259	77.555	84.271	229.104	141.293	83.516	88.585	89.849	94.312	380.907	91.640	-8191	255	
